SpectraSuite Data File
++++++++++++++++++++++++++++++++++++
Date: Tue Jul 11 15:51:32 CEST 2017
User: IPCE
Dark Spectrum Present: Yes
Reference Spectrum Present: Yes
Number of Sampled Component Spectra: 1
Spectrometers: HR+C0708
Integration Time (usec): 1000 (HR+C0708)
Spectra Averaged: 10 (HR+C0708)
Boxcar Smoothing: 0 (HR+C0708)
Correct for Electrical Dark: No (HR+C0708)
Strobe/Lamp Enabled: No (HR+C0708)
Correct for Detector Non-linearity: No (HR+C0708)
Correct for Stray Light: No (HR+C0708)
Number of Pixels in Processed Spectrum: 2048
>>>>>Begin Processed Spectral Data<<<<<
188.76	-0.099
189.23	0.213
189.70	-0.168
190.17	0.071
190.64	0.602
191.12	0.270
191.59	0.176
192.06	0.483
192.53	0.216
193.01	0.882
193.48	-0.189
193.95	0.223
194.42	0.136
194.90	0.246
195.37	0.103
195.84	-0.098
196.31	0.522
196.78	-0.066
197.26	0.338
197.73	0.663
198.20	0.175
198.67	0.151
199.14	-0.031
199.62	0.050
200.09	0.740
200.56	0.272
201.03	0.190
201.50	0.252
201.97	0.282
202.45	0.299
202.92	0.442
203.39	0.383
203.86	0.416
204.33	0.334
204.80	0.485
205.28	0.246
205.75	0.225
206.22	0.310
206.69	0.547
207.16	0.284
207.63	0.330
208.11	0.398
208.58	0.341
209.05	0.351
209.52	0.447
209.99	0.338
210.46	0.330
210.93	0.316
211.41	0.213
211.88	0.408
212.35	0.322
212.82	0.189
213.29	0.481
213.76	0.351
214.23	0.470
214.70	0.314
215.18	0.383
215.65	0.351
216.12	0.360
216.59	0.381
217.06	0.565
217.53	0.345
218.00	0.436
218.47	0.559
218.94	0.328
219.41	0.408
219.89	0.508
220.36	0.418
220.83	0.524
221.30	0.393
221.77	0.414
222.24	0.502
222.71	0.508
223.18	0.370
223.65	0.647
224.12	0.515
224.59	0.549
225.06	0.511
225.54	0.529
226.01	0.697
226.48	0.647
226.95	0.557
227.42	0.743
227.89	0.660
228.36	0.768
228.83	0.939
229.30	0.888
229.77	0.898
230.24	1.209
230.71	1.201
231.18	1.085
231.65	1.247
232.12	1.436
232.59	1.263
233.06	1.387
233.53	1.351
234.00	1.588
234.47	1.564
234.94	1.753
235.41	1.661
235.88	1.721
236.35	1.675
236.82	1.733
237.29	1.794
237.76	1.717
238.23	1.769
238.70	1.929
239.17	1.890
239.64	1.846
240.11	1.895
240.58	2.021
241.05	2.131
241.52	1.985
241.99	1.972
242.46	1.972
242.93	2.108
243.40	2.070
243.87	2.137
244.34	2.350
244.81	2.147
245.28	2.116
245.75	2.329
246.22	2.254
246.69	2.214
247.16	2.182
247.63	2.227
248.10	2.265
248.57	2.154
249.04	2.249
249.51	2.321
249.98	2.176
250.45	2.378
250.92	2.271
251.39	2.141
251.85	2.124
252.32	2.048
252.79	1.887
253.26	1.852
253.73	1.821
254.20	1.713
254.67	1.628
255.14	1.542
255.61	1.522
256.08	1.491
256.55	1.420
257.02	1.378
257.49	1.348
257.95	1.292
258.42	1.268
258.89	1.213
259.36	1.201
259.83	1.170
260.30	1.142
260.77	1.115
261.24	1.099
261.71	1.069
262.17	1.052
262.64	1.033
263.11	1.010
263.58	0.999
264.05	0.982
264.52	0.967
264.99	0.943
265.46	0.930
265.92	0.917
266.39	0.908
266.86	0.890
267.33	0.877
267.80	0.873
268.27	0.859
268.74	0.851
269.20	0.837
269.67	0.828
270.14	0.817
270.61	0.808
271.08	0.797
271.55	0.794
272.01	0.781
272.48	0.777
272.95	0.773
273.42	0.760
273.89	0.759
274.36	0.750
274.82	0.743
275.29	0.740
275.76	0.733
276.23	0.728
276.70	0.726
277.16	0.716
277.63	0.716
278.10	0.713
278.57	0.703
279.04	0.703
279.50	0.698
279.97	0.697
280.44	0.694
280.91	0.691
281.38	0.692
281.84	0.687
282.31	0.686
282.78	0.687
283.25	0.682
283.72	0.681
284.18	0.682
284.65	0.680
285.12	0.676
285.59	0.675
286.05	0.675
286.52	0.675
286.99	0.675
287.46	0.674
287.92	0.674
288.39	0.677
288.86	0.675
289.33	0.672
289.79	0.675
290.26	0.672
290.73	0.674
291.20	0.666
291.66	0.669
292.13	0.661
292.60	0.658
293.07	0.654
293.53	0.652
294.00	0.643
294.47	0.639
294.93	0.635
295.40	0.623
295.87	0.618
296.34	0.609
296.80	0.603
297.27	0.595
297.74	0.587
298.20	0.582
298.67	0.578
299.14	0.567
299.60	0.554
300.07	0.547
300.54	0.537
301.01	0.530
301.47	0.518
301.94	0.513
302.41	0.505
302.87	0.500
303.34	0.491
303.81	0.486
304.27	0.476
304.74	0.471
305.21	0.462
305.67	0.457
306.14	0.450
306.61	0.443
307.07	0.440
307.54	0.431
308.01	0.424
308.47	0.425
308.94	0.417
309.40	0.412
309.87	0.406
310.34	0.408
310.80	0.402
311.27	0.393
311.74	0.392
312.20	0.388
312.67	0.387
313.13	0.386
313.60	0.383
314.07	0.377
314.53	0.373
315.00	0.373
315.47	0.373
315.93	0.369
316.40	0.369
316.86	0.364
317.33	0.367
317.80	0.356
318.26	0.358
318.73	0.358
319.19	0.353
319.66	0.354
320.13	0.351
320.59	0.349
321.06	0.345
321.52	0.344
321.99	0.346
322.45	0.340
322.92	0.340
323.39	0.340
323.85	0.335
324.32	0.334
324.78	0.332
325.25	0.330
325.71	0.327
326.18	0.323
326.64	0.320
327.11	0.323
327.58	0.322
328.04	0.319
328.51	0.321
328.97	0.317
329.44	0.313
329.90	0.313
330.37	0.310
330.83	0.307
331.30	0.304
331.76	0.299
332.23	0.298
332.69	0.295
333.16	0.295
333.62	0.292
334.09	0.289
334.56	0.290
335.02	0.283
335.49	0.281
335.95	0.279
336.42	0.276
336.88	0.277
337.35	0.274
337.81	0.272
338.28	0.271
338.74	0.272
339.20	0.268
339.67	0.268
340.13	0.265
340.60	0.268
341.06	0.263
341.53	0.261
341.99	0.263
342.46	0.258
342.92	0.259
343.39	0.258
343.85	0.256
344.32	0.257
344.78	0.256
345.25	0.253
345.71	0.257
346.17	0.253
346.64	0.250
347.10	0.250
347.57	0.248
348.03	0.247
348.50	0.243
348.96	0.240
349.43	0.244
349.89	0.240
350.35	0.240
350.82	0.238
351.28	0.233
351.75	0.230
352.21	0.234
352.67	0.226
353.14	0.223
353.60	0.217
354.07	0.213
354.53	0.213
355.00	0.210
355.46	0.207
355.92	0.209
356.39	0.201
356.85	0.192
357.31	0.195
357.78	0.190
358.24	0.181
358.71	0.179
359.17	0.174
359.63	0.167
360.10	0.164
360.56	0.158
361.03	0.151
361.49	0.147
361.95	0.140
362.42	0.131
362.88	0.130
363.34	0.119
363.81	0.116
364.27	0.110
364.73	0.105
365.20	0.099
365.66	0.095
366.12	0.088
366.59	0.090
367.05	0.087
367.51	0.083
367.98	0.076
368.44	0.078
368.90	0.074
369.37	0.075
369.83	0.071
370.29	0.070
370.76	0.073
371.22	0.071
371.68	0.068
372.15	0.067
372.61	0.071
373.07	0.067
373.54	0.067
374.00	0.066
374.46	0.066
374.92	0.063
375.39	0.065
375.85	0.065
376.31	0.063
376.78	0.065
377.24	0.061
377.70	0.063
378.16	0.063
378.63	0.059
379.09	0.061
379.55	0.064
380.01	0.062
380.48	0.064
380.94	0.062
381.40	0.059
381.87	0.057
382.33	0.061
382.79	0.060
383.25	0.059
383.72	0.060
384.18	0.059
384.64	0.058
385.10	0.058
385.56	0.059
386.03	0.058
386.49	0.059
386.95	0.057
387.41	0.055
387.88	0.056
388.34	0.056
388.80	0.056
389.26	0.056
389.72	0.058
390.19	0.055
390.65	0.057
391.11	0.059
391.57	0.059
392.04	0.057
392.50	0.054
392.96	0.054
393.42	0.055
393.88	0.055
394.34	0.056
394.81	0.056
395.27	0.051
395.73	0.051
396.19	0.055
396.65	0.056
397.12	0.052
397.58	0.051
398.04	0.053
398.50	0.055
398.96	0.052
399.42	0.053
399.89	0.052
400.35	0.053
400.81	0.055
401.27	0.056
401.73	0.050
402.19	0.051
402.65	0.050
403.12	0.051
403.58	0.051
404.04	0.050
404.50	0.048
404.96	0.049
405.42	0.048
405.88	0.049
406.34	0.049
406.81	0.049
407.27	0.048
407.73	0.048
408.19	0.045
408.65	0.047
409.11	0.046
409.57	0.047
410.03	0.047
410.49	0.046
410.96	0.046
411.42	0.046
411.88	0.047
412.34	0.044
412.80	0.045
413.26	0.044
413.72	0.045
414.18	0.048
414.64	0.046
415.10	0.046
415.56	0.044
416.02	0.041
416.48	0.042
416.95	0.043
417.41	0.044
417.87	0.044
418.33	0.042
418.79	0.044
419.25	0.046
419.71	0.043
420.17	0.043
420.63	0.043
421.09	0.042
421.55	0.044
422.01	0.038
422.47	0.043
422.93	0.044
423.39	0.043
423.85	0.042
424.31	0.043
424.77	0.041
425.23	0.043
425.69	0.044
426.15	0.043
426.61	0.040
427.07	0.040
427.53	0.043
427.99	0.045
428.45	0.045
428.91	0.040
429.37	0.041
429.83	0.043
430.29	0.043
430.75	0.041
431.21	0.041
431.67	0.042
432.13	0.039
432.59	0.042
433.05	0.040
433.51	0.040
433.97	0.042
434.43	0.042
434.89	0.042
435.35	0.043
435.81	0.039
436.27	0.041
436.73	0.039
437.19	0.041
437.65	0.039
438.11	0.041
438.57	0.042
439.03	0.038
439.48	0.038
439.94	0.039
440.40	0.040
440.86	0.041
441.32	0.041
441.78	0.042
442.24	0.036
442.70	0.039
443.16	0.041
443.62	0.039
444.08	0.039
444.54	0.042
444.99	0.041
445.45	0.040
445.91	0.038
446.37	0.039
446.83	0.038
447.29	0.037
447.75	0.040
448.21	0.039
448.67	0.038
449.12	0.037
449.58	0.035
450.04	0.039
450.50	0.035
450.96	0.036
451.42	0.040
451.88	0.041
452.34	0.039
452.79	0.040
453.25	0.039
453.71	0.036
454.17	0.037
454.63	0.040
455.09	0.039
455.55	0.039
456.00	0.038
456.46	0.038
456.92	0.038
457.38	0.039
457.84	0.037
458.30	0.041
458.75	0.039
459.21	0.039
459.67	0.041
460.13	0.038
460.59	0.040
461.04	0.040
461.50	0.038
461.96	0.037
462.42	0.039
462.88	0.038
463.33	0.038
463.79	0.042
464.25	0.037
464.71	0.040
465.17	0.039
465.62	0.039
466.08	0.039
466.54	0.039
467.00	0.040
467.46	0.041
467.91	0.040
468.37	0.039
468.83	0.040
469.29	0.040
469.74	0.040
470.20	0.039
470.66	0.041
471.12	0.042
471.57	0.042
472.03	0.040
472.49	0.040
472.95	0.040
473.40	0.042
473.86	0.040
474.32	0.041
474.78	0.040
475.23	0.041
475.69	0.039
476.15	0.042
476.60	0.040
477.06	0.040
477.52	0.042
477.98	0.042
478.43	0.041
478.89	0.042
479.35	0.039
479.80	0.040
480.26	0.041
480.72	0.041
481.18	0.041
481.63	0.041
482.09	0.041
482.55	0.040
483.00	0.041
483.46	0.043
483.92	0.042
484.37	0.040
484.83	0.040
485.29	0.043
485.74	0.043
486.20	0.042
486.66	0.040
487.11	0.042
487.57	0.043
488.03	0.043
488.48	0.042
488.94	0.043
489.40	0.040
489.85	0.040
490.31	0.041
490.77	0.043
491.22	0.040
491.68	0.041
492.13	0.043
492.59	0.044
493.05	0.044
493.50	0.040
493.96	0.040
494.42	0.042
494.87	0.042
495.33	0.041
495.78	0.042
496.24	0.042
496.70	0.042
497.15	0.042
497.61	0.041
498.06	0.043
498.52	0.045
498.98	0.043
499.43	0.042
499.89	0.041
500.34	0.041
500.80	0.042
501.25	0.043
501.71	0.042
502.17	0.042
502.62	0.041
503.08	0.041
503.53	0.043
503.99	0.042
504.44	0.043
504.90	0.041
505.36	0.040
505.81	0.039
506.27	0.043
506.72	0.042
507.18	0.043
507.63	0.041
508.09	0.041
508.54	0.042
509.00	0.043
509.45	0.041
509.91	0.041
510.36	0.041
510.82	0.044
511.27	0.041
511.73	0.042
512.19	0.039
512.64	0.043
513.10	0.043
513.55	0.040
514.01	0.041
514.46	0.043
514.92	0.043
515.37	0.042
515.83	0.040
516.28	0.043
516.73	0.041
517.19	0.038
517.64	0.038
518.10	0.042
518.55	0.043
519.01	0.039
519.46	0.040
519.92	0.040
520.37	0.042
520.83	0.044
521.28	0.043
521.74	0.039
522.19	0.041
522.65	0.041
523.10	0.041
523.55	0.041
524.01	0.041
524.46	0.042
524.92	0.042
525.37	0.042
525.83	0.041
526.28	0.040
526.73	0.043
527.19	0.043
527.64	0.043
528.10	0.042
528.55	0.043
529.01	0.042
529.46	0.043
529.91	0.043
530.37	0.041
530.82	0.043
531.28	0.045
531.73	0.042
532.18	0.043
532.64	0.042
533.09	0.045
533.54	0.045
534.00	0.042
534.45	0.045
534.91	0.044
535.36	0.045
535.81	0.044
536.27	0.046
536.72	0.043
537.17	0.046
537.63	0.047
538.08	0.049
538.54	0.045
538.99	0.046
539.44	0.049
539.90	0.046
540.35	0.046
540.80	0.048
541.26	0.047
541.71	0.048
542.16	0.048
542.62	0.050
543.07	0.048
543.52	0.050
543.98	0.050
544.43	0.050
544.88	0.049
545.34	0.052
545.79	0.052
546.24	0.053
546.69	0.049
547.15	0.051
547.60	0.055
548.05	0.055
548.51	0.052
548.96	0.054
549.41	0.055
549.86	0.057
550.32	0.055
550.77	0.055
551.22	0.058
551.68	0.058
552.13	0.058
552.58	0.057
553.03	0.059
553.49	0.059
553.94	0.058
554.39	0.060
554.84	0.064
555.30	0.061
555.75	0.062
556.20	0.064
556.65	0.062
557.11	0.065
557.56	0.064
558.01	0.065
558.46	0.066
558.92	0.064
559.37	0.064
559.82	0.068
560.27	0.068
560.72	0.067
561.18	0.069
561.63	0.072
562.08	0.070
562.53	0.070
562.99	0.070
563.44	0.072
563.89	0.072
564.34	0.075
564.79	0.075
565.25	0.075
565.70	0.074
566.15	0.076
566.60	0.077
567.05	0.078
567.50	0.080
567.96	0.081
568.41	0.081
568.86	0.080
569.31	0.082
569.76	0.081
570.21	0.083
570.67	0.082
571.12	0.085
571.57	0.087
572.02	0.087
572.47	0.088
572.92	0.088
573.37	0.087
573.83	0.092
574.28	0.090
574.73	0.092
575.18	0.091
575.63	0.095
576.08	0.094
576.53	0.096
576.98	0.096
577.44	0.097
577.89	0.097
578.34	0.099
578.79	0.104
579.24	0.102
579.69	0.104
580.14	0.105
580.59	0.104
581.04	0.109
581.49	0.108
581.95	0.110
582.40	0.111
582.85	0.112
583.30	0.113
583.75	0.114
584.20	0.116
584.65	0.116
585.10	0.119
585.55	0.120
586.00	0.123
586.45	0.124
586.90	0.126
587.35	0.126
587.80	0.130
588.25	0.129
588.71	0.130
589.16	0.133
589.61	0.137
590.06	0.138
590.51	0.139
590.96	0.140
591.41	0.143
591.86	0.146
592.31	0.148
592.76	0.149
593.21	0.150
593.66	0.154
594.11	0.155
594.56	0.157
595.01	0.160
595.46	0.161
595.91	0.162
596.36	0.165
596.81	0.168
597.26	0.169
597.71	0.172
598.16	0.172
598.61	0.175
599.06	0.178
599.51	0.177
599.96	0.181
600.41	0.182
600.86	0.183
601.31	0.185
601.76	0.188
602.21	0.189
602.65	0.193
603.10	0.194
603.55	0.198
604.00	0.199
604.45	0.200
604.90	0.201
605.35	0.204
605.80	0.205
606.25	0.205
606.70	0.210
607.15	0.210
607.60	0.209
608.05	0.212
608.50	0.214
608.95	0.216
609.39	0.217
609.84	0.219
610.29	0.217
610.74	0.222
611.19	0.220
611.64	0.224
612.09	0.225
612.54	0.227
612.99	0.228
613.44	0.227
613.88	0.230
614.33	0.226
614.78	0.231
615.23	0.231
615.68	0.231
616.13	0.231
616.58	0.233
617.03	0.232
617.47	0.233
617.92	0.236
618.37	0.235
618.82	0.237
619.27	0.236
619.72	0.236
620.17	0.239
620.61	0.239
621.06	0.240
621.51	0.241
621.96	0.240
622.41	0.244
622.86	0.241
623.30	0.242
623.75	0.243
624.20	0.245
624.65	0.247
625.10	0.246
625.54	0.249
625.99	0.249
626.44	0.250
626.89	0.249
627.34	0.252
627.78	0.253
628.23	0.255
628.68	0.254
629.13	0.257
629.58	0.256
630.02	0.260
630.47	0.260
630.92	0.264
631.37	0.265
631.81	0.265
632.26	0.267
632.71	0.270
633.16	0.272
633.61	0.275
634.05	0.274
634.50	0.280
634.95	0.281
635.40	0.281
635.84	0.284
636.29	0.285
636.74	0.289
637.18	0.292
637.63	0.293
638.08	0.296
638.53	0.298
638.97	0.301
639.42	0.304
639.87	0.309
640.32	0.312
640.76	0.312
641.21	0.315
641.66	0.319
642.10	0.321
642.55	0.322
643.00	0.326
643.44	0.330
643.89	0.333
644.34	0.339
644.79	0.341
645.23	0.343
645.68	0.346
646.13	0.350
646.57	0.353
647.02	0.356
647.47	0.358
647.91	0.364
648.36	0.367
648.81	0.369
649.25	0.373
649.70	0.374
650.15	0.378
650.59	0.380
651.04	0.385
651.48	0.385
651.93	0.390
652.38	0.393
652.82	0.397
653.27	0.399
653.72	0.403
654.16	0.406
654.61	0.406
655.06	0.411
655.50	0.411
655.95	0.413
656.39	0.414
656.84	0.418
657.29	0.419
657.73	0.419
658.18	0.423
658.62	0.427
659.07	0.429
659.52	0.430
659.96	0.431
660.41	0.433
660.85	0.431
661.30	0.434
661.74	0.438
662.19	0.438
662.64	0.436
663.08	0.437
663.53	0.440
663.97	0.439
664.42	0.439
664.86	0.439
665.31	0.437
665.75	0.439
666.20	0.438
666.65	0.438
667.09	0.434
667.54	0.434
667.98	0.433
668.43	0.428
668.87	0.429
669.32	0.426
669.76	0.422
670.21	0.417
670.65	0.415
671.10	0.410
671.54	0.407
671.99	0.402
672.43	0.393
672.88	0.391
673.32	0.383
673.77	0.376
674.21	0.371
674.66	0.365
675.10	0.359
675.55	0.352
675.99	0.346
676.44	0.336
676.88	0.330
677.33	0.323
677.77	0.311
678.22	0.306
678.66	0.298
679.11	0.290
679.55	0.283
679.99	0.276
680.44	0.267
680.88	0.258
681.33	0.249
681.77	0.242
682.22	0.233
682.66	0.225
683.11	0.217
683.55	0.210
683.99	0.203
684.44	0.196
684.88	0.188
685.33	0.181
685.77	0.173
686.21	0.168
686.66	0.162
687.10	0.156
687.55	0.149
687.99	0.144
688.44	0.139
688.88	0.131
689.32	0.128
689.77	0.120
690.21	0.115
690.65	0.112
691.10	0.106
691.54	0.103
691.99	0.097
692.43	0.094
692.87	0.092
693.32	0.086
693.76	0.084
694.20	0.080
694.65	0.078
695.09	0.075
695.53	0.074
695.98	0.070
696.42	0.065
696.86	0.063
697.31	0.063
697.75	0.059
698.19	0.058
698.64	0.056
699.08	0.053
699.52	0.051
699.97	0.050
700.41	0.051
700.85	0.047
701.30	0.046
701.74	0.043
702.18	0.044
702.63	0.039
703.07	0.040
703.51	0.036
703.96	0.039
704.40	0.038
704.84	0.036
705.28	0.037
705.73	0.033
706.17	0.033
706.61	0.034
707.06	0.032
707.50	0.032
707.94	0.031
708.38	0.029
708.83	0.030
709.27	0.027
709.71	0.029
710.15	0.028
710.60	0.027
711.04	0.026
711.48	0.025
711.92	0.028
712.37	0.026
712.81	0.027
713.25	0.025
713.69	0.025
714.13	0.022
714.58	0.022
715.02	0.022
715.46	0.021
715.90	0.024
716.35	0.021
716.79	0.024
717.23	0.024
717.67	0.023
718.11	0.018
718.56	0.022
719.00	0.021
719.44	0.021
719.88	0.024
720.32	0.023
720.76	0.018
721.21	0.024
721.65	0.022
722.09	0.022
722.53	0.025
722.97	0.024
723.41	0.023
723.86	0.022
724.30	0.020
724.74	0.022
725.18	0.022
725.62	0.021
726.06	0.023
726.50	0.021
726.95	0.024
727.39	0.021
727.83	0.021
728.27	0.022
728.71	0.018
729.15	0.022
729.59	0.026
730.03	0.024
730.48	0.022
730.92	0.022
731.36	0.022
731.80	0.025
732.24	0.023
732.68	0.026
733.12	0.024
733.56	0.024
734.00	0.026
734.44	0.026
734.89	0.023
735.33	0.025
735.77	0.022
736.21	0.026
736.65	0.026
737.09	0.026
737.53	0.024
737.97	0.028
738.41	0.027
738.85	0.025
739.29	0.024
739.73	0.025
740.17	0.025
740.61	0.026
741.05	0.028
741.49	0.024
741.93	0.027
742.37	0.027
742.81	0.027
743.26	0.024
743.70	0.025
744.14	0.027
744.58	0.026
745.02	0.027
745.46	0.024
745.90	0.025
746.34	0.024
746.78	0.028
747.22	0.024
747.66	0.026
748.10	0.026
748.54	0.026
748.98	0.025
749.42	0.028
749.86	0.026
750.29	0.027
750.73	0.026
751.17	0.025
751.61	0.028
752.05	0.028
752.49	0.026
752.93	0.025
753.37	0.026
753.81	0.026
754.25	0.022
754.69	0.024
755.13	0.024
755.57	0.025
756.01	0.025
756.45	0.024
756.89	0.025
757.33	0.027
757.77	0.025
758.21	0.025
758.64	0.027
759.08	0.025
759.52	0.025
759.96	0.023
760.40	0.025
760.84	0.024
761.28	0.026
761.72	0.023
762.16	0.025
762.60	0.024
763.03	0.023
763.47	0.023
763.91	0.023
764.35	0.024
764.79	0.028
765.23	0.028
765.67	0.025
766.11	0.025
766.54	0.024
766.98	0.025
767.42	0.026
767.86	0.025
768.30	0.028
768.74	0.026
769.17	0.028
769.61	0.026
770.05	0.025
770.49	0.025
770.93	0.026
771.37	0.027
771.80	0.028
772.24	0.025
772.68	0.027
773.12	0.027
773.56	0.022
774.00	0.025
774.43	0.026
774.87	0.023
775.31	0.025
775.75	0.027
776.19	0.027
776.62	0.027
777.06	0.021
777.50	0.025
777.94	0.026
778.37	0.025
778.81	0.027
779.25	0.026
779.69	0.024
780.13	0.024
780.56	0.025
781.00	0.027
781.44	0.025
781.88	0.025
782.31	0.030
782.75	0.028
783.19	0.027
783.63	0.028
784.06	0.023
784.50	0.028
784.94	0.025
785.37	0.024
785.81	0.027
786.25	0.021
786.69	0.022
787.12	0.025
787.56	0.028
788.00	0.022
788.43	0.024
788.87	0.026
789.31	0.025
789.75	0.025
790.18	0.022
790.62	0.026
791.06	0.025
791.49	0.025
791.93	0.023
792.37	0.019
792.80	0.024
793.24	0.028
793.68	0.027
794.11	0.025
794.55	0.024
794.99	0.022
795.42	0.023
795.86	0.026
796.30	0.025
796.73	0.023
797.17	0.023
797.61	0.021
798.04	0.019
798.48	0.024
798.91	0.019
799.35	0.023
799.79	0.024
800.22	0.022
800.66	0.019
801.10	0.024
801.53	0.023
801.97	0.023
802.40	0.026
802.84	0.022
803.28	0.025
803.71	0.023
804.15	0.026
804.58	0.024
805.02	0.019
805.46	0.022
805.89	0.024
806.33	0.024
806.76	0.023
807.20	0.027
807.63	0.026
808.07	0.026
808.51	0.021
808.94	0.025
809.38	0.028
809.81	0.020
810.25	0.024
810.68	0.026
811.12	0.026
811.55	0.023
811.99	0.025
812.42	0.025
812.86	0.026
813.29	0.024
813.73	0.026
814.17	0.022
814.60	0.024
815.04	0.023
815.47	0.026
815.91	0.027
816.34	0.023
816.78	0.024
817.21	0.022
817.65	0.026
818.08	0.026
