SpectraSuite Data File
++++++++++++++++++++++++++++++++++++
Date: Tue Jul 11 15:41:02 CEST 2017
User: IPCE
Dark Spectrum Present: Yes
Reference Spectrum Present: Yes
Number of Sampled Component Spectra: 1
Spectrometers: HR+C0708
Integration Time (usec): 1000 (HR+C0708)
Spectra Averaged: 10 (HR+C0708)
Boxcar Smoothing: 0 (HR+C0708)
Correct for Electrical Dark: No (HR+C0708)
Strobe/Lamp Enabled: No (HR+C0708)
Correct for Detector Non-linearity: No (HR+C0708)
Correct for Stray Light: No (HR+C0708)
Number of Pixels in Processed Spectrum: 2048
>>>>>Begin Processed Spectral Data<<<<<
188.76	0.036
189.23	-0.322
189.70	-0.000
190.17	0.190
190.64	-0.000
191.12	0.474
191.59	0.126
192.06	1.067
192.53	0.469
193.01	0.609
193.48	-0.357
193.95	0.206
194.42	-0.072
194.90	0.441
195.37	0.189
195.84	0.097
196.31	0.279
196.78	0.233
197.26	0.347
197.73	0.487
198.20	0.128
198.67	0.226
199.14	0.122
199.62	0.145
200.09	0.286
200.56	0.234
201.03	0.163
201.50	0.399
201.97	0.299
202.45	0.445
202.92	0.329
203.39	0.448
203.86	0.570
204.33	0.381
204.80	0.461
205.28	0.529
205.75	0.434
206.22	0.300
206.69	0.495
207.16	0.390
207.63	0.338
208.11	0.552
208.58	0.371
209.05	0.345
209.52	0.472
209.99	0.374
210.46	0.447
210.93	0.343
211.41	0.347
211.88	0.309
212.35	0.401
212.82	0.239
213.29	0.399
213.76	0.375
214.23	0.366
214.70	0.393
215.18	0.313
215.65	0.454
216.12	0.412
216.59	0.225
217.06	0.532
217.53	0.394
218.00	0.454
218.47	0.475
218.94	0.365
219.41	0.486
219.89	0.608
220.36	0.337
220.83	0.515
221.30	0.366
221.77	0.419
222.24	0.497
222.71	0.814
223.18	0.465
223.65	0.534
224.12	0.563
224.59	0.648
225.06	0.642
225.54	0.650
226.01	0.646
226.48	0.693
226.95	0.669
227.42	0.958
227.89	0.764
228.36	0.855
228.83	0.890
229.30	0.923
229.77	0.967
230.24	1.246
230.71	1.254
231.18	1.176
231.65	1.372
232.12	1.294
232.59	1.513
233.06	1.425
233.53	1.398
234.00	1.562
234.47	1.699
234.94	1.732
235.41	1.704
235.88	1.787
236.35	1.648
236.82	1.732
237.29	1.745
237.76	1.891
238.23	1.866
238.70	1.867
239.17	2.024
239.64	1.922
240.11	2.101
240.58	2.012
241.05	2.112
241.52	2.097
241.99	2.050
242.46	1.984
242.93	2.111
243.40	2.245
243.87	2.282
244.34	2.426
244.81	2.195
245.28	2.110
245.75	2.298
246.22	2.235
246.69	2.209
247.16	2.389
247.63	2.326
248.10	2.324
248.57	2.192
249.04	2.203
249.51	2.338
249.98	2.220
250.45	2.417
250.92	2.416
251.39	2.311
251.85	2.225
252.32	2.275
252.79	2.091
253.26	2.124
253.73	2.064
254.20	1.910
254.67	1.917
255.14	1.844
255.61	1.798
256.08	1.831
256.55	1.723
257.02	1.705
257.49	1.678
257.95	1.645
258.42	1.620
258.89	1.577
259.36	1.548
259.83	1.537
260.30	1.497
260.77	1.475
261.24	1.451
261.71	1.436
262.17	1.405
262.64	1.400
263.11	1.361
263.58	1.352
264.05	1.336
264.52	1.320
264.99	1.310
265.46	1.284
265.92	1.262
266.39	1.260
266.86	1.239
267.33	1.230
267.80	1.225
268.27	1.202
268.74	1.192
269.20	1.179
269.67	1.167
270.14	1.157
270.61	1.148
271.08	1.136
271.55	1.137
272.01	1.114
272.48	1.107
272.95	1.100
273.42	1.087
273.89	1.085
274.36	1.076
274.82	1.069
275.29	1.061
275.76	1.048
276.23	1.042
276.70	1.050
277.16	1.028
277.63	1.023
278.10	1.029
278.57	1.020
279.04	1.011
279.50	1.009
279.97	1.005
280.44	0.994
280.91	0.993
281.38	0.997
281.84	0.992
282.31	0.989
282.78	0.986
283.25	0.987
283.72	0.979
284.18	0.979
284.65	0.975
285.12	0.974
285.59	0.971
286.05	0.968
286.52	0.966
286.99	0.970
287.46	0.965
287.92	0.964
288.39	0.965
288.86	0.964
289.33	0.961
289.79	0.965
290.26	0.957
290.73	0.956
291.20	0.944
291.66	0.948
292.13	0.950
292.60	0.937
293.07	0.936
293.53	0.932
294.00	0.927
294.47	0.915
294.93	0.909
295.40	0.898
295.87	0.896
296.34	0.885
296.80	0.879
297.27	0.871
297.74	0.866
298.20	0.854
298.67	0.850
299.14	0.840
299.60	0.824
300.07	0.821
300.54	0.812
301.01	0.797
301.47	0.794
301.94	0.781
302.41	0.777
302.87	0.767
303.34	0.751
303.81	0.750
304.27	0.741
304.74	0.731
305.21	0.726
305.67	0.719
306.14	0.714
306.61	0.703
307.07	0.698
307.54	0.693
308.01	0.685
308.47	0.684
308.94	0.678
309.40	0.671
309.87	0.666
310.34	0.665
310.80	0.655
311.27	0.650
311.74	0.645
312.20	0.640
312.67	0.643
313.13	0.639
313.60	0.632
314.07	0.631
314.53	0.624
315.00	0.621
315.47	0.626
315.93	0.617
316.40	0.619
316.86	0.612
317.33	0.608
317.80	0.606
318.26	0.599
318.73	0.599
319.19	0.597
319.66	0.598
320.13	0.590
320.59	0.594
321.06	0.581
321.52	0.587
321.99	0.586
322.45	0.584
322.92	0.579
323.39	0.571
323.85	0.570
324.32	0.573
324.78	0.566
325.25	0.557
325.71	0.557
326.18	0.555
326.64	0.554
327.11	0.548
327.58	0.550
328.04	0.543
328.51	0.541
328.97	0.539
329.44	0.540
329.90	0.533
330.37	0.532
330.83	0.529
331.30	0.528
331.76	0.522
332.23	0.518
332.69	0.514
333.16	0.512
333.62	0.509
334.09	0.503
334.56	0.503
335.02	0.499
335.49	0.494
335.95	0.493
336.42	0.486
336.88	0.484
337.35	0.483
337.81	0.483
338.28	0.480
338.74	0.482
339.20	0.482
339.67	0.479
340.13	0.477
340.60	0.474
341.06	0.473
341.53	0.469
341.99	0.468
342.46	0.467
342.92	0.465
343.39	0.462
343.85	0.460
344.32	0.459
344.78	0.463
345.25	0.458
345.71	0.462
346.17	0.456
346.64	0.456
347.10	0.453
347.57	0.450
348.03	0.446
348.50	0.445
348.96	0.439
349.43	0.440
349.89	0.431
350.35	0.434
350.82	0.423
351.28	0.426
351.75	0.414
352.21	0.416
352.67	0.406
353.14	0.406
353.60	0.392
354.07	0.383
354.53	0.383
355.00	0.379
355.46	0.364
355.92	0.361
356.39	0.357
356.85	0.344
357.31	0.341
357.78	0.334
358.24	0.317
358.71	0.309
359.17	0.300
359.63	0.289
360.10	0.277
360.56	0.265
361.03	0.253
361.49	0.244
361.95	0.229
362.42	0.215
362.88	0.204
363.34	0.190
363.81	0.180
364.27	0.167
364.73	0.159
365.20	0.146
365.66	0.140
366.12	0.129
366.59	0.122
367.05	0.118
367.51	0.109
367.98	0.104
368.44	0.104
368.90	0.099
369.37	0.095
369.83	0.091
370.29	0.088
370.76	0.090
371.22	0.088
371.68	0.086
372.15	0.083
372.61	0.081
373.07	0.083
373.54	0.083
374.00	0.078
374.46	0.082
374.92	0.077
375.39	0.079
375.85	0.079
376.31	0.079
376.78	0.077
377.24	0.074
377.70	0.074
378.16	0.077
378.63	0.073
379.09	0.072
379.55	0.075
380.01	0.071
380.48	0.072
380.94	0.073
381.40	0.068
381.87	0.069
382.33	0.071
382.79	0.070
383.25	0.069
383.72	0.070
384.18	0.068
384.64	0.070
385.10	0.070
385.56	0.071
386.03	0.067
386.49	0.068
386.95	0.067
387.41	0.067
387.88	0.069
388.34	0.068
388.80	0.064
389.26	0.067
389.72	0.066
390.19	0.066
390.65	0.066
391.11	0.065
391.57	0.066
392.04	0.065
392.50	0.064
392.96	0.063
393.42	0.064
393.88	0.067
394.34	0.064
394.81	0.063
395.27	0.059
395.73	0.062
396.19	0.064
396.65	0.065
397.12	0.064
397.58	0.060
398.04	0.062
398.50	0.061
398.96	0.061
399.42	0.060
399.89	0.060
400.35	0.058
400.81	0.061
401.27	0.062
401.73	0.060
402.19	0.057
402.65	0.058
403.12	0.059
403.58	0.059
404.04	0.059
404.50	0.057
404.96	0.059
405.42	0.055
405.88	0.057
406.34	0.057
406.81	0.058
407.27	0.055
407.73	0.056
408.19	0.054
408.65	0.055
409.11	0.055
409.57	0.055
410.03	0.056
410.49	0.055
410.96	0.054
411.42	0.054
411.88	0.054
412.34	0.052
412.80	0.054
413.26	0.055
413.72	0.050
414.18	0.056
414.64	0.050
415.10	0.052
415.56	0.052
416.02	0.049
416.48	0.048
416.95	0.049
417.41	0.049
417.87	0.049
418.33	0.049
418.79	0.050
419.25	0.051
419.71	0.047
420.17	0.050
420.63	0.048
421.09	0.049
421.55	0.051
422.01	0.046
422.47	0.047
422.93	0.047
423.39	0.048
423.85	0.050
424.31	0.047
424.77	0.048
425.23	0.049
425.69	0.052
426.15	0.047
426.61	0.049
427.07	0.048
427.53	0.048
427.99	0.048
428.45	0.050
428.91	0.046
429.37	0.048
429.83	0.047
430.29	0.048
430.75	0.045
431.21	0.047
431.67	0.050
432.13	0.045
432.59	0.045
433.05	0.047
433.51	0.044
433.97	0.048
434.43	0.046
434.89	0.046
435.35	0.047
435.81	0.044
436.27	0.045
436.73	0.045
437.19	0.046
437.65	0.042
438.11	0.046
438.57	0.045
439.03	0.045
439.48	0.044
439.94	0.045
440.40	0.043
440.86	0.048
441.32	0.043
441.78	0.045
442.24	0.043
442.70	0.043
443.16	0.045
443.62	0.047
444.08	0.044
444.54	0.048
444.99	0.044
445.45	0.044
445.91	0.044
446.37	0.042
446.83	0.043
447.29	0.044
447.75	0.043
448.21	0.044
448.67	0.044
449.12	0.039
449.58	0.039
450.04	0.041
450.50	0.044
450.96	0.041
451.42	0.044
451.88	0.047
452.34	0.044
452.79	0.044
453.25	0.046
453.71	0.041
454.17	0.043
454.63	0.045
455.09	0.043
455.55	0.043
456.00	0.042
456.46	0.043
456.92	0.045
457.38	0.045
457.84	0.041
458.30	0.043
458.75	0.043
459.21	0.042
459.67	0.042
460.13	0.043
460.59	0.046
461.04	0.040
461.50	0.042
461.96	0.042
462.42	0.045
462.88	0.041
463.33	0.044
463.79	0.044
464.25	0.042
464.71	0.045
465.17	0.042
465.62	0.044
466.08	0.043
466.54	0.042
467.00	0.044
467.46	0.044
467.91	0.043
468.37	0.042
468.83	0.043
469.29	0.043
469.74	0.043
470.20	0.042
470.66	0.043
471.12	0.043
471.57	0.044
472.03	0.043
472.49	0.044
472.95	0.042
473.40	0.043
473.86	0.042
474.32	0.043
474.78	0.044
475.23	0.043
475.69	0.043
476.15	0.046
476.60	0.045
477.06	0.043
477.52	0.044
477.98	0.044
478.43	0.044
478.89	0.044
479.35	0.042
479.80	0.045
480.26	0.042
480.72	0.044
481.18	0.044
481.63	0.044
482.09	0.045
482.55	0.044
483.00	0.044
483.46	0.044
483.92	0.044
484.37	0.045
484.83	0.045
485.29	0.045
485.74	0.045
486.20	0.044
486.66	0.045
487.11	0.045
487.57	0.045
488.03	0.046
488.48	0.043
488.94	0.045
489.40	0.044
489.85	0.046
490.31	0.044
490.77	0.046
491.22	0.043
491.68	0.044
492.13	0.044
492.59	0.046
493.05	0.044
493.50	0.044
493.96	0.045
494.42	0.045
494.87	0.045
495.33	0.046
495.78	0.043
496.24	0.044
496.70	0.045
497.15	0.046
497.61	0.046
498.06	0.046
498.52	0.045
498.98	0.045
499.43	0.043
499.89	0.044
500.34	0.043
500.80	0.046
501.25	0.044
501.71	0.046
502.17	0.043
502.62	0.044
503.08	0.042
503.53	0.044
503.99	0.044
504.44	0.046
504.90	0.044
505.36	0.041
505.81	0.041
506.27	0.044
506.72	0.043
507.18	0.044
507.63	0.043
508.09	0.044
508.54	0.044
509.00	0.045
509.45	0.043
509.91	0.045
510.36	0.042
510.82	0.045
511.27	0.042
511.73	0.043
512.19	0.042
512.64	0.044
513.10	0.042
513.55	0.043
514.01	0.042
514.46	0.043
514.92	0.044
515.37	0.042
515.83	0.041
516.28	0.043
516.73	0.041
517.19	0.041
517.64	0.041
518.10	0.042
518.55	0.043
519.01	0.042
519.46	0.043
519.92	0.044
520.37	0.042
520.83	0.043
521.28	0.044
521.74	0.044
522.19	0.043
522.65	0.044
523.10	0.044
523.55	0.040
524.01	0.043
524.46	0.044
524.92	0.044
525.37	0.045
525.83	0.043
526.28	0.041
526.73	0.044
527.19	0.045
527.64	0.046
528.10	0.043
528.55	0.044
529.01	0.044
529.46	0.046
529.91	0.043
530.37	0.045
530.82	0.045
531.28	0.045
531.73	0.044
532.18	0.044
532.64	0.045
533.09	0.044
533.54	0.047
534.00	0.044
534.45	0.045
534.91	0.043
535.36	0.047
535.81	0.046
536.27	0.048
536.72	0.043
537.17	0.046
537.63	0.048
538.08	0.048
538.54	0.048
538.99	0.049
539.44	0.051
539.90	0.049
540.35	0.047
540.80	0.048
541.26	0.047
541.71	0.050
542.16	0.050
542.62	0.050
543.07	0.050
543.52	0.049
543.98	0.051
544.43	0.051
544.88	0.053
545.34	0.053
545.79	0.053
546.24	0.054
546.69	0.053
547.15	0.052
547.60	0.056
548.05	0.053
548.51	0.053
548.96	0.057
549.41	0.055
549.86	0.057
550.32	0.057
550.77	0.057
551.22	0.059
551.68	0.056
552.13	0.057
552.58	0.059
553.03	0.059
553.49	0.060
553.94	0.060
554.39	0.060
554.84	0.063
555.30	0.062
555.75	0.062
556.20	0.063
556.65	0.063
557.11	0.064
557.56	0.066
558.01	0.064
558.46	0.067
558.92	0.066
559.37	0.068
559.82	0.067
560.27	0.069
560.72	0.068
561.18	0.068
561.63	0.071
562.08	0.071
562.53	0.071
562.99	0.071
563.44	0.071
563.89	0.074
564.34	0.074
564.79	0.074
565.25	0.074
565.70	0.076
566.15	0.077
566.60	0.077
567.05	0.078
567.50	0.080
567.96	0.081
568.41	0.081
568.86	0.080
569.31	0.083
569.76	0.081
570.21	0.083
570.67	0.082
571.12	0.084
571.57	0.086
572.02	0.088
572.47	0.090
572.92	0.087
573.37	0.086
573.83	0.090
574.28	0.091
574.73	0.089
575.18	0.093
575.63	0.093
576.08	0.092
576.53	0.096
576.98	0.095
577.44	0.096
577.89	0.097
578.34	0.099
578.79	0.102
579.24	0.101
579.69	0.102
580.14	0.104
580.59	0.103
581.04	0.105
581.49	0.108
581.95	0.109
582.40	0.109
582.85	0.110
583.30	0.111
583.75	0.113
584.20	0.114
584.65	0.113
585.10	0.117
585.55	0.117
586.00	0.122
586.45	0.123
586.90	0.124
587.35	0.123
587.80	0.127
588.25	0.128
588.71	0.128
589.16	0.131
589.61	0.134
590.06	0.135
590.51	0.136
590.96	0.138
591.41	0.140
591.86	0.145
592.31	0.147
592.76	0.147
593.21	0.149
593.66	0.150
594.11	0.151
594.56	0.155
595.01	0.158
595.46	0.158
595.91	0.159
596.36	0.162
596.81	0.165
597.26	0.165
597.71	0.167
598.16	0.170
598.61	0.173
599.06	0.174
599.51	0.175
599.96	0.178
600.41	0.179
600.86	0.182
601.31	0.182
601.76	0.187
602.21	0.186
602.65	0.191
603.10	0.191
603.55	0.195
604.00	0.196
604.45	0.197
604.90	0.199
605.35	0.200
605.80	0.200
606.25	0.202
606.70	0.205
607.15	0.207
607.60	0.208
608.05	0.209
608.50	0.211
608.95	0.214
609.39	0.214
609.84	0.216
610.29	0.215
610.74	0.219
611.19	0.218
611.64	0.219
612.09	0.221
612.54	0.222
612.99	0.222
613.44	0.224
613.88	0.229
614.33	0.224
614.78	0.228
615.23	0.227
615.68	0.229
616.13	0.232
616.58	0.229
617.03	0.230
617.47	0.232
617.92	0.232
618.37	0.232
618.82	0.233
619.27	0.233
619.72	0.235
620.17	0.235
620.61	0.235
621.06	0.240
621.51	0.235
621.96	0.236
622.41	0.238
622.86	0.237
623.30	0.240
623.75	0.241
624.20	0.242
624.65	0.243
625.10	0.242
625.54	0.244
625.99	0.246
626.44	0.245
626.89	0.246
627.34	0.250
627.78	0.247
628.23	0.249
628.68	0.251
629.13	0.251
629.58	0.251
630.02	0.254
630.47	0.257
630.92	0.259
631.37	0.262
631.81	0.261
632.26	0.263
632.71	0.265
633.16	0.268
633.61	0.270
634.05	0.272
634.50	0.273
634.95	0.276
635.40	0.275
635.84	0.282
636.29	0.280
636.74	0.283
637.18	0.286
637.63	0.288
638.08	0.290
638.53	0.293
638.97	0.295
639.42	0.300
639.87	0.302
640.32	0.305
640.76	0.308
641.21	0.311
641.66	0.315
642.10	0.317
642.55	0.319
643.00	0.324
643.44	0.325
643.89	0.329
644.34	0.335
644.79	0.337
645.23	0.340
645.68	0.344
646.13	0.346
646.57	0.351
647.02	0.352
647.47	0.352
647.91	0.358
648.36	0.363
648.81	0.366
649.25	0.367
649.70	0.371
650.15	0.373
650.59	0.377
651.04	0.381
651.48	0.383
651.93	0.386
652.38	0.390
652.82	0.392
653.27	0.395
653.72	0.398
654.16	0.401
654.61	0.403
655.06	0.407
655.50	0.408
655.95	0.408
656.39	0.410
656.84	0.415
657.29	0.417
657.73	0.416
658.18	0.423
658.62	0.423
659.07	0.428
659.52	0.428
659.96	0.429
660.41	0.430
660.85	0.430
661.30	0.432
661.74	0.436
662.19	0.437
662.64	0.433
663.08	0.436
663.53	0.438
663.97	0.439
664.42	0.437
664.86	0.438
665.31	0.437
665.75	0.440
666.20	0.437
666.65	0.435
667.09	0.436
667.54	0.434
667.98	0.433
668.43	0.432
668.87	0.428
669.32	0.427
669.76	0.424
670.21	0.421
670.65	0.417
671.10	0.410
671.54	0.406
671.99	0.404
672.43	0.396
672.88	0.390
673.32	0.384
673.77	0.379
674.21	0.374
674.66	0.367
675.10	0.361
675.55	0.355
675.99	0.347
676.44	0.340
676.88	0.329
677.33	0.322
677.77	0.315
678.22	0.307
678.66	0.302
679.11	0.292
679.55	0.283
679.99	0.278
680.44	0.270
680.88	0.261
681.33	0.251
681.77	0.245
682.22	0.236
682.66	0.227
683.11	0.220
683.55	0.213
683.99	0.204
684.44	0.199
684.88	0.189
685.33	0.181
685.77	0.174
686.21	0.171
686.66	0.164
687.10	0.156
687.55	0.149
687.99	0.147
688.44	0.139
688.88	0.134
689.32	0.128
689.77	0.121
690.21	0.117
690.65	0.113
691.10	0.108
691.54	0.105
691.99	0.101
692.43	0.096
692.87	0.093
693.32	0.090
693.76	0.087
694.20	0.083
694.65	0.079
695.09	0.075
695.53	0.073
695.98	0.072
696.42	0.067
696.86	0.065
697.31	0.064
697.75	0.062
698.19	0.058
698.64	0.058
699.08	0.056
699.52	0.053
699.97	0.052
700.41	0.052
700.85	0.048
701.30	0.047
701.74	0.046
702.18	0.044
702.63	0.042
703.07	0.042
703.51	0.039
703.96	0.040
704.40	0.039
704.84	0.037
705.28	0.038
705.73	0.034
706.17	0.034
706.61	0.035
707.06	0.033
707.50	0.032
707.94	0.035
708.38	0.031
708.83	0.032
709.27	0.028
709.71	0.032
710.15	0.028
710.60	0.029
711.04	0.027
711.48	0.027
711.92	0.029
712.37	0.026
712.81	0.028
713.25	0.026
713.69	0.027
714.13	0.023
714.58	0.025
715.02	0.025
715.46	0.025
715.90	0.025
716.35	0.023
716.79	0.024
717.23	0.024
717.67	0.024
718.11	0.022
718.56	0.024
719.00	0.024
719.44	0.024
719.88	0.026
720.32	0.025
720.76	0.023
721.21	0.026
721.65	0.024
722.09	0.023
722.53	0.026
722.97	0.024
723.41	0.022
723.86	0.024
724.30	0.023
724.74	0.025
725.18	0.025
725.62	0.023
726.06	0.023
726.50	0.024
726.95	0.023
727.39	0.025
727.83	0.023
728.27	0.024
728.71	0.023
729.15	0.025
729.59	0.024
730.03	0.024
730.48	0.026
730.92	0.026
731.36	0.024
731.80	0.025
732.24	0.024
732.68	0.025
733.12	0.027
733.56	0.025
734.00	0.026
734.44	0.030
734.89	0.024
735.33	0.026
735.77	0.027
736.21	0.027
736.65	0.029
737.09	0.028
737.53	0.027
737.97	0.028
738.41	0.027
738.85	0.027
739.29	0.026
739.73	0.027
740.17	0.028
740.61	0.026
741.05	0.029
741.49	0.027
741.93	0.025
742.37	0.025
742.81	0.027
743.26	0.028
743.70	0.027
744.14	0.027
744.58	0.027
745.02	0.029
745.46	0.025
745.90	0.028
746.34	0.027
746.78	0.028
747.22	0.029
747.66	0.028
748.10	0.026
748.54	0.028
748.98	0.026
749.42	0.028
749.86	0.027
750.29	0.029
750.73	0.028
751.17	0.025
751.61	0.027
752.05	0.027
752.49	0.027
752.93	0.029
753.37	0.028
753.81	0.028
754.25	0.027
754.69	0.026
755.13	0.025
755.57	0.027
756.01	0.027
756.45	0.024
756.89	0.026
757.33	0.029
757.77	0.027
758.21	0.027
758.64	0.028
759.08	0.027
759.52	0.027
759.96	0.029
760.40	0.026
760.84	0.026
761.28	0.027
761.72	0.027
762.16	0.027
762.60	0.026
763.03	0.027
763.47	0.023
763.91	0.023
764.35	0.025
764.79	0.030
765.23	0.024
765.67	0.026
766.11	0.027
766.54	0.027
766.98	0.026
767.42	0.025
767.86	0.026
768.30	0.031
768.74	0.027
769.17	0.030
769.61	0.026
770.05	0.026
770.49	0.024
770.93	0.026
771.37	0.024
771.80	0.026
772.24	0.027
772.68	0.026
773.12	0.025
773.56	0.026
774.00	0.025
774.43	0.027
774.87	0.024
775.31	0.029
775.75	0.026
776.19	0.027
776.62	0.028
777.06	0.025
777.50	0.027
777.94	0.028
778.37	0.027
778.81	0.028
779.25	0.026
779.69	0.026
780.13	0.027
780.56	0.026
781.00	0.030
781.44	0.029
781.88	0.025
782.31	0.029
782.75	0.027
783.19	0.026
783.63	0.030
784.06	0.025
784.50	0.032
784.94	0.026
785.37	0.026
785.81	0.027
786.25	0.025
786.69	0.026
787.12	0.028
787.56	0.028
788.00	0.023
788.43	0.025
788.87	0.026
789.31	0.027
789.75	0.027
790.18	0.024
790.62	0.026
791.06	0.026
791.49	0.027
791.93	0.025
792.37	0.022
792.80	0.027
793.24	0.026
793.68	0.024
794.11	0.024
794.55	0.025
794.99	0.027
795.42	0.024
795.86	0.027
796.30	0.028
796.73	0.026
797.17	0.026
797.61	0.023
798.04	0.022
798.48	0.026
798.91	0.025
799.35	0.025
799.79	0.025
800.22	0.028
800.66	0.022
801.10	0.027
801.53	0.026
801.97	0.026
802.40	0.029
802.84	0.027
803.28	0.025
803.71	0.024
804.15	0.028
804.58	0.022
805.02	0.022
805.46	0.023
805.89	0.026
806.33	0.025
806.76	0.027
807.20	0.025
807.63	0.025
808.07	0.029
808.51	0.022
808.94	0.026
809.38	0.024
809.81	0.025
810.25	0.026
810.68	0.029
811.12	0.027
811.55	0.027
811.99	0.026
812.42	0.028
812.86	0.028
813.29	0.026
813.73	0.024
814.17	0.024
814.60	0.023
815.04	0.024
815.47	0.025
815.91	0.027
816.34	0.028
816.78	0.029
817.21	0.022
817.65	0.026
818.08	0.031
