SpectraSuite Data File
++++++++++++++++++++++++++++++++++++
Date: Tue Jul 11 16:13:02 CEST 2017
User: IPCE
Dark Spectrum Present: Yes
Reference Spectrum Present: Yes
Number of Sampled Component Spectra: 1
Spectrometers: HR+C0708
Integration Time (usec): 1000 (HR+C0708)
Spectra Averaged: 10 (HR+C0708)
Boxcar Smoothing: 0 (HR+C0708)
Correct for Electrical Dark: No (HR+C0708)
Strobe/Lamp Enabled: No (HR+C0708)
Correct for Detector Non-linearity: No (HR+C0708)
Correct for Stray Light: No (HR+C0708)
Number of Pixels in Processed Spectrum: 2048
>>>>>Begin Processed Spectral Data<<<<<
188.76	-0.029
189.23	0.093
189.70	-0.000
190.17	-0.036
190.64	0.016
191.12	0.173
191.59	0.099
192.06	1.000
192.53	0.176
193.01	-0.084
193.48	-0.135
193.95	0.258
194.42	0.029
194.90	0.340
195.37	0.099
195.84	-0.093
196.31	0.165
196.78	0.148
197.26	0.129
197.73	0.253
198.20	0.075
198.67	0.014
199.14	0.148
199.62	0.092
200.09	0.643
200.56	0.330
201.03	0.115
201.50	0.305
201.97	0.261
202.45	0.360
202.92	0.345
203.39	0.253
203.86	0.469
204.33	0.411
204.80	0.315
205.28	0.357
205.75	0.341
206.22	0.287
206.69	0.374
207.16	0.130
207.63	0.174
208.11	0.287
208.58	0.232
209.05	0.429
209.52	0.400
209.99	0.305
210.46	0.299
210.93	0.268
211.41	0.299
211.88	0.220
212.35	0.285
212.82	0.166
213.29	0.289
213.76	0.285
214.23	0.322
214.70	0.262
215.18	0.284
215.65	0.280
216.12	0.261
216.59	0.243
217.06	0.619
217.53	0.249
218.00	0.341
218.47	0.367
218.94	0.129
219.41	0.393
219.89	0.460
220.36	0.316
220.83	0.442
221.30	0.366
221.77	0.287
222.24	0.381
222.71	0.515
223.18	0.345
223.65	0.447
224.12	0.386
224.59	0.439
225.06	0.559
225.54	0.516
226.01	0.697
226.48	0.591
226.95	0.614
227.42	0.760
227.89	0.709
228.36	0.787
228.83	0.896
229.30	0.891
229.77	0.998
230.24	1.126
230.71	1.088
231.18	1.075
231.65	1.342
232.12	1.259
232.59	1.314
233.06	1.287
233.53	1.355
234.00	1.454
234.47	1.434
234.94	1.539
235.41	1.546
235.88	1.662
236.35	1.597
236.82	1.635
237.29	1.629
237.76	1.812
238.23	1.803
238.70	1.768
239.17	1.856
239.64	1.801
240.11	1.983
240.58	1.970
241.05	2.105
241.52	1.927
241.99	1.986
242.46	1.996
242.93	2.016
243.40	2.025
243.87	2.128
244.34	2.103
244.81	2.093
245.28	2.101
245.75	2.159
246.22	2.172
246.69	2.151
247.16	2.251
247.63	2.182
248.10	2.182
248.57	2.143
249.04	2.111
249.51	2.249
249.98	2.052
250.45	2.185
250.92	2.147
251.39	2.101
251.85	2.002
252.32	1.967
252.79	1.751
253.26	1.742
253.73	1.641
254.20	1.529
254.67	1.487
255.14	1.406
255.61	1.351
256.08	1.297
256.55	1.238
257.02	1.195
257.49	1.148
257.95	1.109
258.42	1.068
258.89	1.039
259.36	1.005
259.83	0.981
260.30	0.950
260.77	0.927
261.24	0.914
261.71	0.885
262.17	0.870
262.64	0.855
263.11	0.827
263.58	0.818
264.05	0.796
264.52	0.781
264.99	0.770
265.46	0.754
265.92	0.739
266.39	0.729
266.86	0.717
267.33	0.706
267.80	0.702
268.27	0.683
268.74	0.678
269.20	0.662
269.67	0.659
270.14	0.648
270.61	0.637
271.08	0.629
271.55	0.625
272.01	0.615
272.48	0.607
272.95	0.602
273.42	0.594
273.89	0.584
274.36	0.582
274.82	0.569
275.29	0.568
275.76	0.566
276.23	0.556
276.70	0.555
277.16	0.551
277.63	0.550
278.10	0.546
278.57	0.541
279.04	0.535
279.50	0.535
279.97	0.530
280.44	0.529
280.91	0.522
281.38	0.521
281.84	0.519
282.31	0.520
282.78	0.519
283.25	0.517
283.72	0.518
284.18	0.511
284.65	0.514
285.12	0.514
285.59	0.508
286.05	0.506
286.52	0.509
286.99	0.508
287.46	0.510
287.92	0.509
288.39	0.507
288.86	0.505
289.33	0.504
289.79	0.505
290.26	0.504
290.73	0.503
291.20	0.498
291.66	0.497
292.13	0.492
292.60	0.490
293.07	0.484
293.53	0.481
294.00	0.477
294.47	0.470
294.93	0.468
295.40	0.460
295.87	0.451
296.34	0.446
296.80	0.436
297.27	0.433
297.74	0.423
298.20	0.417
298.67	0.413
299.14	0.405
299.60	0.397
300.07	0.389
300.54	0.382
301.01	0.374
301.47	0.365
301.94	0.359
302.41	0.351
302.87	0.344
303.34	0.337
303.81	0.332
304.27	0.326
304.74	0.321
305.21	0.314
305.67	0.311
306.14	0.303
306.61	0.296
307.07	0.293
307.54	0.288
308.01	0.283
308.47	0.279
308.94	0.274
309.40	0.270
309.87	0.268
310.34	0.265
310.80	0.261
311.27	0.257
311.74	0.256
312.20	0.249
312.67	0.249
313.13	0.251
313.60	0.247
314.07	0.241
314.53	0.239
315.00	0.238
315.47	0.239
315.93	0.234
316.40	0.235
316.86	0.232
317.33	0.230
317.80	0.227
318.26	0.228
318.73	0.226
319.19	0.224
319.66	0.222
320.13	0.220
320.59	0.218
321.06	0.217
321.52	0.219
321.99	0.216
322.45	0.214
322.92	0.214
323.39	0.212
323.85	0.210
324.32	0.210
324.78	0.207
325.25	0.203
325.71	0.204
326.18	0.200
326.64	0.202
327.11	0.201
327.58	0.200
328.04	0.196
328.51	0.197
328.97	0.196
329.44	0.197
329.90	0.193
330.37	0.190
330.83	0.191
331.30	0.186
331.76	0.186
332.23	0.185
332.69	0.181
333.16	0.181
333.62	0.180
334.09	0.177
334.56	0.177
335.02	0.174
335.49	0.170
335.95	0.171
336.42	0.168
336.88	0.163
337.35	0.165
337.81	0.164
338.28	0.162
338.74	0.163
339.20	0.162
339.67	0.160
340.13	0.160
340.60	0.158
341.06	0.155
341.53	0.154
341.99	0.155
342.46	0.152
342.92	0.152
343.39	0.152
343.85	0.148
344.32	0.146
344.78	0.145
345.25	0.146
345.71	0.148
346.17	0.148
346.64	0.146
347.10	0.144
347.57	0.145
348.03	0.142
348.50	0.139
348.96	0.139
349.43	0.138
349.89	0.138
350.35	0.144
350.82	0.137
351.28	0.133
351.75	0.137
352.21	0.138
352.67	0.133
353.14	0.130
353.60	0.131
354.07	0.123
354.53	0.129
355.00	0.124
355.46	0.124
355.92	0.123
356.39	0.125
356.85	0.119
357.31	0.119
357.78	0.122
358.24	0.114
358.71	0.115
359.17	0.110
359.63	0.110
360.10	0.106
360.56	0.106
361.03	0.104
361.49	0.104
361.95	0.099
362.42	0.096
362.88	0.098
363.34	0.093
363.81	0.093
364.27	0.091
364.73	0.092
365.20	0.087
365.66	0.084
366.12	0.082
366.59	0.080
367.05	0.084
367.51	0.081
367.98	0.075
368.44	0.080
368.90	0.077
369.37	0.077
369.83	0.073
370.29	0.076
370.76	0.075
371.22	0.075
371.68	0.075
372.15	0.074
372.61	0.073
373.07	0.073
373.54	0.074
374.00	0.073
374.46	0.075
374.92	0.070
375.39	0.073
375.85	0.073
376.31	0.070
376.78	0.070
377.24	0.070
377.70	0.070
378.16	0.069
378.63	0.070
379.09	0.068
379.55	0.069
380.01	0.069
380.48	0.069
380.94	0.070
381.40	0.066
381.87	0.068
382.33	0.068
382.79	0.069
383.25	0.067
383.72	0.068
384.18	0.068
384.64	0.066
385.10	0.063
385.56	0.068
386.03	0.067
386.49	0.064
386.95	0.063
387.41	0.067
387.88	0.066
388.34	0.068
388.80	0.066
389.26	0.062
389.72	0.066
390.19	0.066
390.65	0.066
391.11	0.065
391.57	0.063
392.04	0.064
392.50	0.063
392.96	0.063
393.42	0.064
393.88	0.063
394.34	0.064
394.81	0.061
395.27	0.061
395.73	0.059
396.19	0.062
396.65	0.064
397.12	0.060
397.58	0.059
398.04	0.062
398.50	0.061
398.96	0.061
399.42	0.060
399.89	0.061
400.35	0.059
400.81	0.060
401.27	0.063
401.73	0.058
402.19	0.059
402.65	0.057
403.12	0.057
403.58	0.059
404.04	0.059
404.50	0.056
404.96	0.058
405.42	0.058
405.88	0.058
406.34	0.058
406.81	0.057
407.27	0.057
407.73	0.058
408.19	0.055
408.65	0.055
409.11	0.056
409.57	0.057
410.03	0.057
410.49	0.054
410.96	0.056
411.42	0.055
411.88	0.056
412.34	0.053
412.80	0.053
413.26	0.055
413.72	0.052
414.18	0.056
414.64	0.052
415.10	0.054
415.56	0.054
416.02	0.051
416.48	0.050
416.95	0.053
417.41	0.051
417.87	0.050
418.33	0.051
418.79	0.052
419.25	0.054
419.71	0.051
420.17	0.050
420.63	0.050
421.09	0.051
421.55	0.053
422.01	0.048
422.47	0.052
422.93	0.050
423.39	0.051
423.85	0.051
424.31	0.050
424.77	0.047
425.23	0.051
425.69	0.053
426.15	0.051
426.61	0.052
427.07	0.050
427.53	0.051
427.99	0.052
428.45	0.052
428.91	0.049
429.37	0.049
429.83	0.051
430.29	0.052
430.75	0.048
431.21	0.047
431.67	0.051
432.13	0.047
432.59	0.049
433.05	0.047
433.51	0.048
433.97	0.051
434.43	0.049
434.89	0.048
435.35	0.049
435.81	0.046
436.27	0.048
436.73	0.047
437.19	0.049
437.65	0.046
438.11	0.049
438.57	0.050
439.03	0.049
439.48	0.047
439.94	0.048
440.40	0.047
440.86	0.049
441.32	0.045
441.78	0.048
442.24	0.048
442.70	0.045
443.16	0.048
443.62	0.046
444.08	0.049
444.54	0.051
444.99	0.047
445.45	0.047
445.91	0.046
446.37	0.044
446.83	0.046
447.29	0.048
447.75	0.047
448.21	0.047
448.67	0.046
449.12	0.044
449.58	0.043
450.04	0.044
450.50	0.043
450.96	0.044
451.42	0.046
451.88	0.048
452.34	0.046
452.79	0.046
453.25	0.048
453.71	0.044
454.17	0.046
454.63	0.049
455.09	0.048
455.55	0.048
456.00	0.043
456.46	0.046
456.92	0.047
457.38	0.046
457.84	0.046
458.30	0.047
458.75	0.046
459.21	0.045
459.67	0.045
460.13	0.047
460.59	0.048
461.04	0.045
461.50	0.045
461.96	0.045
462.42	0.048
462.88	0.043
463.33	0.046
463.79	0.047
464.25	0.045
464.71	0.047
465.17	0.046
465.62	0.046
466.08	0.046
466.54	0.047
467.00	0.047
467.46	0.046
467.91	0.049
468.37	0.046
468.83	0.049
469.29	0.046
469.74	0.048
470.20	0.048
470.66	0.046
471.12	0.045
471.57	0.047
472.03	0.047
472.49	0.046
472.95	0.046
473.40	0.047
473.86	0.048
474.32	0.046
474.78	0.047
475.23	0.049
475.69	0.045
476.15	0.050
476.60	0.046
477.06	0.047
477.52	0.047
477.98	0.047
478.43	0.047
478.89	0.050
479.35	0.049
479.80	0.050
480.26	0.045
480.72	0.049
481.18	0.047
481.63	0.048
482.09	0.049
482.55	0.047
483.00	0.048
483.46	0.047
483.92	0.048
484.37	0.050
484.83	0.048
485.29	0.046
485.74	0.049
486.20	0.047
486.66	0.049
487.11	0.049
487.57	0.049
488.03	0.050
488.48	0.048
488.94	0.049
489.40	0.048
489.85	0.047
490.31	0.049
490.77	0.050
491.22	0.046
491.68	0.047
492.13	0.047
492.59	0.048
493.05	0.049
493.50	0.049
493.96	0.047
494.42	0.048
494.87	0.049
495.33	0.049
495.78	0.046
496.24	0.048
496.70	0.050
497.15	0.048
497.61	0.048
498.06	0.049
498.52	0.051
498.98	0.049
499.43	0.047
499.89	0.049
500.34	0.047
500.80	0.048
501.25	0.050
501.71	0.049
502.17	0.049
502.62	0.047
503.08	0.046
503.53	0.050
503.99	0.048
504.44	0.049
504.90	0.047
505.36	0.046
505.81	0.045
506.27	0.047
506.72	0.046
507.18	0.046
507.63	0.048
508.09	0.048
508.54	0.047
509.00	0.048
509.45	0.047
509.91	0.049
510.36	0.048
510.82	0.050
511.27	0.046
511.73	0.048
512.19	0.046
512.64	0.048
513.10	0.047
513.55	0.047
514.01	0.044
514.46	0.046
514.92	0.046
515.37	0.047
515.83	0.046
516.28	0.050
516.73	0.046
517.19	0.046
517.64	0.046
518.10	0.048
518.55	0.049
519.01	0.047
519.46	0.044
519.92	0.046
520.37	0.049
520.83	0.048
521.28	0.048
521.74	0.046
522.19	0.048
522.65	0.047
523.10	0.047
523.55	0.048
524.01	0.048
524.46	0.048
524.92	0.047
525.37	0.050
525.83	0.047
526.28	0.047
526.73	0.048
527.19	0.048
527.64	0.050
528.10	0.047
528.55	0.047
529.01	0.047
529.46	0.051
529.91	0.047
530.37	0.048
530.82	0.049
531.28	0.048
531.73	0.049
532.18	0.049
532.64	0.049
533.09	0.050
533.54	0.049
534.00	0.047
534.45	0.049
534.91	0.050
535.36	0.050
535.81	0.048
536.27	0.052
536.72	0.048
537.17	0.050
537.63	0.051
538.08	0.053
538.54	0.051
538.99	0.050
539.44	0.053
539.90	0.050
540.35	0.050
540.80	0.050
541.26	0.052
541.71	0.052
542.16	0.052
542.62	0.053
543.07	0.054
543.52	0.053
543.98	0.053
544.43	0.055
544.88	0.055
545.34	0.057
545.79	0.056
546.24	0.056
546.69	0.053
547.15	0.054
547.60	0.059
548.05	0.056
548.51	0.058
548.96	0.057
549.41	0.058
549.86	0.059
550.32	0.057
550.77	0.059
551.22	0.063
551.68	0.060
552.13	0.059
552.58	0.061
553.03	0.062
553.49	0.061
553.94	0.061
554.39	0.063
554.84	0.064
555.30	0.064
555.75	0.063
556.20	0.064
556.65	0.066
557.11	0.066
557.56	0.067
558.01	0.068
558.46	0.069
558.92	0.068
559.37	0.068
559.82	0.069
560.27	0.070
560.72	0.069
561.18	0.069
561.63	0.071
562.08	0.072
562.53	0.069
562.99	0.071
563.44	0.072
563.89	0.073
564.34	0.074
564.79	0.076
565.25	0.075
565.70	0.077
566.15	0.077
566.60	0.075
567.05	0.078
567.50	0.081
567.96	0.080
568.41	0.084
568.86	0.082
569.31	0.081
569.76	0.081
570.21	0.082
570.67	0.081
571.12	0.086
571.57	0.084
572.02	0.087
572.47	0.088
572.92	0.087
573.37	0.086
573.83	0.090
574.28	0.091
574.73	0.090
575.18	0.090
575.63	0.093
576.08	0.094
576.53	0.094
576.98	0.095
577.44	0.096
577.89	0.095
578.34	0.097
578.79	0.101
579.24	0.099
579.69	0.102
580.14	0.102
580.59	0.101
581.04	0.104
581.49	0.105
581.95	0.107
582.40	0.107
582.85	0.108
583.30	0.109
583.75	0.111
584.20	0.110
584.65	0.111
585.10	0.114
585.55	0.115
586.00	0.119
586.45	0.120
586.90	0.121
587.35	0.121
587.80	0.122
588.25	0.123
588.71	0.124
589.16	0.128
589.61	0.130
590.06	0.132
590.51	0.133
590.96	0.134
591.41	0.135
591.86	0.138
592.31	0.141
592.76	0.141
593.21	0.141
593.66	0.144
594.11	0.146
594.56	0.148
595.01	0.149
595.46	0.151
595.91	0.151
596.36	0.155
596.81	0.157
597.26	0.158
597.71	0.159
598.16	0.162
598.61	0.164
599.06	0.164
599.51	0.166
599.96	0.170
600.41	0.170
600.86	0.173
601.31	0.174
601.76	0.175
602.21	0.176
602.65	0.179
603.10	0.180
603.55	0.181
604.00	0.183
604.45	0.183
604.90	0.185
605.35	0.189
605.80	0.187
606.25	0.189
606.70	0.193
607.15	0.195
607.60	0.193
608.05	0.195
608.50	0.197
608.95	0.200
609.39	0.202
609.84	0.204
610.29	0.201
610.74	0.204
611.19	0.202
611.64	0.205
612.09	0.206
612.54	0.207
612.99	0.209
613.44	0.208
613.88	0.212
614.33	0.208
614.78	0.210
615.23	0.213
615.68	0.213
616.13	0.212
616.58	0.215
617.03	0.213
617.47	0.216
617.92	0.217
618.37	0.216
618.82	0.218
619.27	0.217
619.72	0.218
620.17	0.219
620.61	0.219
621.06	0.222
621.51	0.222
621.96	0.222
622.41	0.224
622.86	0.221
623.30	0.225
623.75	0.224
624.20	0.224
624.65	0.226
625.10	0.225
625.54	0.228
625.99	0.230
626.44	0.230
626.89	0.230
627.34	0.233
627.78	0.232
628.23	0.234
628.68	0.234
629.13	0.236
629.58	0.237
630.02	0.239
630.47	0.239
630.92	0.242
631.37	0.242
631.81	0.246
632.26	0.244
632.71	0.247
633.16	0.250
633.61	0.251
634.05	0.251
634.50	0.254
634.95	0.254
635.40	0.257
635.84	0.263
636.29	0.261
636.74	0.264
637.18	0.266
637.63	0.266
638.08	0.268
638.53	0.271
638.97	0.273
639.42	0.277
639.87	0.278
640.32	0.284
640.76	0.286
641.21	0.287
641.66	0.289
642.10	0.292
642.55	0.294
643.00	0.296
643.44	0.300
643.89	0.302
644.34	0.306
644.79	0.308
645.23	0.311
645.68	0.315
646.13	0.318
646.57	0.318
647.02	0.321
647.47	0.323
647.91	0.326
648.36	0.329
648.81	0.334
649.25	0.336
649.70	0.339
650.15	0.340
650.59	0.341
651.04	0.345
651.48	0.346
651.93	0.350
652.38	0.351
652.82	0.355
653.27	0.356
653.72	0.360
654.16	0.360
654.61	0.363
655.06	0.366
655.50	0.366
655.95	0.366
656.39	0.368
656.84	0.371
657.29	0.372
657.73	0.376
658.18	0.377
658.62	0.379
659.07	0.380
659.52	0.381
659.96	0.382
660.41	0.384
660.85	0.380
661.30	0.382
661.74	0.386
662.19	0.387
662.64	0.384
663.08	0.387
663.53	0.387
663.97	0.387
664.42	0.386
664.86	0.385
665.31	0.387
665.75	0.385
666.20	0.383
666.65	0.383
667.09	0.382
667.54	0.380
667.98	0.379
668.43	0.376
668.87	0.375
669.32	0.374
669.76	0.371
670.21	0.365
670.65	0.362
671.10	0.360
671.54	0.354
671.99	0.351
672.43	0.345
672.88	0.340
673.32	0.336
673.77	0.329
674.21	0.326
674.66	0.318
675.10	0.314
675.55	0.311
675.99	0.305
676.44	0.299
676.88	0.290
677.33	0.282
677.77	0.275
678.22	0.268
678.66	0.264
679.11	0.253
679.55	0.247
679.99	0.242
680.44	0.233
680.88	0.228
681.33	0.218
681.77	0.214
682.22	0.206
682.66	0.199
683.11	0.193
683.55	0.187
683.99	0.179
684.44	0.172
684.88	0.168
685.33	0.160
685.77	0.155
686.21	0.152
686.66	0.142
687.10	0.138
687.55	0.134
687.99	0.131
688.44	0.126
688.88	0.119
689.32	0.115
689.77	0.110
690.21	0.106
690.65	0.102
691.10	0.096
691.54	0.095
691.99	0.092
692.43	0.087
692.87	0.084
693.32	0.081
693.76	0.080
694.20	0.076
694.65	0.075
695.09	0.071
695.53	0.068
695.98	0.067
696.42	0.063
696.86	0.061
697.31	0.059
697.75	0.058
698.19	0.057
698.64	0.055
699.08	0.054
699.52	0.050
699.97	0.051
700.41	0.049
700.85	0.046
701.30	0.046
701.74	0.039
702.18	0.043
702.63	0.042
703.07	0.040
703.51	0.039
703.96	0.040
704.40	0.039
704.84	0.038
705.28	0.038
705.73	0.035
706.17	0.034
706.61	0.033
707.06	0.034
707.50	0.033
707.94	0.033
708.38	0.029
708.83	0.032
709.27	0.029
709.71	0.032
710.15	0.031
710.60	0.031
711.04	0.030
711.48	0.027
711.92	0.029
712.37	0.029
712.81	0.030
713.25	0.026
713.69	0.028
714.13	0.027
714.58	0.028
715.02	0.027
715.46	0.026
715.90	0.026
716.35	0.025
716.79	0.026
717.23	0.027
717.67	0.027
718.11	0.025
718.56	0.028
719.00	0.024
719.44	0.026
719.88	0.025
720.32	0.027
720.76	0.025
721.21	0.026
721.65	0.028
722.09	0.027
722.53	0.028
722.97	0.027
723.41	0.027
723.86	0.024
724.30	0.024
724.74	0.025
725.18	0.026
725.62	0.025
726.06	0.027
726.50	0.025
726.95	0.025
727.39	0.027
727.83	0.025
728.27	0.024
728.71	0.025
729.15	0.026
729.59	0.026
730.03	0.027
730.48	0.029
730.92	0.025
731.36	0.023
731.80	0.027
732.24	0.028
732.68	0.026
733.12	0.029
733.56	0.027
734.00	0.027
734.44	0.028
734.89	0.027
735.33	0.029
735.77	0.028
736.21	0.029
736.65	0.029
737.09	0.028
737.53	0.030
737.97	0.030
738.41	0.028
738.85	0.028
739.29	0.027
739.73	0.030
740.17	0.029
740.61	0.031
741.05	0.031
741.49	0.027
741.93	0.029
742.37	0.029
742.81	0.030
743.26	0.030
743.70	0.028
744.14	0.030
744.58	0.029
745.02	0.030
745.46	0.028
745.90	0.028
746.34	0.028
746.78	0.030
747.22	0.030
747.66	0.030
748.10	0.028
748.54	0.030
748.98	0.029
749.42	0.030
749.86	0.029
750.29	0.030
750.73	0.030
751.17	0.027
751.61	0.029
752.05	0.029
752.49	0.027
752.93	0.029
753.37	0.028
753.81	0.029
754.25	0.025
754.69	0.028
755.13	0.030
755.57	0.030
756.01	0.030
756.45	0.027
756.89	0.028
757.33	0.032
757.77	0.029
758.21	0.027
758.64	0.030
759.08	0.029
759.52	0.029
759.96	0.031
760.40	0.029
760.84	0.026
761.28	0.028
761.72	0.027
762.16	0.028
762.60	0.028
763.03	0.028
763.47	0.028
763.91	0.025
764.35	0.027
764.79	0.031
765.23	0.029
765.67	0.028
766.11	0.031
766.54	0.027
766.98	0.026
767.42	0.028
767.86	0.030
768.30	0.029
768.74	0.030
769.17	0.028
769.61	0.029
770.05	0.026
770.49	0.027
770.93	0.028
771.37	0.028
771.80	0.032
772.24	0.030
772.68	0.028
773.12	0.028
773.56	0.028
774.00	0.028
774.43	0.029
774.87	0.026
775.31	0.031
775.75	0.028
776.19	0.027
776.62	0.030
777.06	0.027
777.50	0.028
777.94	0.028
778.37	0.027
778.81	0.029
779.25	0.031
779.69	0.029
780.13	0.029
780.56	0.030
781.00	0.030
781.44	0.032
781.88	0.030
782.31	0.031
782.75	0.031
783.19	0.030
783.63	0.030
784.06	0.029
784.50	0.029
784.94	0.031
785.37	0.031
785.81	0.029
786.25	0.026
786.69	0.028
787.12	0.030
787.56	0.026
788.00	0.025
788.43	0.027
788.87	0.030
789.31	0.028
789.75	0.028
790.18	0.026
790.62	0.026
791.06	0.029
791.49	0.030
791.93	0.027
792.37	0.026
792.80	0.025
793.24	0.030
793.68	0.026
794.11	0.028
794.55	0.025
794.99	0.026
795.42	0.026
795.86	0.029
796.30	0.031
796.73	0.027
797.17	0.029
797.61	0.027
798.04	0.024
798.48	0.025
798.91	0.024
799.35	0.027
799.79	0.028
800.22	0.028
800.66	0.025
801.10	0.025
801.53	0.027
801.97	0.027
802.40	0.030
802.84	0.026
803.28	0.029
803.71	0.029
804.15	0.029
804.58	0.030
805.02	0.024
805.46	0.024
805.89	0.027
806.33	0.029
806.76	0.027
807.20	0.029
807.63	0.027
808.07	0.027
808.51	0.025
808.94	0.024
809.38	0.029
809.81	0.023
810.25	0.026
810.68	0.030
811.12	0.029
811.55	0.027
811.99	0.030
812.42	0.026
812.86	0.027
813.29	0.025
813.73	0.027
814.17	0.027
814.60	0.027
815.04	0.025
815.47	0.030
815.91	0.028
816.34	0.029
816.78	0.026
817.21	0.023
817.65	0.026
818.08	0.028
