SpectraSuite Data File
++++++++++++++++++++++++++++++++++++
Date: Tue Jul 11 15:26:32 CEST 2017
User: IPCE
Dark Spectrum Present: Yes
Reference Spectrum Present: Yes
Number of Sampled Component Spectra: 1
Spectrometers: HR+C0708
Integration Time (usec): 1000 (HR+C0708)
Spectra Averaged: 10 (HR+C0708)
Boxcar Smoothing: 0 (HR+C0708)
Correct for Electrical Dark: No (HR+C0708)
Strobe/Lamp Enabled: No (HR+C0708)
Correct for Detector Non-linearity: No (HR+C0708)
Correct for Stray Light: No (HR+C0708)
Number of Pixels in Processed Spectrum: 2048
>>>>>Begin Processed Spectral Data<<<<<
188.76	0.392
189.23	-0.237
189.70	-0.000
190.17	0.356
190.64	-0.000
191.12	0.410
191.59	0.811
192.06	0.699
192.53	0.628
193.01	-0.021
193.48	-0.000
193.95	0.227
194.42	0.550
194.90	0.356
195.37	0.193
195.84	0.043
196.31	0.726
196.78	0.250
197.26	0.338
197.73	0.520
198.20	0.227
198.67	0.245
199.14	0.227
199.62	0.155
200.09	0.895
200.56	0.504
201.03	0.253
201.50	0.471
201.97	0.333
202.45	0.419
202.92	0.604
203.39	0.448
203.86	0.625
204.33	0.528
204.80	0.392
205.28	0.812
205.75	0.377
206.22	0.442
206.69	0.811
207.16	0.310
207.63	0.412
208.11	0.702
208.58	0.361
209.05	0.502
209.52	0.786
209.99	0.416
210.46	0.512
210.93	0.394
211.41	0.318
211.88	0.425
212.35	0.610
212.82	0.364
213.29	0.641
213.76	0.334
214.23	0.371
214.70	0.424
215.18	0.495
215.65	0.646
216.12	0.434
216.59	0.429
217.06	0.833
217.53	0.508
218.00	0.608
218.47	0.824
218.94	0.339
219.41	0.549
219.89	0.716
220.36	0.414
220.83	0.942
221.30	0.706
221.77	0.471
222.24	0.578
222.71	1.006
223.18	0.543
223.65	0.733
224.12	0.621
224.59	0.740
225.06	0.856
225.54	0.702
226.01	1.126
226.48	0.938
226.95	0.706
227.42	1.080
227.89	0.826
228.36	0.947
228.83	1.115
229.30	0.975
229.77	1.159
230.24	1.526
230.71	1.142
231.18	1.396
231.65	1.424
232.12	1.460
232.59	1.538
233.06	1.696
233.53	1.733
234.00	1.918
234.47	1.643
234.94	1.741
235.41	1.822
235.88	1.824
236.35	1.642
236.82	1.941
237.29	1.900
237.76	2.099
238.23	1.829
238.70	1.920
239.17	2.070
239.64	2.048
240.11	2.182
240.58	2.217
241.05	2.325
241.52	2.239
241.99	2.309
242.46	2.153
242.93	2.380
243.40	2.250
243.87	2.302
244.34	2.506
244.81	2.298
245.28	2.406
245.75	2.581
246.22	2.328
246.69	2.526
247.16	2.424
247.63	2.369
248.10	2.932
248.57	2.353
249.04	2.310
249.51	2.693
249.98	2.280
250.45	2.572
250.92	2.656
251.39	2.408
251.85	2.546
252.32	2.868
252.79	2.372
253.26	2.700
253.73	2.695
254.20	2.300
254.67	2.517
255.14	2.348
255.61	2.521
256.08	2.710
256.55	2.509
257.02	2.508
257.49	2.837
257.95	2.770
258.42	2.592
258.89	2.638
259.36	2.603
259.83	2.827
260.30	2.665
260.77	2.798
261.24	2.780
261.71	2.680
262.17	2.626
262.64	2.930
263.11	2.688
263.58	2.986
264.05	2.879
264.52	2.888
264.99	2.927
265.46	2.896
265.92	2.546
266.39	2.907
266.86	2.783
267.33	2.777
267.80	2.775
268.27	2.567
268.74	2.759
269.20	2.660
269.67	2.649
270.14	2.966
270.61	2.688
271.08	2.636
271.55	2.848
272.01	2.384
272.48	2.547
272.95	2.697
273.42	2.581
273.89	2.743
274.36	2.621
274.82	2.658
275.29	2.623
275.76	2.513
276.23	2.429
276.70	2.702
277.16	2.528
277.63	2.697
278.10	2.861
278.57	2.537
279.04	2.540
279.50	2.878
279.97	2.498
280.44	2.573
280.91	2.559
281.38	2.524
281.84	2.624
282.31	2.644
282.78	2.643
283.25	2.781
283.72	2.676
284.18	2.615
284.65	2.583
285.12	2.578
285.59	2.651
286.05	2.505
286.52	2.542
286.99	2.643
287.46	2.517
287.92	2.567
288.39	2.856
288.86	2.688
289.33	2.632
289.79	2.684
290.26	2.605
290.73	2.736
291.20	2.724
291.66	2.624
292.13	2.727
292.60	2.625
293.07	2.663
293.53	2.833
294.00	2.503
294.47	2.566
294.93	2.889
295.40	2.629
295.87	2.534
296.34	2.600
296.80	2.377
297.27	2.516
297.74	2.596
298.20	2.881
298.67	2.610
299.14	2.546
299.60	2.505
300.07	2.543
300.54	2.406
301.01	2.588
301.47	2.456
301.94	2.469
302.41	2.376
302.87	2.328
303.34	2.359
303.81	2.488
304.27	2.435
304.74	2.358
305.21	2.512
305.67	2.382
306.14	2.425
306.61	2.358
307.07	2.389
307.54	2.372
308.01	2.360
308.47	2.408
308.94	2.425
309.40	2.383
309.87	2.371
310.34	2.647
310.80	2.428
311.27	2.353
311.74	2.409
312.20	2.323
312.67	2.415
313.13	2.389
313.60	2.340
314.07	2.397
314.53	2.307
315.00	2.273
315.47	2.353
315.93	2.319
316.40	2.488
316.86	2.449
317.33	2.346
317.80	2.496
318.26	2.404
318.73	2.330
319.19	2.406
319.66	2.256
320.13	2.300
320.59	2.350
321.06	2.214
321.52	2.287
321.99	2.337
322.45	2.316
322.92	2.327
323.39	2.423
323.85	2.199
324.32	2.308
324.78	2.199
325.25	2.228
325.71	2.315
326.18	2.207
326.64	2.271
327.11	2.234
327.58	2.150
328.04	2.180
328.51	2.282
328.97	2.133
329.44	2.302
329.90	2.158
330.37	2.132
330.83	2.181
331.30	2.188
331.76	2.151
332.23	2.131
332.69	2.142
333.16	2.169
333.62	2.200
334.09	2.116
334.56	2.181
335.02	2.218
335.49	2.088
335.95	2.218
336.42	2.134
336.88	2.082
337.35	2.030
337.81	2.046
338.28	2.114
338.74	2.137
339.20	2.134
339.67	2.140
340.13	2.069
340.60	2.152
341.06	2.142
341.53	2.080
341.99	2.111
342.46	2.119
342.92	2.080
343.39	2.097
343.85	2.017
344.32	2.007
344.78	2.075
345.25	2.069
345.71	2.046
346.17	2.036
346.64	2.070
347.10	2.003
347.57	2.075
348.03	1.974
348.50	1.928
348.96	1.966
349.43	1.930
349.89	1.872
350.35	1.859
350.82	1.843
351.28	1.839
351.75	1.807
352.21	1.780
352.67	1.725
353.14	1.670
353.60	1.676
354.07	1.669
354.53	1.590
355.00	1.608
355.46	1.588
355.92	1.489
356.39	1.522
356.85	1.477
357.31	1.442
357.78	1.395
358.24	1.327
358.71	1.283
359.17	1.224
359.63	1.150
360.10	1.094
360.56	1.026
361.03	0.942
361.49	0.874
361.95	0.803
362.42	0.728
362.88	0.661
363.34	0.597
363.81	0.537
364.27	0.481
364.73	0.430
365.20	0.379
365.66	0.343
366.12	0.305
366.59	0.271
367.05	0.245
367.51	0.221
367.98	0.204
368.44	0.187
368.90	0.172
369.37	0.163
369.83	0.150
370.29	0.143
370.76	0.135
371.22	0.132
371.68	0.125
372.15	0.119
372.61	0.118
373.07	0.116
373.54	0.113
374.00	0.108
374.46	0.109
374.92	0.102
375.39	0.103
375.85	0.103
376.31	0.099
376.78	0.102
377.24	0.098
377.70	0.098
378.16	0.098
378.63	0.097
379.09	0.094
379.55	0.095
380.01	0.093
380.48	0.094
380.94	0.095
381.40	0.091
381.87	0.090
382.33	0.091
382.79	0.091
383.25	0.090
383.72	0.089
384.18	0.088
384.64	0.086
385.10	0.087
385.56	0.088
386.03	0.086
386.49	0.087
386.95	0.087
387.41	0.086
387.88	0.087
388.34	0.085
388.80	0.084
389.26	0.080
389.72	0.083
390.19	0.083
390.65	0.084
391.11	0.083
391.57	0.083
392.04	0.083
392.50	0.081
392.96	0.081
393.42	0.082
393.88	0.085
394.34	0.083
394.81	0.082
395.27	0.079
395.73	0.078
396.19	0.081
396.65	0.081
397.12	0.078
397.58	0.077
398.04	0.078
398.50	0.077
398.96	0.077
399.42	0.076
399.89	0.076
400.35	0.074
400.81	0.076
401.27	0.078
401.73	0.072
402.19	0.074
402.65	0.073
403.12	0.073
403.58	0.072
404.04	0.074
404.50	0.072
404.96	0.074
405.42	0.070
405.88	0.071
406.34	0.071
406.81	0.069
407.27	0.068
407.73	0.068
408.19	0.064
408.65	0.066
409.11	0.067
409.57	0.067
410.03	0.068
410.49	0.064
410.96	0.065
411.42	0.067
411.88	0.066
412.34	0.064
412.80	0.064
413.26	0.064
413.72	0.065
414.18	0.066
414.64	0.063
415.10	0.062
415.56	0.064
416.02	0.059
416.48	0.062
416.95	0.060
417.41	0.060
417.87	0.058
418.33	0.061
418.79	0.062
419.25	0.062
419.71	0.059
420.17	0.061
420.63	0.061
421.09	0.062
421.55	0.062
422.01	0.055
422.47	0.058
422.93	0.058
423.39	0.060
423.85	0.059
424.31	0.058
424.77	0.054
425.23	0.058
425.69	0.061
426.15	0.060
426.61	0.060
427.07	0.060
427.53	0.058
427.99	0.060
428.45	0.059
428.91	0.057
429.37	0.059
429.83	0.058
430.29	0.058
430.75	0.058
431.21	0.056
431.67	0.060
432.13	0.053
432.59	0.054
433.05	0.057
433.51	0.057
433.97	0.058
434.43	0.056
434.89	0.054
435.35	0.056
435.81	0.054
436.27	0.053
436.73	0.053
437.19	0.057
437.65	0.053
438.11	0.057
438.57	0.055
439.03	0.053
439.48	0.055
439.94	0.053
440.40	0.053
440.86	0.055
441.32	0.053
441.78	0.055
442.24	0.051
442.70	0.052
443.16	0.052
443.62	0.051
444.08	0.053
444.54	0.056
444.99	0.055
445.45	0.052
445.91	0.053
446.37	0.054
446.83	0.052
447.29	0.053
447.75	0.053
448.21	0.054
448.67	0.054
449.12	0.051
449.58	0.049
450.04	0.051
450.50	0.049
450.96	0.050
451.42	0.052
451.88	0.055
452.34	0.052
452.79	0.052
453.25	0.056
453.71	0.050
454.17	0.051
454.63	0.053
455.09	0.051
455.55	0.052
456.00	0.050
456.46	0.051
456.92	0.053
457.38	0.053
457.84	0.051
458.30	0.053
458.75	0.050
459.21	0.051
459.67	0.054
460.13	0.052
460.59	0.054
461.04	0.051
461.50	0.051
461.96	0.051
462.42	0.055
462.88	0.050
463.33	0.052
463.79	0.052
464.25	0.050
464.71	0.051
465.17	0.052
465.62	0.052
466.08	0.051
466.54	0.052
467.00	0.052
467.46	0.050
467.91	0.051
468.37	0.053
468.83	0.054
469.29	0.052
469.74	0.053
470.20	0.051
470.66	0.054
471.12	0.056
471.57	0.054
472.03	0.052
472.49	0.053
472.95	0.051
473.40	0.053
473.86	0.052
474.32	0.052
474.78	0.051
475.23	0.052
475.69	0.052
476.15	0.052
476.60	0.052
477.06	0.052
477.52	0.052
477.98	0.054
478.43	0.054
478.89	0.055
479.35	0.052
479.80	0.054
480.26	0.053
480.72	0.052
481.18	0.053
481.63	0.053
482.09	0.054
482.55	0.052
483.00	0.051
483.46	0.053
483.92	0.053
484.37	0.054
484.83	0.054
485.29	0.054
485.74	0.054
486.20	0.055
486.66	0.053
487.11	0.053
487.57	0.055
488.03	0.054
488.48	0.053
488.94	0.054
489.40	0.053
489.85	0.051
490.31	0.053
490.77	0.055
491.22	0.053
491.68	0.054
492.13	0.054
492.59	0.054
493.05	0.053
493.50	0.054
493.96	0.052
494.42	0.055
494.87	0.056
495.33	0.055
495.78	0.054
496.24	0.053
496.70	0.055
497.15	0.054
497.61	0.054
498.06	0.055
498.52	0.056
498.98	0.054
499.43	0.053
499.89	0.054
500.34	0.052
500.80	0.055
501.25	0.054
501.71	0.054
502.17	0.055
502.62	0.054
503.08	0.051
503.53	0.053
503.99	0.054
504.44	0.053
504.90	0.053
505.36	0.053
505.81	0.052
506.27	0.052
506.72	0.052
507.18	0.053
507.63	0.053
508.09	0.052
508.54	0.052
509.00	0.053
509.45	0.053
509.91	0.053
510.36	0.052
510.82	0.053
511.27	0.052
511.73	0.054
512.19	0.049
512.64	0.053
513.10	0.052
513.55	0.051
514.01	0.050
514.46	0.050
514.92	0.050
515.37	0.051
515.83	0.050
516.28	0.053
516.73	0.052
517.19	0.049
517.64	0.049
518.10	0.054
518.55	0.054
519.01	0.049
519.46	0.049
519.92	0.051
520.37	0.050
520.83	0.053
521.28	0.051
521.74	0.051
522.19	0.050
522.65	0.051
523.10	0.051
523.55	0.050
524.01	0.052
524.46	0.054
524.92	0.053
525.37	0.053
525.83	0.052
526.28	0.051
526.73	0.053
527.19	0.053
527.64	0.055
528.10	0.052
528.55	0.053
529.01	0.053
529.46	0.054
529.91	0.052
530.37	0.055
530.82	0.052
531.28	0.054
531.73	0.055
532.18	0.054
532.64	0.053
533.09	0.052
533.54	0.055
534.00	0.054
534.45	0.055
534.91	0.052
535.36	0.055
535.81	0.055
536.27	0.057
536.72	0.055
537.17	0.056
537.63	0.058
538.08	0.059
538.54	0.056
538.99	0.056
539.44	0.060
539.90	0.058
540.35	0.058
540.80	0.058
541.26	0.058
541.71	0.059
542.16	0.058
542.62	0.061
543.07	0.060
543.52	0.060
543.98	0.062
544.43	0.061
544.88	0.062
545.34	0.063
545.79	0.065
546.24	0.066
546.69	0.063
547.15	0.061
547.60	0.067
548.05	0.066
548.51	0.065
548.96	0.065
549.41	0.068
549.86	0.069
550.32	0.067
550.77	0.067
551.22	0.071
551.68	0.069
552.13	0.068
552.58	0.071
553.03	0.071
553.49	0.073
553.94	0.071
554.39	0.074
554.84	0.076
555.30	0.076
555.75	0.075
556.20	0.078
556.65	0.077
557.11	0.079
557.56	0.080
558.01	0.080
558.46	0.082
558.92	0.081
559.37	0.081
559.82	0.085
560.27	0.084
560.72	0.082
561.18	0.085
561.63	0.087
562.08	0.089
562.53	0.087
562.99	0.088
563.44	0.089
563.89	0.089
564.34	0.092
564.79	0.093
565.25	0.095
565.70	0.093
566.15	0.094
566.60	0.094
567.05	0.095
567.50	0.098
567.96	0.099
568.41	0.099
568.86	0.097
569.31	0.100
569.76	0.102
570.21	0.102
570.67	0.101
571.12	0.105
571.57	0.106
572.02	0.107
572.47	0.108
572.92	0.108
573.37	0.108
573.83	0.110
574.28	0.113
574.73	0.112
575.18	0.113
575.63	0.115
576.08	0.116
576.53	0.116
576.98	0.118
577.44	0.120
577.89	0.119
578.34	0.122
578.79	0.126
579.24	0.125
579.69	0.126
580.14	0.129
580.59	0.129
581.04	0.132
581.49	0.133
581.95	0.134
582.40	0.136
582.85	0.137
583.30	0.138
583.75	0.143
584.20	0.143
584.65	0.144
585.10	0.147
585.55	0.147
586.00	0.153
586.45	0.152
586.90	0.157
587.35	0.158
587.80	0.159
588.25	0.160
588.71	0.161
589.16	0.168
589.61	0.170
590.06	0.172
590.51	0.174
590.96	0.175
591.41	0.179
591.86	0.181
592.31	0.185
592.76	0.185
593.21	0.187
593.66	0.191
594.11	0.195
594.56	0.196
595.01	0.200
595.46	0.202
595.91	0.203
596.36	0.208
596.81	0.211
597.26	0.211
597.71	0.216
598.16	0.216
598.61	0.220
599.06	0.222
599.51	0.225
599.96	0.227
600.41	0.230
600.86	0.235
601.31	0.236
601.76	0.241
602.21	0.240
602.65	0.245
603.10	0.247
603.55	0.248
604.00	0.250
604.45	0.252
604.90	0.260
605.35	0.261
605.80	0.261
606.25	0.260
606.70	0.266
607.15	0.270
607.60	0.269
608.05	0.273
608.50	0.273
608.95	0.278
609.39	0.279
609.84	0.283
610.29	0.278
610.74	0.283
611.19	0.285
611.64	0.286
612.09	0.290
612.54	0.289
612.99	0.293
613.44	0.290
613.88	0.295
614.33	0.293
614.78	0.293
615.23	0.295
615.68	0.296
616.13	0.297
616.58	0.299
617.03	0.299
617.47	0.298
617.92	0.301
618.37	0.302
618.82	0.302
619.27	0.301
619.72	0.302
620.17	0.305
620.61	0.304
621.06	0.305
621.51	0.305
621.96	0.306
622.41	0.308
622.86	0.307
623.30	0.309
623.75	0.308
624.20	0.311
624.65	0.313
625.10	0.312
625.54	0.313
625.99	0.315
626.44	0.317
626.89	0.315
627.34	0.318
627.78	0.320
628.23	0.321
628.68	0.322
629.13	0.324
629.58	0.324
630.02	0.328
630.47	0.329
630.92	0.331
631.37	0.333
631.81	0.335
632.26	0.336
632.71	0.342
633.16	0.341
633.61	0.343
634.05	0.345
634.50	0.349
634.95	0.351
635.40	0.353
635.84	0.358
636.29	0.361
636.74	0.364
637.18	0.368
637.63	0.370
638.08	0.374
638.53	0.374
638.97	0.379
639.42	0.386
639.87	0.387
640.32	0.393
640.76	0.398
641.21	0.400
641.66	0.407
642.10	0.410
642.55	0.413
643.00	0.417
643.44	0.419
643.89	0.426
644.34	0.431
644.79	0.434
645.23	0.440
645.68	0.446
646.13	0.449
646.57	0.453
647.02	0.457
647.47	0.461
647.91	0.465
648.36	0.472
648.81	0.476
649.25	0.479
649.70	0.484
650.15	0.490
650.59	0.495
651.04	0.499
651.48	0.502
651.93	0.507
652.38	0.512
652.82	0.516
653.27	0.521
653.72	0.526
654.16	0.531
654.61	0.532
655.06	0.538
655.50	0.541
655.95	0.541
656.39	0.545
656.84	0.549
657.29	0.553
657.73	0.559
658.18	0.560
658.62	0.563
659.07	0.569
659.52	0.569
659.96	0.572
660.41	0.575
660.85	0.579
661.30	0.581
661.74	0.585
662.19	0.588
662.64	0.586
663.08	0.590
663.53	0.592
663.97	0.592
664.42	0.592
664.86	0.595
665.31	0.594
665.75	0.593
666.20	0.596
666.65	0.595
667.09	0.592
667.54	0.588
667.98	0.593
668.43	0.587
668.87	0.585
669.32	0.579
669.76	0.578
670.21	0.573
670.65	0.565
671.10	0.562
671.54	0.557
671.99	0.553
672.43	0.543
672.88	0.536
673.32	0.528
673.77	0.521
674.21	0.514
674.66	0.505
675.10	0.493
675.55	0.484
675.99	0.477
676.44	0.467
676.88	0.453
677.33	0.445
677.77	0.432
678.22	0.422
678.66	0.412
679.11	0.399
679.55	0.386
679.99	0.377
680.44	0.365
680.88	0.353
681.33	0.344
681.77	0.333
682.22	0.322
682.66	0.307
683.11	0.299
683.55	0.290
683.99	0.280
684.44	0.268
684.88	0.259
685.33	0.248
685.77	0.240
686.21	0.230
686.66	0.220
687.10	0.212
687.55	0.205
687.99	0.199
688.44	0.188
688.88	0.180
689.32	0.173
689.77	0.164
690.21	0.161
690.65	0.152
691.10	0.144
691.54	0.140
691.99	0.134
692.43	0.125
692.87	0.123
693.32	0.118
693.76	0.113
694.20	0.109
694.65	0.105
695.09	0.101
695.53	0.097
695.98	0.093
696.42	0.088
696.86	0.083
697.31	0.082
697.75	0.079
698.19	0.074
698.64	0.073
699.08	0.070
699.52	0.067
699.97	0.065
700.41	0.066
700.85	0.061
701.30	0.060
701.74	0.053
702.18	0.055
702.63	0.053
703.07	0.054
703.51	0.050
703.96	0.048
704.40	0.047
704.84	0.046
705.28	0.046
705.73	0.043
706.17	0.043
706.61	0.040
707.06	0.039
707.50	0.039
707.94	0.037
708.38	0.036
708.83	0.037
709.27	0.034
709.71	0.037
710.15	0.034
710.60	0.034
711.04	0.034
711.48	0.031
711.92	0.033
712.37	0.032
712.81	0.032
713.25	0.030
713.69	0.028
714.13	0.027
714.58	0.029
715.02	0.028
715.46	0.026
715.90	0.028
716.35	0.026
716.79	0.028
717.23	0.027
717.67	0.027
718.11	0.023
718.56	0.025
719.00	0.026
719.44	0.025
719.88	0.027
720.32	0.028
720.76	0.025
721.21	0.027
721.65	0.025
722.09	0.027
722.53	0.026
722.97	0.026
723.41	0.026
723.86	0.023
724.30	0.023
724.74	0.024
725.18	0.027
725.62	0.024
726.06	0.028
726.50	0.025
726.95	0.026
727.39	0.026
727.83	0.024
728.27	0.023
728.71	0.022
729.15	0.026
729.59	0.026
730.03	0.025
730.48	0.026
730.92	0.025
731.36	0.026
731.80	0.026
732.24	0.024
732.68	0.028
733.12	0.027
733.56	0.028
734.00	0.027
734.44	0.028
734.89	0.024
735.33	0.028
735.77	0.026
736.21	0.028
736.65	0.030
737.09	0.026
737.53	0.026
737.97	0.029
738.41	0.029
738.85	0.027
739.29	0.025
739.73	0.027
740.17	0.028
740.61	0.029
741.05	0.030
741.49	0.026
741.93	0.029
742.37	0.027
742.81	0.027
743.26	0.029
743.70	0.027
744.14	0.029
744.58	0.027
745.02	0.029
745.46	0.029
745.90	0.027
746.34	0.029
746.78	0.029
747.22	0.028
747.66	0.027
748.10	0.028
748.54	0.028
748.98	0.028
749.42	0.028
749.86	0.026
750.29	0.027
750.73	0.026
751.17	0.024
751.61	0.027
752.05	0.027
752.49	0.028
752.93	0.029
753.37	0.029
753.81	0.029
754.25	0.027
754.69	0.027
755.13	0.028
755.57	0.026
756.01	0.025
756.45	0.026
756.89	0.027
757.33	0.031
757.77	0.028
758.21	0.028
758.64	0.030
759.08	0.030
759.52	0.026
759.96	0.028
760.40	0.026
760.84	0.026
761.28	0.028
761.72	0.027
762.16	0.027
762.60	0.025
763.03	0.028
763.47	0.025
763.91	0.022
764.35	0.025
764.79	0.030
765.23	0.027
765.67	0.025
766.11	0.026
766.54	0.026
766.98	0.025
767.42	0.027
767.86	0.026
768.30	0.028
768.74	0.027
769.17	0.029
769.61	0.028
770.05	0.026
770.49	0.025
770.93	0.026
771.37	0.027
771.80	0.027
772.24	0.027
772.68	0.027
773.12	0.026
773.56	0.028
774.00	0.029
774.43	0.027
774.87	0.025
775.31	0.029
775.75	0.029
776.19	0.025
776.62	0.028
777.06	0.024
777.50	0.028
777.94	0.026
778.37	0.025
778.81	0.028
779.25	0.027
779.69	0.027
780.13	0.026
780.56	0.025
781.00	0.030
781.44	0.028
781.88	0.027
782.31	0.027
782.75	0.028
783.19	0.029
783.63	0.029
784.06	0.026
784.50	0.029
784.94	0.030
785.37	0.030
785.81	0.024
786.25	0.027
786.69	0.026
787.12	0.027
787.56	0.029
788.00	0.024
788.43	0.025
788.87	0.026
789.31	0.025
789.75	0.029
790.18	0.025
790.62	0.030
791.06	0.029
791.49	0.029
791.93	0.027
792.37	0.024
792.80	0.027
793.24	0.027
793.68	0.025
794.11	0.026
794.55	0.023
794.99	0.029
795.42	0.028
795.86	0.025
796.30	0.031
796.73	0.026
797.17	0.026
797.61	0.025
798.04	0.022
798.48	0.024
798.91	0.023
799.35	0.026
799.79	0.027
800.22	0.027
800.66	0.026
801.10	0.029
801.53	0.025
801.97	0.027
802.40	0.029
802.84	0.027
803.28	0.026
803.71	0.025
804.15	0.029
804.58	0.025
805.02	0.023
805.46	0.027
805.89	0.026
806.33	0.026
806.76	0.027
807.20	0.026
807.63	0.029
808.07	0.026
808.51	0.022
808.94	0.029
809.38	0.027
809.81	0.023
810.25	0.027
810.68	0.031
811.12	0.026
811.55	0.020
811.99	0.031
812.42	0.024
812.86	0.027
813.29	0.026
813.73	0.025
814.17	0.027
814.60	0.027
815.04	0.026
815.47	0.026
815.91	0.029
816.34	0.026
816.78	0.028
817.21	0.027
817.65	0.032
818.08	0.028
