SpectraSuite Data File
++++++++++++++++++++++++++++++++++++
Date: Tue Jul 11 16:17:02 CEST 2017
User: IPCE
Dark Spectrum Present: Yes
Reference Spectrum Present: Yes
Number of Sampled Component Spectra: 1
Spectrometers: HR+C0708
Integration Time (usec): 1000 (HR+C0708)
Spectra Averaged: 10 (HR+C0708)
Boxcar Smoothing: 0 (HR+C0708)
Correct for Electrical Dark: No (HR+C0708)
Strobe/Lamp Enabled: No (HR+C0708)
Correct for Detector Non-linearity: No (HR+C0708)
Correct for Stray Light: No (HR+C0708)
Number of Pixels in Processed Spectrum: 2048
>>>>>Begin Processed Spectral Data<<<<<
188.76	-0.064
189.23	-0.229
189.70	0.301
190.17	0.287
190.64	-0.133
191.12	0.152
191.59	0.319
192.06	0.222
192.53	0.120
193.01	0.581
193.48	-0.538
193.95	0.125
194.42	0.176
194.90	0.229
195.37	0.019
195.84	-0.017
196.31	0.471
196.78	0.186
197.26	0.297
197.73	0.061
198.20	0.047
198.67	0.155
199.14	-0.013
199.62	0.287
200.09	0.360
200.56	0.195
201.03	0.149
201.50	0.295
201.97	0.198
202.45	0.435
202.92	0.283
203.39	0.242
203.86	0.235
204.33	0.223
204.80	0.344
205.28	0.330
205.75	0.303
206.22	0.300
206.69	0.544
207.16	0.135
207.63	0.249
208.11	0.277
208.58	0.228
209.05	0.303
209.52	0.336
209.99	0.287
210.46	0.236
210.93	0.167
211.41	0.232
211.88	0.293
212.35	0.305
212.82	0.204
213.29	0.242
213.76	0.223
214.23	0.259
214.70	0.216
215.18	0.251
215.65	0.217
216.12	0.333
216.59	0.304
217.06	0.452
217.53	0.311
218.00	0.272
218.47	0.506
218.94	0.367
219.41	0.273
219.89	0.401
220.36	0.366
220.83	0.410
221.30	0.276
221.77	0.434
222.24	0.360
222.71	0.455
223.18	0.371
223.65	0.360
224.12	0.434
224.59	0.495
225.06	0.487
225.54	0.441
226.01	0.549
226.48	0.658
226.95	0.616
227.42	0.727
227.89	0.620
228.36	0.816
228.83	0.957
229.30	0.856
229.77	0.873
230.24	0.954
230.71	1.183
231.18	1.006
231.65	1.026
232.12	1.368
232.59	1.249
233.06	1.312
233.53	1.348
234.00	1.445
234.47	1.445
234.94	1.611
235.41	1.502
235.88	1.685
236.35	1.482
236.82	1.611
237.29	1.623
237.76	1.710
238.23	1.731
238.70	1.848
239.17	1.915
239.64	1.811
240.11	1.816
240.58	1.881
241.05	2.036
241.52	1.987
241.99	1.949
242.46	1.964
242.93	2.115
243.40	2.057
243.87	2.095
244.34	2.229
244.81	2.066
245.28	2.132
245.75	2.156
246.22	2.124
246.69	2.145
247.16	2.250
247.63	2.148
248.10	2.127
248.57	2.091
249.04	2.147
249.51	2.251
249.98	2.114
250.45	2.188
250.92	2.136
251.39	2.047
251.85	1.933
252.32	1.911
252.79	1.769
253.26	1.709
253.73	1.642
254.20	1.520
254.67	1.447
255.14	1.395
255.61	1.343
256.08	1.303
256.55	1.229
257.02	1.178
257.49	1.145
257.95	1.093
258.42	1.065
258.89	1.024
259.36	1.005
259.83	0.978
260.30	0.943
260.77	0.925
261.24	0.908
261.71	0.875
262.17	0.862
262.64	0.841
263.11	0.822
263.58	0.808
264.05	0.788
264.52	0.773
264.99	0.763
265.46	0.746
265.92	0.732
266.39	0.723
266.86	0.709
267.33	0.696
267.80	0.693
268.27	0.676
268.74	0.667
269.20	0.654
269.67	0.653
270.14	0.641
270.61	0.631
271.08	0.620
271.55	0.618
272.01	0.605
272.48	0.598
272.95	0.591
273.42	0.585
273.89	0.575
274.36	0.572
274.82	0.565
275.29	0.562
275.76	0.554
276.23	0.550
276.70	0.547
277.16	0.541
277.63	0.540
278.10	0.533
278.57	0.533
279.04	0.521
279.50	0.523
279.97	0.519
280.44	0.520
280.91	0.516
281.38	0.513
281.84	0.509
282.31	0.511
282.78	0.506
283.25	0.505
283.72	0.505
284.18	0.503
284.65	0.501
285.12	0.502
285.59	0.501
286.05	0.496
286.52	0.498
286.99	0.500
287.46	0.498
287.92	0.497
288.39	0.496
288.86	0.492
289.33	0.494
289.79	0.491
290.26	0.494
290.73	0.491
291.20	0.487
291.66	0.485
292.13	0.482
292.60	0.474
293.07	0.473
293.53	0.471
294.00	0.464
294.47	0.458
294.93	0.454
295.40	0.446
295.87	0.445
296.34	0.433
296.80	0.429
297.27	0.423
297.74	0.415
298.20	0.405
298.67	0.401
299.14	0.392
299.60	0.386
300.07	0.378
300.54	0.370
301.01	0.368
301.47	0.358
301.94	0.349
302.41	0.346
302.87	0.337
303.34	0.330
303.81	0.322
304.27	0.319
304.74	0.316
305.21	0.308
305.67	0.300
306.14	0.293
306.61	0.291
307.07	0.288
307.54	0.278
308.01	0.272
308.47	0.272
308.94	0.266
309.40	0.264
309.87	0.260
310.34	0.256
310.80	0.253
311.27	0.249
311.74	0.246
312.20	0.243
312.67	0.242
313.13	0.244
313.60	0.237
314.07	0.236
314.53	0.235
315.00	0.233
315.47	0.233
315.93	0.226
316.40	0.230
316.86	0.226
317.33	0.224
317.80	0.220
318.26	0.220
318.73	0.222
319.19	0.215
319.66	0.217
320.13	0.213
320.59	0.213
321.06	0.210
321.52	0.211
321.99	0.211
322.45	0.208
322.92	0.207
323.39	0.204
323.85	0.204
324.32	0.203
324.78	0.202
325.25	0.201
325.71	0.200
326.18	0.197
326.64	0.195
327.11	0.194
327.58	0.194
328.04	0.194
328.51	0.188
328.97	0.191
329.44	0.188
329.90	0.186
330.37	0.186
330.83	0.183
331.30	0.180
331.76	0.181
332.23	0.180
332.69	0.177
333.16	0.175
333.62	0.174
334.09	0.172
334.56	0.171
335.02	0.167
335.49	0.167
335.95	0.165
336.42	0.164
336.88	0.159
337.35	0.158
337.81	0.160
338.28	0.156
338.74	0.159
339.20	0.154
339.67	0.157
340.13	0.154
340.60	0.152
341.06	0.148
341.53	0.150
341.99	0.151
342.46	0.147
342.92	0.147
343.39	0.145
343.85	0.143
344.32	0.144
344.78	0.143
345.25	0.141
345.71	0.144
346.17	0.142
346.64	0.142
347.10	0.139
347.57	0.140
348.03	0.141
348.50	0.134
348.96	0.133
349.43	0.137
349.89	0.132
350.35	0.135
350.82	0.132
351.28	0.133
351.75	0.132
352.21	0.134
352.67	0.126
353.14	0.128
353.60	0.127
354.07	0.119
354.53	0.124
355.00	0.120
355.46	0.117
355.92	0.120
356.39	0.119
356.85	0.116
357.31	0.116
357.78	0.118
358.24	0.113
358.71	0.112
359.17	0.112
359.63	0.107
360.10	0.105
360.56	0.105
361.03	0.102
361.49	0.105
361.95	0.099
362.42	0.097
362.88	0.097
363.34	0.095
363.81	0.094
364.27	0.091
364.73	0.090
365.20	0.088
365.66	0.087
366.12	0.085
366.59	0.084
367.05	0.083
367.51	0.079
367.98	0.078
368.44	0.081
368.90	0.077
369.37	0.081
369.83	0.077
370.29	0.077
370.76	0.078
371.22	0.077
371.68	0.076
372.15	0.078
372.61	0.077
373.07	0.076
373.54	0.073
374.00	0.077
374.46	0.074
374.92	0.072
375.39	0.073
375.85	0.072
376.31	0.072
376.78	0.073
377.24	0.073
377.70	0.073
378.16	0.074
378.63	0.072
379.09	0.071
379.55	0.072
380.01	0.070
380.48	0.071
380.94	0.073
381.40	0.071
381.87	0.068
382.33	0.069
382.79	0.069
383.25	0.069
383.72	0.071
384.18	0.069
384.64	0.067
385.10	0.067
385.56	0.068
386.03	0.069
386.49	0.069
386.95	0.068
387.41	0.064
387.88	0.068
388.34	0.070
388.80	0.066
389.26	0.067
389.72	0.068
390.19	0.066
390.65	0.066
391.11	0.067
391.57	0.069
392.04	0.066
392.50	0.064
392.96	0.065
393.42	0.063
393.88	0.071
394.34	0.065
394.81	0.067
395.27	0.062
395.73	0.060
396.19	0.066
396.65	0.065
397.12	0.065
397.58	0.060
398.04	0.063
398.50	0.064
398.96	0.065
399.42	0.064
399.89	0.063
400.35	0.061
400.81	0.063
401.27	0.066
401.73	0.060
402.19	0.061
402.65	0.059
403.12	0.059
403.58	0.060
404.04	0.059
404.50	0.059
404.96	0.062
405.42	0.057
405.88	0.059
406.34	0.060
406.81	0.060
407.27	0.056
407.73	0.058
408.19	0.057
408.65	0.057
409.11	0.057
409.57	0.056
410.03	0.059
410.49	0.055
410.96	0.054
411.42	0.056
411.88	0.058
412.34	0.056
412.80	0.057
413.26	0.058
413.72	0.056
414.18	0.062
414.64	0.054
415.10	0.054
415.56	0.055
416.02	0.053
416.48	0.053
416.95	0.054
417.41	0.052
417.87	0.052
418.33	0.053
418.79	0.053
419.25	0.056
419.71	0.052
420.17	0.053
420.63	0.053
421.09	0.052
421.55	0.053
422.01	0.050
422.47	0.054
422.93	0.054
423.39	0.052
423.85	0.055
424.31	0.051
424.77	0.053
425.23	0.053
425.69	0.052
426.15	0.053
426.61	0.050
427.07	0.053
427.53	0.053
427.99	0.054
428.45	0.055
428.91	0.051
429.37	0.052
429.83	0.053
430.29	0.054
430.75	0.051
431.21	0.053
431.67	0.054
432.13	0.051
432.59	0.050
433.05	0.050
433.51	0.052
433.97	0.053
434.43	0.053
434.89	0.050
435.35	0.053
435.81	0.049
436.27	0.049
436.73	0.051
437.19	0.049
437.65	0.050
438.11	0.052
438.57	0.052
439.03	0.048
439.48	0.050
439.94	0.048
440.40	0.049
440.86	0.053
441.32	0.051
441.78	0.051
442.24	0.048
442.70	0.048
443.16	0.048
443.62	0.049
444.08	0.050
444.54	0.051
444.99	0.048
445.45	0.049
445.91	0.050
446.37	0.049
446.83	0.049
447.29	0.050
447.75	0.048
448.21	0.048
448.67	0.049
449.12	0.047
449.58	0.047
450.04	0.046
450.50	0.044
450.96	0.046
451.42	0.049
451.88	0.050
452.34	0.049
452.79	0.046
453.25	0.049
453.71	0.048
454.17	0.047
454.63	0.049
455.09	0.048
455.55	0.048
456.00	0.045
456.46	0.048
456.92	0.049
457.38	0.049
457.84	0.047
458.30	0.048
458.75	0.050
459.21	0.047
459.67	0.049
460.13	0.051
460.59	0.047
461.04	0.046
461.50	0.048
461.96	0.047
462.42	0.047
462.88	0.045
463.33	0.049
463.79	0.048
464.25	0.046
464.71	0.048
465.17	0.048
465.62	0.048
466.08	0.048
466.54	0.047
467.00	0.049
467.46	0.047
467.91	0.050
468.37	0.049
468.83	0.049
469.29	0.047
469.74	0.047
470.20	0.049
470.66	0.047
471.12	0.050
471.57	0.048
472.03	0.049
472.49	0.047
472.95	0.049
473.40	0.047
473.86	0.049
474.32	0.048
474.78	0.049
475.23	0.049
475.69	0.048
476.15	0.049
476.60	0.047
477.06	0.046
477.52	0.048
477.98	0.049
478.43	0.051
478.89	0.050
479.35	0.049
479.80	0.049
480.26	0.049
480.72	0.049
481.18	0.049
481.63	0.051
482.09	0.048
482.55	0.048
483.00	0.048
483.46	0.050
483.92	0.050
484.37	0.052
484.83	0.050
485.29	0.049
485.74	0.050
486.20	0.050
486.66	0.049
487.11	0.050
487.57	0.052
488.03	0.050
488.48	0.047
488.94	0.051
489.40	0.050
489.85	0.049
490.31	0.046
490.77	0.050
491.22	0.048
491.68	0.051
492.13	0.050
492.59	0.050
493.05	0.050
493.50	0.050
493.96	0.047
494.42	0.053
494.87	0.051
495.33	0.049
495.78	0.049
496.24	0.047
496.70	0.050
497.15	0.050
497.61	0.049
498.06	0.051
498.52	0.049
498.98	0.049
499.43	0.048
499.89	0.049
500.34	0.050
500.80	0.051
501.25	0.050
501.71	0.050
502.17	0.049
502.62	0.049
503.08	0.048
503.53	0.048
503.99	0.051
504.44	0.050
504.90	0.048
505.36	0.049
505.81	0.047
506.27	0.049
506.72	0.049
507.18	0.050
507.63	0.050
508.09	0.048
508.54	0.049
509.00	0.049
509.45	0.050
509.91	0.050
510.36	0.049
510.82	0.050
511.27	0.047
511.73	0.049
512.19	0.047
512.64	0.049
513.10	0.048
513.55	0.048
514.01	0.046
514.46	0.046
514.92	0.049
515.37	0.047
515.83	0.045
516.28	0.049
516.73	0.048
517.19	0.048
517.64	0.047
518.10	0.047
518.55	0.049
519.01	0.047
519.46	0.048
519.92	0.048
520.37	0.051
520.83	0.049
521.28	0.049
521.74	0.048
522.19	0.049
522.65	0.048
523.10	0.048
523.55	0.048
524.01	0.049
524.46	0.049
524.92	0.049
525.37	0.048
525.83	0.048
526.28	0.049
526.73	0.049
527.19	0.048
527.64	0.052
528.10	0.047
528.55	0.049
529.01	0.050
529.46	0.051
529.91	0.049
530.37	0.048
530.82	0.050
531.28	0.051
531.73	0.048
532.18	0.050
532.64	0.049
533.09	0.050
533.54	0.049
534.00	0.049
534.45	0.051
534.91	0.050
535.36	0.051
535.81	0.051
536.27	0.052
536.72	0.050
537.17	0.051
537.63	0.055
538.08	0.052
538.54	0.051
538.99	0.051
539.44	0.056
539.90	0.053
540.35	0.051
540.80	0.051
541.26	0.053
541.71	0.053
542.16	0.053
542.62	0.055
543.07	0.055
543.52	0.054
543.98	0.054
544.43	0.055
544.88	0.057
545.34	0.057
545.79	0.057
546.24	0.056
546.69	0.055
547.15	0.056
547.60	0.059
548.05	0.057
548.51	0.058
548.96	0.057
549.41	0.060
549.86	0.059
550.32	0.060
550.77	0.060
551.22	0.061
551.68	0.060
552.13	0.061
552.58	0.062
553.03	0.062
553.49	0.062
553.94	0.061
554.39	0.064
554.84	0.065
555.30	0.066
555.75	0.065
556.20	0.064
556.65	0.066
557.11	0.066
557.56	0.067
558.01	0.066
558.46	0.068
558.92	0.069
559.37	0.069
559.82	0.069
560.27	0.072
560.72	0.069
561.18	0.071
561.63	0.073
562.08	0.074
562.53	0.072
562.99	0.073
563.44	0.073
563.89	0.072
564.34	0.076
564.79	0.075
565.25	0.077
565.70	0.076
566.15	0.076
566.60	0.078
567.05	0.079
567.50	0.080
567.96	0.081
568.41	0.082
568.86	0.081
569.31	0.083
569.76	0.081
570.21	0.081
570.67	0.082
571.12	0.083
571.57	0.085
572.02	0.087
572.47	0.087
572.92	0.086
573.37	0.086
573.83	0.090
574.28	0.090
574.73	0.090
575.18	0.091
575.63	0.092
576.08	0.092
576.53	0.094
576.98	0.094
577.44	0.095
577.89	0.095
578.34	0.094
578.79	0.100
579.24	0.098
579.69	0.101
580.14	0.100
580.59	0.102
581.04	0.104
581.49	0.105
581.95	0.106
582.40	0.104
582.85	0.108
583.30	0.108
583.75	0.110
584.20	0.111
584.65	0.110
585.10	0.113
585.55	0.112
586.00	0.115
586.45	0.118
586.90	0.118
587.35	0.119
587.80	0.121
588.25	0.123
588.71	0.123
589.16	0.126
589.61	0.128
590.06	0.131
590.51	0.129
590.96	0.131
591.41	0.136
591.86	0.136
592.31	0.137
592.76	0.138
593.21	0.140
593.66	0.142
594.11	0.144
594.56	0.144
595.01	0.145
595.46	0.148
595.91	0.149
596.36	0.153
596.81	0.155
597.26	0.155
597.71	0.157
598.16	0.158
598.61	0.162
599.06	0.162
599.51	0.161
599.96	0.165
600.41	0.168
600.86	0.168
601.31	0.168
601.76	0.171
602.21	0.174
602.65	0.175
603.10	0.176
603.55	0.178
604.00	0.181
604.45	0.180
604.90	0.183
605.35	0.185
605.80	0.185
606.25	0.186
606.70	0.190
607.15	0.191
607.60	0.191
608.05	0.191
608.50	0.194
608.95	0.195
609.39	0.198
609.84	0.197
610.29	0.197
610.74	0.200
611.19	0.200
611.64	0.202
612.09	0.202
612.54	0.204
612.99	0.204
613.44	0.205
613.88	0.207
614.33	0.206
614.78	0.210
615.23	0.209
615.68	0.208
616.13	0.210
616.58	0.209
617.03	0.209
617.47	0.212
617.92	0.214
618.37	0.213
618.82	0.213
619.27	0.212
619.72	0.213
620.17	0.215
620.61	0.214
621.06	0.217
621.51	0.217
621.96	0.217
622.41	0.220
622.86	0.218
623.30	0.220
623.75	0.219
624.20	0.221
624.65	0.224
625.10	0.222
625.54	0.223
625.99	0.224
626.44	0.225
626.89	0.227
627.34	0.226
627.78	0.228
628.23	0.228
628.68	0.231
629.13	0.230
629.58	0.232
630.02	0.233
630.47	0.234
630.92	0.238
631.37	0.239
631.81	0.238
632.26	0.240
632.71	0.244
633.16	0.243
633.61	0.246
634.05	0.248
634.50	0.250
634.95	0.251
635.40	0.251
635.84	0.256
636.29	0.258
636.74	0.259
637.18	0.260
637.63	0.264
638.08	0.263
638.53	0.267
638.97	0.268
639.42	0.273
639.87	0.274
640.32	0.276
640.76	0.281
641.21	0.281
641.66	0.284
642.10	0.288
642.55	0.288
643.00	0.292
643.44	0.293
643.89	0.297
644.34	0.299
644.79	0.301
645.23	0.304
645.68	0.308
646.13	0.311
646.57	0.313
647.02	0.315
647.47	0.316
647.91	0.320
648.36	0.323
648.81	0.326
649.25	0.331
649.70	0.329
650.15	0.333
650.59	0.335
651.04	0.338
651.48	0.339
651.93	0.341
652.38	0.344
652.82	0.348
653.27	0.351
653.72	0.351
654.16	0.355
654.61	0.355
655.06	0.359
655.50	0.357
655.95	0.359
656.39	0.364
656.84	0.364
657.29	0.365
657.73	0.367
658.18	0.370
658.62	0.368
659.07	0.371
659.52	0.373
659.96	0.374
660.41	0.374
660.85	0.371
661.30	0.375
661.74	0.379
662.19	0.378
662.64	0.374
663.08	0.376
663.53	0.378
663.97	0.378
664.42	0.376
664.86	0.379
665.31	0.378
665.75	0.375
666.20	0.374
666.65	0.373
667.09	0.371
667.54	0.370
667.98	0.370
668.43	0.366
668.87	0.365
669.32	0.364
669.76	0.360
670.21	0.358
670.65	0.353
671.10	0.351
671.54	0.346
671.99	0.341
672.43	0.339
672.88	0.332
673.32	0.328
673.77	0.321
674.21	0.317
674.66	0.315
675.10	0.307
675.55	0.301
675.99	0.296
676.44	0.291
676.88	0.280
677.33	0.275
677.77	0.267
678.22	0.264
678.66	0.255
679.11	0.248
679.55	0.242
679.99	0.235
680.44	0.227
680.88	0.220
681.33	0.212
681.77	0.210
682.22	0.200
682.66	0.193
683.11	0.189
683.55	0.184
683.99	0.176
684.44	0.169
684.88	0.165
685.33	0.158
685.77	0.151
686.21	0.149
686.66	0.141
687.10	0.135
687.55	0.130
687.99	0.129
688.44	0.122
688.88	0.117
689.32	0.114
689.77	0.107
690.21	0.103
690.65	0.102
691.10	0.095
691.54	0.093
691.99	0.089
692.43	0.087
692.87	0.083
693.32	0.082
693.76	0.079
694.20	0.075
694.65	0.073
695.09	0.070
695.53	0.068
695.98	0.067
696.42	0.063
696.86	0.061
697.31	0.060
697.75	0.057
698.19	0.056
698.64	0.055
699.08	0.054
699.52	0.049
699.97	0.052
700.41	0.049
700.85	0.048
701.30	0.047
701.74	0.043
702.18	0.044
702.63	0.043
703.07	0.042
703.51	0.040
703.96	0.039
704.40	0.040
704.84	0.037
705.28	0.040
705.73	0.037
706.17	0.036
706.61	0.037
707.06	0.035
707.50	0.033
707.94	0.033
708.38	0.030
708.83	0.033
709.27	0.030
709.71	0.033
710.15	0.030
710.60	0.031
711.04	0.029
711.48	0.027
711.92	0.031
712.37	0.028
712.81	0.030
713.25	0.027
713.69	0.028
714.13	0.028
714.58	0.028
715.02	0.026
715.46	0.025
715.90	0.028
716.35	0.026
716.79	0.027
717.23	0.027
717.67	0.025
718.11	0.024
718.56	0.026
719.00	0.025
719.44	0.028
719.88	0.028
720.32	0.026
720.76	0.024
721.21	0.027
721.65	0.027
722.09	0.028
722.53	0.032
722.97	0.027
723.41	0.027
723.86	0.024
724.30	0.026
724.74	0.027
725.18	0.028
725.62	0.025
726.06	0.027
726.50	0.025
726.95	0.026
727.39	0.027
727.83	0.028
728.27	0.026
728.71	0.024
729.15	0.027
729.59	0.030
730.03	0.026
730.48	0.027
730.92	0.025
731.36	0.028
731.80	0.027
732.24	0.025
732.68	0.030
733.12	0.028
733.56	0.029
734.00	0.030
734.44	0.030
734.89	0.028
735.33	0.031
735.77	0.028
736.21	0.029
736.65	0.030
737.09	0.026
737.53	0.029
737.97	0.031
738.41	0.032
738.85	0.029
739.29	0.028
739.73	0.029
740.17	0.030
740.61	0.031
741.05	0.032
741.49	0.029
741.93	0.031
742.37	0.030
742.81	0.031
743.26	0.028
743.70	0.029
744.14	0.030
744.58	0.029
745.02	0.030
745.46	0.030
745.90	0.030
746.34	0.031
746.78	0.033
747.22	0.030
747.66	0.029
748.10	0.029
748.54	0.030
748.98	0.030
749.42	0.032
749.86	0.029
750.29	0.031
750.73	0.032
751.17	0.029
751.61	0.030
752.05	0.028
752.49	0.029
752.93	0.030
753.37	0.030
753.81	0.029
754.25	0.030
754.69	0.027
755.13	0.030
755.57	0.027
756.01	0.029
756.45	0.027
756.89	0.028
757.33	0.032
757.77	0.029
758.21	0.030
758.64	0.030
759.08	0.030
759.52	0.029
759.96	0.032
760.40	0.029
760.84	0.028
761.28	0.027
761.72	0.027
762.16	0.029
762.60	0.027
763.03	0.029
763.47	0.026
763.91	0.028
764.35	0.027
764.79	0.031
765.23	0.029
765.67	0.026
766.11	0.030
766.54	0.030
766.98	0.029
767.42	0.029
767.86	0.029
768.30	0.030
768.74	0.028
769.17	0.026
769.61	0.031
770.05	0.028
770.49	0.027
770.93	0.027
771.37	0.028
771.80	0.029
772.24	0.029
772.68	0.029
773.12	0.027
773.56	0.028
774.00	0.028
774.43	0.029
774.87	0.028
775.31	0.030
775.75	0.028
776.19	0.029
776.62	0.032
777.06	0.030
777.50	0.029
777.94	0.030
778.37	0.028
778.81	0.030
779.25	0.030
779.69	0.028
780.13	0.027
780.56	0.031
781.00	0.035
781.44	0.032
781.88	0.029
782.31	0.031
782.75	0.029
783.19	0.030
783.63	0.032
784.06	0.027
784.50	0.027
784.94	0.028
785.37	0.031
785.81	0.028
786.25	0.026
786.69	0.029
787.12	0.032
787.56	0.031
788.00	0.027
788.43	0.026
788.87	0.031
789.31	0.028
789.75	0.029
790.18	0.026
790.62	0.030
791.06	0.030
791.49	0.029
791.93	0.027
792.37	0.025
792.80	0.029
793.24	0.030
793.68	0.029
794.11	0.029
794.55	0.029
794.99	0.027
795.42	0.028
795.86	0.032
796.30	0.030
796.73	0.028
797.17	0.028
797.61	0.025
798.04	0.025
798.48	0.028
798.91	0.029
799.35	0.026
799.79	0.029
800.22	0.025
800.66	0.025
801.10	0.029
801.53	0.025
801.97	0.028
802.40	0.029
802.84	0.031
803.28	0.030
803.71	0.028
804.15	0.025
804.58	0.027
805.02	0.026
805.46	0.027
805.89	0.029
806.33	0.028
806.76	0.027
807.20	0.027
807.63	0.029
808.07	0.028
808.51	0.025
808.94	0.029
809.38	0.031
809.81	0.029
810.25	0.028
810.68	0.032
811.12	0.028
811.55	0.030
811.99	0.029
812.42	0.027
812.86	0.029
813.29	0.029
813.73	0.029
814.17	0.028
814.60	0.028
815.04	0.026
815.47	0.028
815.91	0.028
816.34	0.026
816.78	0.027
817.21	0.026
817.65	0.027
818.08	0.031
