SpectraSuite Data File
++++++++++++++++++++++++++++++++++++
Date: Tue Jul 11 16:34:32 CEST 2017
User: IPCE
Dark Spectrum Present: Yes
Reference Spectrum Present: Yes
Number of Sampled Component Spectra: 1
Spectrometers: HR+C0708
Integration Time (usec): 1000 (HR+C0708)
Spectra Averaged: 10 (HR+C0708)
Boxcar Smoothing: 0 (HR+C0708)
Correct for Electrical Dark: No (HR+C0708)
Strobe/Lamp Enabled: No (HR+C0708)
Correct for Detector Non-linearity: No (HR+C0708)
Correct for Stray Light: No (HR+C0708)
Number of Pixels in Processed Spectrum: 2048
>>>>>Begin Processed Spectral Data<<<<<
188.76	-0.000
189.23	-0.132
189.70	-0.407
190.17	-0.210
190.64	-0.000
191.12	0.254
191.59	0.011
192.06	0.340
192.53	0.084
193.01	-0.000
193.48	0.439
193.95	0.198
194.42	0.570
194.90	0.318
195.37	-0.032
195.84	0.030
196.31	0.461
196.78	0.279
197.26	0.134
197.73	0.111
198.20	0.149
198.67	-0.056
199.14	0.148
199.62	0.130
200.09	-0.066
200.56	0.239
201.03	0.198
201.50	0.223
201.97	0.174
202.45	0.260
202.92	0.347
203.39	0.237
203.86	0.271
204.33	0.232
204.80	0.367
205.28	0.438
205.75	0.288
206.22	0.305
206.69	0.528
207.16	0.207
207.63	0.452
208.11	0.303
208.58	0.178
209.05	0.295
209.52	0.426
209.99	0.302
210.46	0.194
210.93	0.167
211.41	0.289
211.88	0.258
212.35	0.201
212.82	0.252
213.29	0.145
213.76	0.369
214.23	0.222
214.70	0.195
215.18	0.325
215.65	0.240
216.12	0.245
216.59	0.196
217.06	0.400
217.53	0.282
218.00	0.297
218.47	0.445
218.94	0.256
219.41	0.363
219.89	0.312
220.36	0.430
220.83	0.324
221.30	0.294
221.77	0.385
222.24	0.346
222.71	0.531
223.18	0.351
223.65	0.332
224.12	0.419
224.59	0.373
225.06	0.510
225.54	0.597
226.01	0.509
226.48	0.643
226.95	0.617
227.42	0.710
227.89	0.753
228.36	0.794
228.83	0.836
229.30	0.890
229.77	0.870
230.24	1.009
230.71	1.046
231.18	0.984
231.65	1.121
232.12	1.378
232.59	1.228
233.06	1.289
233.53	1.363
234.00	1.488
234.47	1.445
234.94	1.486
235.41	1.603
235.88	1.650
236.35	1.504
236.82	1.692
237.29	1.713
237.76	1.655
238.23	1.724
238.70	1.850
239.17	1.826
239.64	1.761
240.11	1.873
240.58	1.924
241.05	2.011
241.52	1.925
241.99	1.989
242.46	2.006
242.93	2.007
243.40	2.067
243.87	2.063
244.34	2.195
244.81	2.014
245.28	2.061
245.75	2.181
246.22	2.156
246.69	2.101
247.16	2.121
247.63	2.208
248.10	2.153
248.57	2.063
249.04	2.147
249.51	2.146
249.98	2.051
250.45	2.197
250.92	2.075
251.39	2.041
251.85	1.995
252.32	1.918
252.79	1.767
253.26	1.687
253.73	1.626
254.20	1.496
254.67	1.441
255.14	1.358
255.61	1.305
256.08	1.262
256.55	1.192
257.02	1.150
257.49	1.112
257.95	1.072
258.42	1.027
258.89	0.994
259.36	0.968
259.83	0.939
260.30	0.911
260.77	0.890
261.24	0.874
261.71	0.847
262.17	0.829
262.64	0.806
263.11	0.792
263.58	0.774
264.05	0.760
264.52	0.746
264.99	0.726
265.46	0.713
265.92	0.703
266.39	0.696
266.86	0.675
267.33	0.667
267.80	0.659
268.27	0.646
268.74	0.636
269.20	0.627
269.67	0.618
270.14	0.611
270.61	0.597
271.08	0.589
271.55	0.584
272.01	0.573
272.48	0.565
272.95	0.560
273.42	0.553
273.89	0.545
274.36	0.538
274.82	0.536
275.29	0.528
275.76	0.521
276.23	0.518
276.70	0.518
277.16	0.509
277.63	0.504
278.10	0.495
278.57	0.497
279.04	0.492
279.50	0.488
279.97	0.483
280.44	0.480
280.91	0.476
281.38	0.479
281.84	0.474
282.31	0.474
282.78	0.471
283.25	0.470
283.72	0.471
284.18	0.465
284.65	0.464
285.12	0.461
285.59	0.461
286.05	0.460
286.52	0.459
286.99	0.456
287.46	0.456
287.92	0.459
288.39	0.456
288.86	0.455
289.33	0.455
289.79	0.449
290.26	0.450
290.73	0.450
291.20	0.443
291.66	0.443
292.13	0.434
292.60	0.434
293.07	0.431
293.53	0.428
294.00	0.421
294.47	0.415
294.93	0.409
295.40	0.405
295.87	0.399
296.34	0.394
296.80	0.386
297.27	0.381
297.74	0.374
298.20	0.367
298.67	0.364
299.14	0.354
299.60	0.349
300.07	0.341
300.54	0.334
301.01	0.327
301.47	0.319
301.94	0.313
302.41	0.308
302.87	0.302
303.34	0.299
303.81	0.290
304.27	0.285
304.74	0.282
305.21	0.276
305.67	0.269
306.14	0.262
306.61	0.256
307.07	0.256
307.54	0.251
308.01	0.244
308.47	0.242
308.94	0.239
309.40	0.233
309.87	0.231
310.34	0.227
310.80	0.229
311.27	0.221
311.74	0.220
312.20	0.216
312.67	0.216
313.13	0.214
313.60	0.211
314.07	0.211
314.53	0.207
315.00	0.206
315.47	0.207
315.93	0.203
316.40	0.204
316.86	0.200
317.33	0.199
317.80	0.196
318.26	0.196
318.73	0.195
319.19	0.193
319.66	0.194
320.13	0.189
320.59	0.189
321.06	0.186
321.52	0.186
321.99	0.186
322.45	0.185
322.92	0.180
323.39	0.184
323.85	0.181
324.32	0.181
324.78	0.176
325.25	0.174
325.71	0.175
326.18	0.172
326.64	0.171
327.11	0.171
327.58	0.171
328.04	0.169
328.51	0.168
328.97	0.171
329.44	0.167
329.90	0.166
330.37	0.165
330.83	0.164
331.30	0.160
331.76	0.159
332.23	0.158
332.69	0.157
333.16	0.157
333.62	0.152
334.09	0.150
334.56	0.151
335.02	0.148
335.49	0.145
335.95	0.144
336.42	0.143
336.88	0.143
337.35	0.141
337.81	0.140
338.28	0.136
338.74	0.140
339.20	0.137
339.67	0.137
340.13	0.135
340.60	0.134
341.06	0.131
341.53	0.130
341.99	0.131
342.46	0.130
342.92	0.131
343.39	0.128
343.85	0.125
344.32	0.125
344.78	0.126
345.25	0.126
345.71	0.127
346.17	0.124
346.64	0.122
347.10	0.123
347.57	0.120
348.03	0.119
348.50	0.118
348.96	0.114
349.43	0.120
349.89	0.117
350.35	0.119
350.82	0.119
351.28	0.116
351.75	0.115
352.21	0.116
352.67	0.109
353.14	0.111
353.60	0.111
354.07	0.105
354.53	0.111
355.00	0.108
355.46	0.104
355.92	0.106
356.39	0.107
356.85	0.105
357.31	0.104
357.78	0.105
358.24	0.100
358.71	0.100
359.17	0.101
359.63	0.096
360.10	0.098
360.56	0.096
361.03	0.095
361.49	0.099
361.95	0.094
362.42	0.091
362.88	0.092
363.34	0.088
363.81	0.091
364.27	0.090
364.73	0.088
365.20	0.086
365.66	0.084
366.12	0.082
366.59	0.081
367.05	0.083
367.51	0.083
367.98	0.080
368.44	0.083
368.90	0.080
369.37	0.081
369.83	0.079
370.29	0.076
370.76	0.080
371.22	0.075
371.68	0.076
372.15	0.075
372.61	0.077
373.07	0.076
373.54	0.076
374.00	0.076
374.46	0.076
374.92	0.072
375.39	0.075
375.85	0.077
376.31	0.074
376.78	0.074
377.24	0.074
377.70	0.074
378.16	0.074
378.63	0.072
379.09	0.071
379.55	0.075
380.01	0.074
380.48	0.073
380.94	0.076
381.40	0.071
381.87	0.070
382.33	0.071
382.79	0.072
383.25	0.072
383.72	0.072
384.18	0.072
384.64	0.074
385.10	0.070
385.56	0.072
386.03	0.069
386.49	0.071
386.95	0.070
387.41	0.068
387.88	0.071
388.34	0.069
388.80	0.070
389.26	0.067
389.72	0.069
390.19	0.070
390.65	0.068
391.11	0.069
391.57	0.068
392.04	0.068
392.50	0.067
392.96	0.068
393.42	0.068
393.88	0.070
394.34	0.067
394.81	0.067
395.27	0.066
395.73	0.065
396.19	0.068
396.65	0.068
397.12	0.066
397.58	0.064
398.04	0.065
398.50	0.065
398.96	0.067
399.42	0.065
399.89	0.065
400.35	0.062
400.81	0.066
401.27	0.065
401.73	0.063
402.19	0.063
402.65	0.063
403.12	0.065
403.58	0.062
404.04	0.063
404.50	0.062
404.96	0.062
405.42	0.061
405.88	0.062
406.34	0.062
406.81	0.059
407.27	0.060
407.73	0.060
408.19	0.058
408.65	0.059
409.11	0.058
409.57	0.060
410.03	0.062
410.49	0.059
410.96	0.057
411.42	0.059
411.88	0.057
412.34	0.056
412.80	0.059
413.26	0.059
413.72	0.057
414.18	0.060
414.64	0.058
415.10	0.057
415.56	0.057
416.02	0.056
416.48	0.057
416.95	0.056
417.41	0.056
417.87	0.056
418.33	0.055
418.79	0.058
419.25	0.058
419.71	0.056
420.17	0.055
420.63	0.056
421.09	0.057
421.55	0.058
422.01	0.053
422.47	0.056
422.93	0.055
423.39	0.056
423.85	0.058
424.31	0.055
424.77	0.054
425.23	0.053
425.69	0.056
426.15	0.057
426.61	0.056
427.07	0.053
427.53	0.054
427.99	0.056
428.45	0.057
428.91	0.054
429.37	0.054
429.83	0.055
430.29	0.055
430.75	0.055
431.21	0.053
431.67	0.058
432.13	0.053
432.59	0.055
433.05	0.053
433.51	0.055
433.97	0.054
434.43	0.052
434.89	0.053
435.35	0.054
435.81	0.050
436.27	0.051
436.73	0.050
437.19	0.054
437.65	0.052
438.11	0.051
438.57	0.053
439.03	0.048
439.48	0.053
439.94	0.051
440.40	0.050
440.86	0.052
441.32	0.052
441.78	0.049
442.24	0.050
442.70	0.052
443.16	0.051
443.62	0.050
444.08	0.052
444.54	0.053
444.99	0.050
445.45	0.050
445.91	0.049
446.37	0.052
446.83	0.052
447.29	0.049
447.75	0.051
448.21	0.050
448.67	0.051
449.12	0.048
449.58	0.049
450.04	0.048
450.50	0.049
450.96	0.047
451.42	0.050
451.88	0.054
452.34	0.051
452.79	0.050
453.25	0.052
453.71	0.049
454.17	0.048
454.63	0.052
455.09	0.049
455.55	0.051
456.00	0.049
456.46	0.050
456.92	0.051
457.38	0.052
457.84	0.048
458.30	0.050
458.75	0.052
459.21	0.051
459.67	0.049
460.13	0.049
460.59	0.052
461.04	0.047
461.50	0.048
461.96	0.050
462.42	0.051
462.88	0.046
463.33	0.049
463.79	0.051
464.25	0.047
464.71	0.050
465.17	0.050
465.62	0.050
466.08	0.050
466.54	0.049
467.00	0.049
467.46	0.050
467.91	0.053
468.37	0.050
468.83	0.049
469.29	0.050
469.74	0.051
470.20	0.050
470.66	0.049
471.12	0.052
471.57	0.052
472.03	0.050
472.49	0.050
472.95	0.050
473.40	0.050
473.86	0.051
474.32	0.049
474.78	0.051
475.23	0.050
475.69	0.049
476.15	0.054
476.60	0.049
477.06	0.049
477.52	0.050
477.98	0.052
478.43	0.051
478.89	0.052
479.35	0.049
479.80	0.049
480.26	0.047
480.72	0.051
481.18	0.050
481.63	0.051
482.09	0.050
482.55	0.049
483.00	0.050
483.46	0.048
483.92	0.051
484.37	0.053
484.83	0.049
485.29	0.052
485.74	0.051
486.20	0.049
486.66	0.050
487.11	0.052
487.57	0.052
488.03	0.052
488.48	0.048
488.94	0.050
489.40	0.049
489.85	0.050
490.31	0.049
490.77	0.051
491.22	0.048
491.68	0.050
492.13	0.051
492.59	0.051
493.05	0.052
493.50	0.052
493.96	0.049
494.42	0.051
494.87	0.051
495.33	0.051
495.78	0.049
496.24	0.048
496.70	0.052
497.15	0.051
497.61	0.050
498.06	0.051
498.52	0.049
498.98	0.052
499.43	0.050
499.89	0.049
500.34	0.050
500.80	0.051
501.25	0.051
501.71	0.052
502.17	0.051
502.62	0.050
503.08	0.049
503.53	0.052
503.99	0.051
504.44	0.051
504.90	0.048
505.36	0.051
505.81	0.048
506.27	0.049
506.72	0.051
507.18	0.050
507.63	0.048
508.09	0.048
508.54	0.050
509.00	0.050
509.45	0.050
509.91	0.050
510.36	0.050
510.82	0.050
511.27	0.047
511.73	0.050
512.19	0.047
512.64	0.050
513.10	0.049
513.55	0.049
514.01	0.047
514.46	0.048
514.92	0.049
515.37	0.051
515.83	0.048
516.28	0.050
516.73	0.048
517.19	0.049
517.64	0.049
518.10	0.050
518.55	0.051
519.01	0.048
519.46	0.050
519.92	0.048
520.37	0.050
520.83	0.050
521.28	0.048
521.74	0.047
522.19	0.049
522.65	0.049
523.10	0.049
523.55	0.049
524.01	0.050
524.46	0.048
524.92	0.049
525.37	0.050
525.83	0.049
526.28	0.047
526.73	0.049
527.19	0.050
527.64	0.050
528.10	0.049
528.55	0.051
529.01	0.051
529.46	0.051
529.91	0.050
530.37	0.049
530.82	0.051
531.28	0.049
531.73	0.051
532.18	0.052
532.64	0.049
533.09	0.051
533.54	0.051
534.00	0.049
534.45	0.051
534.91	0.050
535.36	0.052
535.81	0.050
536.27	0.052
536.72	0.049
537.17	0.053
537.63	0.053
538.08	0.053
538.54	0.052
538.99	0.051
539.44	0.055
539.90	0.054
540.35	0.052
540.80	0.052
541.26	0.052
541.71	0.055
542.16	0.054
542.62	0.053
543.07	0.055
543.52	0.052
543.98	0.058
544.43	0.055
544.88	0.055
545.34	0.057
545.79	0.057
546.24	0.057
546.69	0.055
547.15	0.053
547.60	0.060
548.05	0.057
548.51	0.055
548.96	0.058
549.41	0.058
549.86	0.058
550.32	0.058
550.77	0.060
551.22	0.061
551.68	0.060
552.13	0.059
552.58	0.060
553.03	0.060
553.49	0.061
553.94	0.059
554.39	0.063
554.84	0.065
555.30	0.063
555.75	0.063
556.20	0.065
556.65	0.064
557.11	0.065
557.56	0.064
558.01	0.065
558.46	0.066
558.92	0.067
559.37	0.066
559.82	0.067
560.27	0.069
560.72	0.067
561.18	0.067
561.63	0.069
562.08	0.071
562.53	0.068
562.99	0.069
563.44	0.071
563.89	0.068
564.34	0.072
564.79	0.073
565.25	0.073
565.70	0.074
566.15	0.075
566.60	0.073
567.05	0.075
567.50	0.078
567.96	0.078
568.41	0.079
568.86	0.077
569.31	0.079
569.76	0.079
570.21	0.079
570.67	0.080
571.12	0.082
571.57	0.080
572.02	0.082
572.47	0.083
572.92	0.082
573.37	0.083
573.83	0.085
574.28	0.086
574.73	0.086
575.18	0.086
575.63	0.088
576.08	0.089
576.53	0.089
576.98	0.091
577.44	0.089
577.89	0.089
578.34	0.091
578.79	0.095
579.24	0.094
579.69	0.096
580.14	0.097
580.59	0.096
581.04	0.098
581.49	0.099
581.95	0.101
582.40	0.100
582.85	0.100
583.30	0.103
583.75	0.103
584.20	0.104
584.65	0.103
585.10	0.108
585.55	0.107
586.00	0.109
586.45	0.111
586.90	0.112
587.35	0.113
587.80	0.115
588.25	0.115
588.71	0.115
589.16	0.117
589.61	0.121
590.06	0.122
590.51	0.122
590.96	0.124
591.41	0.126
591.86	0.128
592.31	0.129
592.76	0.129
593.21	0.132
593.66	0.133
594.11	0.134
594.56	0.137
595.01	0.137
595.46	0.139
595.91	0.138
596.36	0.141
596.81	0.144
597.26	0.145
597.71	0.146
598.16	0.146
598.61	0.148
599.06	0.152
599.51	0.152
599.96	0.154
600.41	0.155
600.86	0.157
601.31	0.156
601.76	0.159
602.21	0.159
602.65	0.161
603.10	0.164
603.55	0.165
604.00	0.167
604.45	0.167
604.90	0.167
605.35	0.171
605.80	0.169
606.25	0.170
606.70	0.175
607.15	0.176
607.60	0.176
608.05	0.176
608.50	0.178
608.95	0.179
609.39	0.181
609.84	0.180
610.29	0.183
610.74	0.183
611.19	0.184
611.64	0.186
612.09	0.187
612.54	0.189
612.99	0.189
613.44	0.186
613.88	0.190
614.33	0.188
614.78	0.192
615.23	0.188
615.68	0.192
616.13	0.193
616.58	0.192
617.03	0.192
617.47	0.193
617.92	0.195
618.37	0.197
618.82	0.196
619.27	0.196
619.72	0.196
620.17	0.196
620.61	0.197
621.06	0.199
621.51	0.200
621.96	0.199
622.41	0.201
622.86	0.199
623.30	0.203
623.75	0.203
624.20	0.201
624.65	0.205
625.10	0.203
625.54	0.204
625.99	0.207
626.44	0.205
626.89	0.207
627.34	0.209
627.78	0.208
628.23	0.211
628.68	0.210
629.13	0.213
629.58	0.213
630.02	0.215
630.47	0.218
630.92	0.218
631.37	0.219
631.81	0.221
632.26	0.219
632.71	0.224
633.16	0.224
633.61	0.227
634.05	0.225
634.50	0.229
634.95	0.229
635.40	0.231
635.84	0.235
636.29	0.235
636.74	0.238
637.18	0.240
637.63	0.241
638.08	0.241
638.53	0.244
638.97	0.245
639.42	0.249
639.87	0.251
640.32	0.254
640.76	0.257
641.21	0.257
641.66	0.260
642.10	0.262
642.55	0.261
643.00	0.265
643.44	0.268
643.89	0.270
644.34	0.273
644.79	0.276
645.23	0.277
645.68	0.281
646.13	0.284
646.57	0.284
647.02	0.286
647.47	0.287
647.91	0.290
648.36	0.295
648.81	0.296
649.25	0.300
649.70	0.301
650.15	0.303
650.59	0.306
651.04	0.309
651.48	0.307
651.93	0.309
652.38	0.313
652.82	0.316
653.27	0.315
653.72	0.318
654.16	0.321
654.61	0.322
655.06	0.324
655.50	0.323
655.95	0.324
656.39	0.325
656.84	0.327
657.29	0.329
657.73	0.331
658.18	0.332
658.62	0.333
659.07	0.337
659.52	0.335
659.96	0.338
660.41	0.337
660.85	0.335
661.30	0.337
661.74	0.339
662.19	0.340
662.64	0.336
663.08	0.339
663.53	0.338
663.97	0.338
664.42	0.340
664.86	0.338
665.31	0.338
665.75	0.336
666.20	0.334
666.65	0.335
667.09	0.333
667.54	0.333
667.98	0.332
668.43	0.331
668.87	0.327
669.32	0.328
669.76	0.323
670.21	0.322
670.65	0.316
671.10	0.313
671.54	0.309
671.99	0.306
672.43	0.302
672.88	0.297
673.32	0.292
673.77	0.288
674.21	0.286
674.66	0.279
675.10	0.274
675.55	0.269
675.99	0.265
676.44	0.260
676.88	0.253
677.33	0.247
677.77	0.241
678.22	0.236
678.66	0.229
679.11	0.220
679.55	0.219
679.99	0.211
680.44	0.205
680.88	0.199
681.33	0.193
681.77	0.187
682.22	0.182
682.66	0.174
683.11	0.168
683.55	0.166
683.99	0.159
684.44	0.152
684.88	0.148
685.33	0.143
685.77	0.137
686.21	0.133
686.66	0.128
687.10	0.125
687.55	0.119
687.99	0.116
688.44	0.113
688.88	0.107
689.32	0.104
689.77	0.098
690.21	0.095
690.65	0.092
691.10	0.088
691.54	0.085
691.99	0.083
692.43	0.079
692.87	0.075
693.32	0.074
693.76	0.070
694.20	0.071
694.65	0.069
695.09	0.067
695.53	0.064
695.98	0.063
696.42	0.058
696.86	0.057
697.31	0.058
697.75	0.053
698.19	0.051
698.64	0.052
699.08	0.050
699.52	0.047
699.97	0.049
700.41	0.047
700.85	0.044
701.30	0.045
701.74	0.039
702.18	0.042
702.63	0.041
703.07	0.042
703.51	0.040
703.96	0.038
704.40	0.039
704.84	0.037
705.28	0.038
705.73	0.035
706.17	0.034
706.61	0.036
707.06	0.034
707.50	0.034
707.94	0.035
708.38	0.031
708.83	0.033
709.27	0.032
709.71	0.032
710.15	0.029
710.60	0.032
711.04	0.031
711.48	0.030
711.92	0.030
712.37	0.030
712.81	0.030
713.25	0.028
713.69	0.028
714.13	0.028
714.58	0.027
715.02	0.029
715.46	0.026
715.90	0.029
716.35	0.027
716.79	0.027
717.23	0.025
717.67	0.027
718.11	0.026
718.56	0.027
719.00	0.024
719.44	0.025
719.88	0.028
720.32	0.027
720.76	0.028
721.21	0.028
721.65	0.029
722.09	0.029
722.53	0.030
722.97	0.027
723.41	0.027
723.86	0.027
724.30	0.028
724.74	0.025
725.18	0.030
725.62	0.027
726.06	0.028
726.50	0.027
726.95	0.026
727.39	0.028
727.83	0.028
728.27	0.026
728.71	0.027
729.15	0.027
729.59	0.027
730.03	0.028
730.48	0.028
730.92	0.029
731.36	0.029
731.80	0.027
732.24	0.027
732.68	0.028
733.12	0.030
733.56	0.028
734.00	0.030
734.44	0.032
734.89	0.029
735.33	0.032
735.77	0.031
736.21	0.031
736.65	0.034
737.09	0.026
737.53	0.030
737.97	0.033
738.41	0.031
738.85	0.031
739.29	0.028
739.73	0.031
740.17	0.032
740.61	0.035
741.05	0.032
741.49	0.029
741.93	0.031
742.37	0.031
742.81	0.031
743.26	0.033
743.70	0.032
744.14	0.030
744.58	0.032
745.02	0.032
745.46	0.028
745.90	0.030
746.34	0.033
746.78	0.032
747.22	0.032
747.66	0.031
748.10	0.032
748.54	0.030
748.98	0.031
749.42	0.033
749.86	0.031
750.29	0.032
750.73	0.030
751.17	0.030
751.61	0.032
752.05	0.030
752.49	0.030
752.93	0.033
753.37	0.034
753.81	0.033
754.25	0.030
754.69	0.031
755.13	0.031
755.57	0.030
756.01	0.029
756.45	0.028
756.89	0.030
757.33	0.033
757.77	0.029
758.21	0.031
758.64	0.034
759.08	0.033
759.52	0.031
759.96	0.032
760.40	0.030
760.84	0.028
761.28	0.032
761.72	0.029
762.16	0.029
762.60	0.028
763.03	0.030
763.47	0.031
763.91	0.029
764.35	0.028
764.79	0.031
765.23	0.029
765.67	0.028
766.11	0.031
766.54	0.030
766.98	0.029
767.42	0.033
767.86	0.031
768.30	0.033
768.74	0.031
769.17	0.036
769.61	0.031
770.05	0.029
770.49	0.028
770.93	0.030
771.37	0.029
771.80	0.032
772.24	0.031
772.68	0.028
773.12	0.028
773.56	0.029
774.00	0.028
774.43	0.030
774.87	0.029
775.31	0.031
775.75	0.029
776.19	0.029
776.62	0.032
777.06	0.027
777.50	0.029
777.94	0.032
778.37	0.028
778.81	0.032
779.25	0.032
779.69	0.031
780.13	0.028
780.56	0.030
781.00	0.033
781.44	0.032
781.88	0.030
782.31	0.032
782.75	0.031
783.19	0.032
783.63	0.031
784.06	0.028
784.50	0.032
784.94	0.031
785.37	0.030
785.81	0.031
786.25	0.029
786.69	0.029
787.12	0.029
787.56	0.030
788.00	0.024
788.43	0.025
788.87	0.030
789.31	0.030
789.75	0.029
790.18	0.029
790.62	0.030
791.06	0.032
791.49	0.033
791.93	0.029
792.37	0.026
792.80	0.029
793.24	0.032
793.68	0.031
794.11	0.031
794.55	0.027
794.99	0.027
795.42	0.029
795.86	0.028
796.30	0.032
796.73	0.033
797.17	0.033
797.61	0.024
798.04	0.024
798.48	0.028
798.91	0.031
799.35	0.026
799.79	0.029
800.22	0.032
800.66	0.025
801.10	0.032
801.53	0.026
801.97	0.027
802.40	0.028
802.84	0.030
803.28	0.028
803.71	0.030
804.15	0.029
804.58	0.025
805.02	0.026
805.46	0.027
805.89	0.028
806.33	0.028
806.76	0.026
807.20	0.029
807.63	0.031
808.07	0.030
808.51	0.027
808.94	0.029
809.38	0.030
809.81	0.027
810.25	0.027
810.68	0.031
811.12	0.030
811.55	0.029
811.99	0.031
812.42	0.029
812.86	0.028
813.29	0.025
813.73	0.031
814.17	0.028
814.60	0.029
815.04	0.026
815.47	0.033
815.91	0.030
816.34	0.030
816.78	0.032
817.21	0.028
817.65	0.030
