SpectraSuite Data File
++++++++++++++++++++++++++++++++++++
Date: Tue Jul 11 16:38:32 CEST 2017
User: IPCE
Dark Spectrum Present: Yes
Reference Spectrum Present: Yes
Number of Sampled Component Spectra: 1
Spectrometers: HR+C0708
Integration Time (usec): 1000 (HR+C0708)
Spectra Averaged: 10 (HR+C0708)
Boxcar Smoothing: 0 (HR+C0708)
Correct for Electrical Dark: No (HR+C0708)
Strobe/Lamp Enabled: No (HR+C0708)
Correct for Detector Non-linearity: No (HR+C0708)
Correct for Stray Light: No (HR+C0708)
Number of Pixels in Processed Spectrum: 2048
>>>>>Begin Processed Spectral Data<<<<<
188.76	0.527
189.23	-0.241
189.70	0.881
190.17	0.162
190.64	-0.000
191.12	0.148
191.59	0.488
192.06	0.340
192.53	0.392
193.01	0.338
193.48	-0.804
193.95	0.240
194.42	0.176
194.90	0.217
195.37	0.048
195.84	0.012
196.31	0.353
196.78	-0.022
197.26	0.180
197.73	0.386
198.20	0.253
198.67	0.048
199.14	0.003
199.62	0.097
200.09	0.087
200.56	0.165
201.03	0.193
201.50	0.288
201.97	0.148
202.45	0.374
202.92	0.383
203.39	0.460
203.86	0.402
204.33	0.284
204.80	0.322
205.28	0.210
205.75	0.160
206.22	0.338
206.69	0.544
207.16	0.185
207.63	0.203
208.11	0.287
208.58	0.177
209.05	0.285
209.52	0.285
209.99	0.230
210.46	0.172
210.93	0.273
211.41	0.237
211.88	0.269
212.35	0.224
212.82	0.229
213.29	0.217
213.76	0.209
214.23	0.235
214.70	0.257
215.18	0.282
215.65	0.210
216.12	0.327
216.59	0.285
217.06	0.505
217.53	0.258
218.00	0.263
218.47	0.402
218.94	0.180
219.41	0.344
219.89	0.339
220.36	0.348
220.83	0.267
221.30	0.310
221.77	0.327
222.24	0.442
222.71	0.371
223.18	0.348
223.65	0.518
224.12	0.422
224.59	0.435
225.06	0.479
225.54	0.548
226.01	0.617
226.48	0.643
226.95	0.598
227.42	0.743
227.89	0.688
228.36	0.776
228.83	0.936
229.30	0.843
229.77	0.922
230.24	1.028
230.71	1.110
231.18	1.047
231.65	1.200
232.12	1.343
232.59	1.254
233.06	1.401
233.53	1.340
234.00	1.397
234.47	1.480
234.94	1.588
235.41	1.650
235.88	1.565
236.35	1.544
236.82	1.661
237.29	1.738
237.76	1.749
238.23	1.764
238.70	1.795
239.17	1.861
239.64	1.822
240.11	1.840
240.58	1.940
241.05	1.940
241.52	1.931
241.99	2.096
242.46	1.981
242.93	2.020
243.40	2.025
243.87	2.128
244.34	2.161
244.81	2.079
245.28	2.013
245.75	2.115
246.22	2.112
246.69	2.142
247.16	2.174
247.63	2.190
248.10	2.157
248.57	2.109
249.04	2.184
249.51	2.185
249.98	2.046
250.45	2.176
250.92	2.201
251.39	2.049
251.85	1.968
252.32	1.900
252.79	1.741
253.26	1.679
253.73	1.611
254.20	1.493
254.67	1.430
255.14	1.354
255.61	1.305
256.08	1.268
256.55	1.184
257.02	1.144
257.49	1.102
257.95	1.066
258.42	1.023
258.89	0.990
259.36	0.961
259.83	0.939
260.30	0.907
260.77	0.887
261.24	0.869
261.71	0.843
262.17	0.824
262.64	0.804
263.11	0.783
263.58	0.771
264.05	0.756
264.52	0.738
264.99	0.724
265.46	0.709
265.92	0.698
266.39	0.684
266.86	0.672
267.33	0.661
267.80	0.655
268.27	0.639
268.74	0.628
269.20	0.616
269.67	0.613
270.14	0.599
270.61	0.593
271.08	0.585
271.55	0.574
272.01	0.567
272.48	0.560
272.95	0.560
273.42	0.546
273.89	0.543
274.36	0.532
274.82	0.526
275.29	0.524
275.76	0.517
276.23	0.514
276.70	0.502
277.16	0.500
277.63	0.498
278.10	0.492
278.57	0.491
279.04	0.484
279.50	0.482
279.97	0.482
280.44	0.474
280.91	0.472
281.38	0.467
281.84	0.468
282.31	0.467
282.78	0.461
283.25	0.463
283.72	0.459
284.18	0.459
284.65	0.456
285.12	0.453
285.59	0.451
286.05	0.448
286.52	0.452
286.99	0.450
287.46	0.449
287.92	0.448
288.39	0.447
288.86	0.444
289.33	0.443
289.79	0.442
290.26	0.441
290.73	0.441
291.20	0.434
291.66	0.432
292.13	0.428
292.60	0.428
293.07	0.423
293.53	0.421
294.00	0.412
294.47	0.402
294.93	0.406
295.40	0.397
295.87	0.391
296.34	0.387
296.80	0.380
297.27	0.372
297.74	0.364
298.20	0.358
298.67	0.354
299.14	0.347
299.60	0.340
300.07	0.333
300.54	0.325
301.01	0.320
301.47	0.315
301.94	0.308
302.41	0.301
302.87	0.298
303.34	0.289
303.81	0.282
304.27	0.279
304.74	0.275
305.21	0.271
305.67	0.262
306.14	0.256
306.61	0.252
307.07	0.250
307.54	0.244
308.01	0.237
308.47	0.238
308.94	0.232
309.40	0.229
309.87	0.225
310.34	0.223
310.80	0.222
311.27	0.218
311.74	0.215
312.20	0.211
312.67	0.212
313.13	0.210
313.60	0.207
314.07	0.206
314.53	0.203
315.00	0.203
315.47	0.201
315.93	0.197
316.40	0.198
316.86	0.196
317.33	0.196
317.80	0.190
318.26	0.191
318.73	0.192
319.19	0.187
319.66	0.188
320.13	0.184
320.59	0.184
321.06	0.181
321.52	0.182
321.99	0.181
322.45	0.180
322.92	0.178
323.39	0.178
323.85	0.175
324.32	0.176
324.78	0.173
325.25	0.172
325.71	0.170
326.18	0.169
326.64	0.165
327.11	0.166
327.58	0.166
328.04	0.165
328.51	0.162
328.97	0.163
329.44	0.160
329.90	0.162
330.37	0.157
330.83	0.158
331.30	0.156
331.76	0.153
332.23	0.153
332.69	0.151
333.16	0.152
333.62	0.150
334.09	0.147
334.56	0.149
335.02	0.144
335.49	0.142
335.95	0.140
336.42	0.136
336.88	0.139
337.35	0.134
337.81	0.137
338.28	0.133
338.74	0.135
339.20	0.134
339.67	0.134
340.13	0.131
340.60	0.132
341.06	0.128
341.53	0.128
341.99	0.127
342.46	0.125
342.92	0.124
343.39	0.125
343.85	0.123
344.32	0.120
344.78	0.121
345.25	0.121
345.71	0.123
346.17	0.122
346.64	0.121
347.10	0.122
347.57	0.116
348.03	0.118
348.50	0.115
348.96	0.112
349.43	0.115
349.89	0.111
350.35	0.115
350.82	0.113
351.28	0.115
351.75	0.114
352.21	0.115
352.67	0.108
353.14	0.107
353.60	0.108
354.07	0.107
354.53	0.107
355.00	0.104
355.46	0.105
355.92	0.102
356.39	0.107
356.85	0.098
357.31	0.100
357.78	0.103
358.24	0.101
358.71	0.099
359.17	0.097
359.63	0.095
360.10	0.094
360.56	0.096
361.03	0.092
361.49	0.092
361.95	0.093
362.42	0.089
362.88	0.089
363.34	0.087
363.81	0.089
364.27	0.085
364.73	0.086
365.20	0.084
365.66	0.085
366.12	0.084
366.59	0.082
367.05	0.081
367.51	0.080
367.98	0.079
368.44	0.082
368.90	0.077
369.37	0.081
369.83	0.076
370.29	0.079
370.76	0.079
371.22	0.077
371.68	0.076
372.15	0.077
372.61	0.079
373.07	0.076
373.54	0.079
374.00	0.076
374.46	0.078
374.92	0.075
375.39	0.074
375.85	0.076
376.31	0.076
376.78	0.075
377.24	0.073
377.70	0.075
378.16	0.074
378.63	0.070
379.09	0.073
379.55	0.075
380.01	0.072
380.48	0.073
380.94	0.073
381.40	0.075
381.87	0.072
382.33	0.072
382.79	0.073
383.25	0.071
383.72	0.073
384.18	0.069
384.64	0.070
385.10	0.070
385.56	0.071
386.03	0.069
386.49	0.070
386.95	0.070
387.41	0.069
387.88	0.069
388.34	0.071
388.80	0.068
389.26	0.069
389.72	0.069
390.19	0.070
390.65	0.069
391.11	0.068
391.57	0.068
392.04	0.066
392.50	0.066
392.96	0.067
393.42	0.068
393.88	0.072
394.34	0.069
394.81	0.067
395.27	0.063
395.73	0.066
396.19	0.067
396.65	0.069
397.12	0.066
397.58	0.062
398.04	0.065
398.50	0.066
398.96	0.066
399.42	0.063
399.89	0.063
400.35	0.065
400.81	0.066
401.27	0.066
401.73	0.062
402.19	0.065
402.65	0.066
403.12	0.063
403.58	0.064
404.04	0.061
404.50	0.063
404.96	0.062
405.42	0.062
405.88	0.062
406.34	0.062
406.81	0.060
407.27	0.060
407.73	0.060
408.19	0.057
408.65	0.060
409.11	0.062
409.57	0.058
410.03	0.062
410.49	0.059
410.96	0.060
411.42	0.059
411.88	0.057
412.34	0.055
412.80	0.059
413.26	0.058
413.72	0.055
414.18	0.059
414.64	0.059
415.10	0.056
415.56	0.057
416.02	0.055
416.48	0.054
416.95	0.057
417.41	0.058
417.87	0.054
418.33	0.055
418.79	0.059
419.25	0.056
419.71	0.055
420.17	0.055
420.63	0.055
421.09	0.055
421.55	0.057
422.01	0.054
422.47	0.056
422.93	0.055
423.39	0.057
423.85	0.056
424.31	0.054
424.77	0.055
425.23	0.057
425.69	0.054
426.15	0.055
426.61	0.054
427.07	0.053
427.53	0.053
427.99	0.056
428.45	0.055
428.91	0.054
429.37	0.056
429.83	0.053
430.29	0.056
430.75	0.052
431.21	0.051
431.67	0.057
432.13	0.053
432.59	0.052
433.05	0.049
433.51	0.052
433.97	0.054
434.43	0.051
434.89	0.054
435.35	0.054
435.81	0.051
436.27	0.051
436.73	0.052
437.19	0.054
437.65	0.052
438.11	0.052
438.57	0.054
439.03	0.050
439.48	0.051
439.94	0.050
440.40	0.049
440.86	0.054
441.32	0.051
441.78	0.052
442.24	0.049
442.70	0.048
443.16	0.050
443.62	0.051
444.08	0.052
444.54	0.051
444.99	0.051
445.45	0.052
445.91	0.051
446.37	0.053
446.83	0.051
447.29	0.053
447.75	0.051
448.21	0.051
448.67	0.050
449.12	0.047
449.58	0.049
450.04	0.047
450.50	0.048
450.96	0.045
451.42	0.051
451.88	0.052
452.34	0.051
452.79	0.049
453.25	0.051
453.71	0.049
454.17	0.049
454.63	0.052
455.09	0.050
455.55	0.049
456.00	0.048
456.46	0.049
456.92	0.050
457.38	0.052
457.84	0.048
458.30	0.050
458.75	0.047
459.21	0.049
459.67	0.048
460.13	0.049
460.59	0.052
461.04	0.047
461.50	0.048
461.96	0.048
462.42	0.050
462.88	0.047
463.33	0.048
463.79	0.051
464.25	0.049
464.71	0.049
465.17	0.050
465.62	0.049
466.08	0.049
466.54	0.049
467.00	0.050
467.46	0.051
467.91	0.050
468.37	0.050
468.83	0.051
469.29	0.050
469.74	0.050
470.20	0.049
470.66	0.049
471.12	0.052
471.57	0.050
472.03	0.050
472.49	0.050
472.95	0.050
473.40	0.049
473.86	0.049
474.32	0.048
474.78	0.049
475.23	0.049
475.69	0.049
476.15	0.052
476.60	0.049
477.06	0.048
477.52	0.048
477.98	0.050
478.43	0.052
478.89	0.053
479.35	0.050
479.80	0.051
480.26	0.049
480.72	0.049
481.18	0.049
481.63	0.049
482.09	0.049
482.55	0.050
483.00	0.049
483.46	0.048
483.92	0.050
484.37	0.050
484.83	0.050
485.29	0.052
485.74	0.052
486.20	0.050
486.66	0.048
487.11	0.049
487.57	0.051
488.03	0.051
488.48	0.050
488.94	0.051
489.40	0.052
489.85	0.051
490.31	0.049
490.77	0.053
491.22	0.049
491.68	0.051
492.13	0.052
492.59	0.052
493.05	0.051
493.50	0.049
493.96	0.048
494.42	0.050
494.87	0.051
495.33	0.051
495.78	0.048
496.24	0.049
496.70	0.051
497.15	0.050
497.61	0.049
498.06	0.051
498.52	0.049
498.98	0.050
499.43	0.049
499.89	0.049
500.34	0.048
500.80	0.051
501.25	0.051
501.71	0.049
502.17	0.049
502.62	0.049
503.08	0.047
503.53	0.050
503.99	0.051
504.44	0.050
504.90	0.049
505.36	0.047
505.81	0.048
506.27	0.048
506.72	0.050
507.18	0.049
507.63	0.048
508.09	0.051
508.54	0.048
509.00	0.050
509.45	0.050
509.91	0.051
510.36	0.050
510.82	0.051
511.27	0.049
511.73	0.049
512.19	0.048
512.64	0.050
513.10	0.050
513.55	0.048
514.01	0.047
514.46	0.047
514.92	0.050
515.37	0.049
515.83	0.047
516.28	0.048
516.73	0.047
517.19	0.047
517.64	0.046
518.10	0.049
518.55	0.049
519.01	0.047
519.46	0.047
519.92	0.049
520.37	0.050
520.83	0.048
521.28	0.048
521.74	0.049
522.19	0.049
522.65	0.050
523.10	0.050
523.55	0.048
524.01	0.049
524.46	0.049
524.92	0.049
525.37	0.049
525.83	0.049
526.28	0.048
526.73	0.049
527.19	0.052
527.64	0.051
528.10	0.050
528.55	0.048
529.01	0.049
529.46	0.051
529.91	0.048
530.37	0.049
530.82	0.050
531.28	0.050
531.73	0.050
532.18	0.051
532.64	0.051
533.09	0.050
533.54	0.050
534.00	0.049
534.45	0.051
534.91	0.049
535.36	0.051
535.81	0.050
536.27	0.052
536.72	0.048
537.17	0.051
537.63	0.052
538.08	0.051
538.54	0.051
538.99	0.052
539.44	0.054
539.90	0.052
540.35	0.053
540.80	0.051
541.26	0.054
541.71	0.053
542.16	0.052
542.62	0.053
543.07	0.053
543.52	0.054
543.98	0.054
544.43	0.054
544.88	0.053
545.34	0.056
545.79	0.056
546.24	0.055
546.69	0.054
547.15	0.055
547.60	0.059
548.05	0.055
548.51	0.055
548.96	0.057
549.41	0.059
549.86	0.058
550.32	0.057
550.77	0.057
551.22	0.061
551.68	0.058
552.13	0.059
552.58	0.059
553.03	0.060
553.49	0.061
553.94	0.060
554.39	0.062
554.84	0.064
555.30	0.061
555.75	0.061
556.20	0.062
556.65	0.064
557.11	0.066
557.56	0.068
558.01	0.064
558.46	0.065
558.92	0.066
559.37	0.064
559.82	0.067
560.27	0.067
560.72	0.066
561.18	0.066
561.63	0.069
562.08	0.069
562.53	0.068
562.99	0.068
563.44	0.069
563.89	0.070
564.34	0.071
564.79	0.071
565.25	0.072
565.70	0.071
566.15	0.073
566.60	0.074
567.05	0.074
567.50	0.076
567.96	0.076
568.41	0.078
568.86	0.077
569.31	0.077
569.76	0.077
570.21	0.078
570.67	0.076
571.12	0.080
571.57	0.079
572.02	0.081
572.47	0.082
572.92	0.082
573.37	0.081
573.83	0.085
574.28	0.085
574.73	0.083
575.18	0.085
575.63	0.087
576.08	0.087
576.53	0.087
576.98	0.087
577.44	0.089
577.89	0.089
578.34	0.089
578.79	0.092
579.24	0.092
579.69	0.094
580.14	0.094
580.59	0.093
581.04	0.096
581.49	0.097
581.95	0.100
582.40	0.098
582.85	0.099
583.30	0.100
583.75	0.102
584.20	0.102
584.65	0.101
585.10	0.103
585.55	0.105
586.00	0.108
586.45	0.108
586.90	0.110
587.35	0.111
587.80	0.112
588.25	0.112
588.71	0.113
589.16	0.115
589.61	0.116
590.06	0.119
590.51	0.119
590.96	0.119
591.41	0.125
591.86	0.124
592.31	0.127
592.76	0.127
593.21	0.128
593.66	0.129
594.11	0.133
594.56	0.131
595.01	0.135
595.46	0.137
595.91	0.137
596.36	0.140
596.81	0.141
597.26	0.142
597.71	0.146
598.16	0.143
598.61	0.148
599.06	0.148
599.51	0.146
599.96	0.151
600.41	0.151
600.86	0.154
601.31	0.153
601.76	0.156
602.21	0.156
602.65	0.159
603.10	0.160
603.55	0.162
604.00	0.165
604.45	0.164
604.90	0.166
605.35	0.167
605.80	0.167
606.25	0.167
606.70	0.170
607.15	0.172
607.60	0.172
608.05	0.171
608.50	0.174
608.95	0.177
609.39	0.176
609.84	0.178
610.29	0.177
610.74	0.180
611.19	0.180
611.64	0.180
612.09	0.183
612.54	0.183
612.99	0.183
613.44	0.185
613.88	0.186
614.33	0.184
614.78	0.187
615.23	0.186
615.68	0.189
616.13	0.188
616.58	0.190
617.03	0.188
617.47	0.190
617.92	0.192
618.37	0.190
618.82	0.192
619.27	0.190
619.72	0.191
620.17	0.193
620.61	0.193
621.06	0.196
621.51	0.195
621.96	0.194
622.41	0.196
622.86	0.194
623.30	0.198
623.75	0.197
624.20	0.200
624.65	0.200
625.10	0.199
625.54	0.202
625.99	0.205
626.44	0.202
626.89	0.203
627.34	0.204
627.78	0.206
628.23	0.206
628.68	0.206
629.13	0.208
629.58	0.207
630.02	0.210
630.47	0.212
630.92	0.212
631.37	0.215
631.81	0.215
632.26	0.216
632.71	0.220
633.16	0.219
633.61	0.223
634.05	0.221
634.50	0.225
634.95	0.224
635.40	0.225
635.84	0.231
636.29	0.230
636.74	0.232
637.18	0.235
637.63	0.235
638.08	0.237
638.53	0.240
638.97	0.240
639.42	0.245
639.87	0.247
640.32	0.248
640.76	0.250
641.21	0.251
641.66	0.254
642.10	0.257
642.55	0.257
643.00	0.261
643.44	0.261
643.89	0.266
644.34	0.269
644.79	0.269
645.23	0.270
645.68	0.274
646.13	0.276
646.57	0.279
647.02	0.281
647.47	0.281
647.91	0.283
648.36	0.288
648.81	0.289
649.25	0.292
649.70	0.293
650.15	0.295
650.59	0.296
651.04	0.301
651.48	0.300
651.93	0.305
652.38	0.306
652.82	0.307
653.27	0.308
653.72	0.312
654.16	0.313
654.61	0.314
655.06	0.316
655.50	0.316
655.95	0.317
656.39	0.317
656.84	0.319
657.29	0.322
657.73	0.323
658.18	0.325
658.62	0.328
659.07	0.328
659.52	0.327
659.96	0.331
660.41	0.328
660.85	0.326
661.30	0.329
661.74	0.332
662.19	0.331
662.64	0.328
663.08	0.328
663.53	0.331
663.97	0.331
664.42	0.330
664.86	0.329
665.31	0.331
665.75	0.330
666.20	0.328
666.65	0.327
667.09	0.324
667.54	0.322
667.98	0.324
668.43	0.322
668.87	0.320
669.32	0.316
669.76	0.315
670.21	0.310
670.65	0.307
671.10	0.305
671.54	0.300
671.99	0.298
672.43	0.291
672.88	0.287
673.32	0.285
673.77	0.279
674.21	0.278
674.66	0.273
675.10	0.266
675.55	0.262
675.99	0.258
676.44	0.256
676.88	0.247
677.33	0.239
677.77	0.232
678.22	0.228
678.66	0.224
679.11	0.217
679.55	0.215
679.99	0.206
680.44	0.198
680.88	0.193
681.33	0.187
681.77	0.182
682.22	0.176
682.66	0.170
683.11	0.164
683.55	0.160
683.99	0.155
684.44	0.148
684.88	0.144
685.33	0.138
685.77	0.134
686.21	0.130
686.66	0.125
687.10	0.120
687.55	0.116
687.99	0.114
688.44	0.108
688.88	0.105
689.32	0.102
689.77	0.097
690.21	0.092
690.65	0.089
691.10	0.086
691.54	0.083
691.99	0.080
692.43	0.077
692.87	0.076
693.32	0.072
693.76	0.073
694.20	0.069
694.65	0.067
695.09	0.064
695.53	0.062
695.98	0.063
696.42	0.059
696.86	0.055
697.31	0.055
697.75	0.054
698.19	0.050
698.64	0.053
699.08	0.049
699.52	0.048
699.97	0.048
700.41	0.048
700.85	0.046
701.30	0.045
701.74	0.041
702.18	0.043
702.63	0.041
703.07	0.040
703.51	0.040
703.96	0.037
704.40	0.038
704.84	0.038
705.28	0.038
705.73	0.036
706.17	0.034
706.61	0.035
707.06	0.033
707.50	0.033
707.94	0.030
708.38	0.032
708.83	0.034
709.27	0.032
709.71	0.032
710.15	0.029
710.60	0.031
711.04	0.030
711.48	0.031
711.92	0.032
712.37	0.031
712.81	0.030
713.25	0.027
713.69	0.030
714.13	0.027
714.58	0.028
715.02	0.027
715.46	0.028
715.90	0.027
716.35	0.026
716.79	0.029
717.23	0.027
717.67	0.026
718.11	0.025
718.56	0.028
719.00	0.027
719.44	0.027
719.88	0.029
720.32	0.027
720.76	0.026
721.21	0.029
721.65	0.028
722.09	0.026
722.53	0.030
722.97	0.030
723.41	0.028
723.86	0.027
724.30	0.026
724.74	0.027
725.18	0.026
725.62	0.025
726.06	0.028
726.50	0.027
726.95	0.029
727.39	0.028
727.83	0.028
728.27	0.027
728.71	0.026
729.15	0.026
729.59	0.030
730.03	0.029
730.48	0.028
730.92	0.029
731.36	0.027
731.80	0.029
732.24	0.026
732.68	0.030
733.12	0.030
733.56	0.028
734.00	0.031
734.44	0.032
734.89	0.030
735.33	0.031
735.77	0.031
736.21	0.031
736.65	0.031
737.09	0.029
737.53	0.031
737.97	0.034
738.41	0.030
738.85	0.030
739.29	0.030
739.73	0.031
740.17	0.031
740.61	0.033
741.05	0.033
741.49	0.030
741.93	0.032
742.37	0.030
742.81	0.031
743.26	0.033
743.70	0.031
744.14	0.032
744.58	0.029
745.02	0.031
745.46	0.029
745.90	0.031
746.34	0.032
746.78	0.034
747.22	0.032
747.66	0.031
748.10	0.031
748.54	0.035
748.98	0.031
749.42	0.032
749.86	0.032
750.29	0.032
750.73	0.030
751.17	0.030
751.61	0.032
752.05	0.032
752.49	0.031
752.93	0.032
753.37	0.031
753.81	0.033
754.25	0.030
754.69	0.029
755.13	0.032
755.57	0.031
756.01	0.031
756.45	0.029
756.89	0.030
757.33	0.033
757.77	0.030
758.21	0.030
758.64	0.032
759.08	0.031
759.52	0.028
759.96	0.031
760.40	0.030
760.84	0.030
761.28	0.032
761.72	0.031
762.16	0.029
762.60	0.031
763.03	0.031
763.47	0.030
763.91	0.028
764.35	0.027
764.79	0.030
765.23	0.028
765.67	0.028
766.11	0.034
766.54	0.030
766.98	0.028
767.42	0.029
767.86	0.030
768.30	0.032
768.74	0.029
769.17	0.032
769.61	0.032
770.05	0.030
770.49	0.028
770.93	0.031
771.37	0.029
771.80	0.029
772.24	0.030
772.68	0.030
773.12	0.028
773.56	0.031
774.00	0.028
774.43	0.031
774.87	0.029
775.31	0.029
775.75	0.031
776.19	0.031
776.62	0.032
777.06	0.030
777.50	0.031
777.94	0.030
778.37	0.030
778.81	0.033
779.25	0.032
779.69	0.027
780.13	0.028
780.56	0.028
781.00	0.034
781.44	0.031
781.88	0.032
782.31	0.032
782.75	0.032
783.19	0.029
783.63	0.033
784.06	0.028
784.50	0.032
784.94	0.032
785.37	0.031
785.81	0.031
786.25	0.028
786.69	0.029
787.12	0.029
787.56	0.034
788.00	0.027
788.43	0.027
788.87	0.031
789.31	0.026
789.75	0.032
790.18	0.030
790.62	0.031
791.06	0.031
791.49	0.034
791.93	0.030
792.37	0.024
792.80	0.030
793.24	0.031
793.68	0.027
794.11	0.032
794.55	0.028
794.99	0.031
795.42	0.028
795.86	0.029
796.30	0.029
796.73	0.030
797.17	0.031
797.61	0.027
798.04	0.025
798.48	0.029
798.91	0.025
799.35	0.028
799.79	0.031
800.22	0.031
800.66	0.028
801.10	0.033
801.53	0.026
801.97	0.028
802.40	0.027
802.84	0.030
803.28	0.029
803.71	0.028
804.15	0.032
804.58	0.028
805.02	0.030
805.46	0.029
805.89	0.031
806.33	0.032
806.76	0.026
807.20	0.029
807.63	0.028
808.07	0.031
808.51	0.025
808.94	0.028
809.38	0.030
809.81	0.027
810.25	0.030
810.68	0.032
811.12	0.031
811.55	0.029
811.99	0.030
812.42	0.028
812.86	0.029
813.29	0.027
813.73	0.029
814.17	0.031
814.60	0.025
815.04	0.027
815.47	0.028
815.91	0.028
816.34	0.032
816.78	0.028
817.21	0.028
817.65	0.028
818.08	0.031
