SpectraSuite Data File
++++++++++++++++++++++++++++++++++++
Date: Tue Jul 11 16:33:02 CEST 2017
User: IPCE
Dark Spectrum Present: Yes
Reference Spectrum Present: Yes
Number of Sampled Component Spectra: 1
Spectrometers: HR+C0708
Integration Time (usec): 1000 (HR+C0708)
Spectra Averaged: 10 (HR+C0708)
Boxcar Smoothing: 0 (HR+C0708)
Correct for Electrical Dark: No (HR+C0708)
Strobe/Lamp Enabled: No (HR+C0708)
Correct for Detector Non-linearity: No (HR+C0708)
Correct for Stray Light: No (HR+C0708)
Number of Pixels in Processed Spectrum: 2048
>>>>>Begin Processed Spectral Data<<<<<
188.76	-0.000
189.23	-0.116
189.70	0.117
190.17	-0.027
190.64	1.146
191.12	0.402
191.59	0.203
192.06	-0.000
192.53	0.176
193.01	0.405
193.48	-0.503
193.95	0.175
194.42	0.006
194.90	0.083
195.37	0.048
195.84	0.090
196.31	1.522
196.78	0.196
197.26	0.313
197.73	0.241
198.20	0.161
198.67	-0.046
199.14	0.003
199.62	0.187
200.09	0.342
200.56	0.203
201.03	0.186
201.50	0.286
201.97	0.144
202.45	0.318
202.92	0.414
203.39	0.266
203.86	0.522
204.33	0.263
204.80	0.230
205.28	0.414
205.75	0.327
206.22	0.321
206.69	0.371
207.16	0.150
207.63	0.197
208.11	0.280
208.58	0.259
209.05	0.217
209.52	0.334
209.99	0.300
210.46	0.288
210.93	0.290
211.41	0.225
211.88	0.275
212.35	0.252
212.82	0.257
213.29	0.338
213.76	0.262
214.23	0.277
214.70	0.233
215.18	0.174
215.65	0.251
216.12	0.277
216.59	0.250
217.06	0.449
217.53	0.300
218.00	0.292
218.47	0.452
218.94	0.258
219.41	0.288
219.89	0.381
220.36	0.364
220.83	0.346
221.30	0.349
221.77	0.342
222.24	0.375
222.71	0.337
223.18	0.302
223.65	0.453
224.12	0.328
224.59	0.495
225.06	0.498
225.54	0.521
226.01	0.539
226.48	0.652
226.95	0.599
227.42	0.790
227.89	0.705
228.36	0.841
228.83	0.880
229.30	0.766
229.77	0.903
230.24	1.186
230.71	1.092
231.18	1.053
231.65	1.222
232.12	1.343
232.59	1.221
233.06	1.335
233.53	1.381
234.00	1.389
234.47	1.497
234.94	1.586
235.41	1.574
235.88	1.599
236.35	1.514
236.82	1.637
237.29	1.691
237.76	1.706
238.23	1.777
238.70	1.752
239.17	1.849
239.64	1.838
240.11	1.868
240.58	1.974
241.05	1.963
241.52	1.987
241.99	1.998
242.46	1.930
242.93	1.995
243.40	2.077
243.87	2.089
244.34	2.136
244.81	2.217
245.28	2.073
245.75	2.193
246.22	2.189
246.69	2.161
247.16	2.285
247.63	2.093
248.10	2.094
248.57	2.092
249.04	2.149
249.51	2.241
249.98	2.107
250.45	2.238
250.92	2.125
251.39	2.069
251.85	1.925
252.32	1.840
252.79	1.755
253.26	1.685
253.73	1.605
254.20	1.515
254.67	1.427
255.14	1.368
255.61	1.310
256.08	1.260
256.55	1.201
257.02	1.156
257.49	1.118
257.95	1.067
258.42	1.039
258.89	1.003
259.36	0.968
259.83	0.945
260.30	0.919
260.77	0.892
261.24	0.873
261.71	0.855
262.17	0.827
262.64	0.820
263.11	0.796
263.58	0.778
264.05	0.760
264.52	0.747
264.99	0.731
265.46	0.722
265.92	0.706
266.39	0.695
266.86	0.683
267.33	0.670
267.80	0.661
268.27	0.648
268.74	0.639
269.20	0.632
269.67	0.620
270.14	0.611
270.61	0.600
271.08	0.590
271.55	0.584
272.01	0.577
272.48	0.570
272.95	0.563
273.42	0.557
273.89	0.546
274.36	0.543
274.82	0.537
275.29	0.532
275.76	0.527
276.23	0.521
276.70	0.516
277.16	0.510
277.63	0.507
278.10	0.502
278.57	0.502
279.04	0.495
279.50	0.490
279.97	0.489
280.44	0.487
280.91	0.484
281.38	0.479
281.84	0.480
282.31	0.477
282.78	0.479
283.25	0.472
283.72	0.472
284.18	0.471
284.65	0.470
285.12	0.466
285.59	0.465
286.05	0.462
286.52	0.465
286.99	0.461
287.46	0.463
287.92	0.458
288.39	0.459
288.86	0.459
289.33	0.458
289.79	0.457
290.26	0.453
290.73	0.448
291.20	0.448
291.66	0.447
292.13	0.439
292.60	0.437
293.07	0.433
293.53	0.429
294.00	0.425
294.47	0.420
294.93	0.417
295.40	0.408
295.87	0.402
296.34	0.397
296.80	0.389
297.27	0.382
297.74	0.380
298.20	0.371
298.67	0.368
299.14	0.359
299.60	0.351
300.07	0.344
300.54	0.336
301.01	0.331
301.47	0.324
301.94	0.318
302.41	0.311
302.87	0.307
303.34	0.300
303.81	0.293
304.27	0.286
304.74	0.283
305.21	0.279
305.67	0.273
306.14	0.266
306.61	0.263
307.07	0.258
307.54	0.253
308.01	0.249
308.47	0.244
308.94	0.241
309.40	0.236
309.87	0.234
310.34	0.233
310.80	0.231
311.27	0.227
311.74	0.221
312.20	0.219
312.67	0.220
313.13	0.218
313.60	0.215
314.07	0.212
314.53	0.209
315.00	0.211
315.47	0.209
315.93	0.205
316.40	0.208
316.86	0.203
317.33	0.203
317.80	0.199
318.26	0.198
318.73	0.195
319.19	0.194
319.66	0.193
320.13	0.192
320.59	0.191
321.06	0.189
321.52	0.191
321.99	0.191
322.45	0.187
322.92	0.186
323.39	0.184
323.85	0.183
324.32	0.183
324.78	0.181
325.25	0.179
325.71	0.178
326.18	0.176
326.64	0.177
327.11	0.174
327.58	0.174
328.04	0.175
328.51	0.172
328.97	0.169
329.44	0.169
329.90	0.166
330.37	0.166
330.83	0.164
331.30	0.160
331.76	0.159
332.23	0.160
332.69	0.158
333.16	0.159
333.62	0.156
334.09	0.152
334.56	0.152
335.02	0.153
335.49	0.149
335.95	0.146
336.42	0.142
336.88	0.143
337.35	0.142
337.81	0.143
338.28	0.138
338.74	0.142
339.20	0.138
339.67	0.140
340.13	0.138
340.60	0.139
341.06	0.134
341.53	0.133
341.99	0.135
342.46	0.134
342.92	0.132
343.39	0.130
343.85	0.126
344.32	0.126
344.78	0.126
345.25	0.125
345.71	0.128
346.17	0.124
346.64	0.125
347.10	0.125
347.57	0.122
348.03	0.122
348.50	0.119
348.96	0.116
349.43	0.120
349.89	0.120
350.35	0.117
350.82	0.116
351.28	0.117
351.75	0.119
352.21	0.118
352.67	0.112
353.14	0.116
353.60	0.112
354.07	0.111
354.53	0.111
355.00	0.110
355.46	0.108
355.92	0.112
356.39	0.111
356.85	0.105
357.31	0.105
357.78	0.107
358.24	0.103
358.71	0.101
359.17	0.100
359.63	0.099
360.10	0.101
360.56	0.100
361.03	0.094
361.49	0.097
361.95	0.095
362.42	0.091
362.88	0.093
363.34	0.091
363.81	0.091
364.27	0.088
364.73	0.086
365.20	0.085
365.66	0.088
366.12	0.083
366.59	0.085
367.05	0.087
367.51	0.083
367.98	0.080
368.44	0.083
368.90	0.081
369.37	0.082
369.83	0.080
370.29	0.081
370.76	0.080
371.22	0.078
371.68	0.077
372.15	0.078
372.61	0.076
373.07	0.077
373.54	0.079
374.00	0.076
374.46	0.079
374.92	0.074
375.39	0.077
375.85	0.076
376.31	0.073
376.78	0.076
377.24	0.074
377.70	0.074
378.16	0.074
378.63	0.071
379.09	0.071
379.55	0.075
380.01	0.074
380.48	0.074
380.94	0.076
381.40	0.071
381.87	0.072
382.33	0.071
382.79	0.073
383.25	0.071
383.72	0.072
384.18	0.072
384.64	0.071
385.10	0.072
385.56	0.073
386.03	0.071
386.49	0.070
386.95	0.070
387.41	0.070
387.88	0.070
388.34	0.071
388.80	0.069
389.26	0.070
389.72	0.068
390.19	0.070
390.65	0.069
391.11	0.071
391.57	0.069
392.04	0.069
392.50	0.067
392.96	0.067
393.42	0.068
393.88	0.071
394.34	0.068
394.81	0.068
395.27	0.062
395.73	0.065
396.19	0.069
396.65	0.068
397.12	0.065
397.58	0.066
398.04	0.067
398.50	0.066
398.96	0.065
399.42	0.065
399.89	0.066
400.35	0.064
400.81	0.066
401.27	0.069
401.73	0.064
402.19	0.062
402.65	0.062
403.12	0.064
403.58	0.063
404.04	0.062
404.50	0.063
404.96	0.064
405.42	0.063
405.88	0.061
406.34	0.061
406.81	0.062
407.27	0.061
407.73	0.060
408.19	0.057
408.65	0.062
409.11	0.063
409.57	0.061
410.03	0.060
410.49	0.060
410.96	0.057
411.42	0.058
411.88	0.058
412.34	0.057
412.80	0.059
413.26	0.059
413.72	0.057
414.18	0.060
414.64	0.058
415.10	0.058
415.56	0.059
416.02	0.055
416.48	0.057
416.95	0.056
417.41	0.058
417.87	0.056
418.33	0.057
418.79	0.057
419.25	0.057
419.71	0.056
420.17	0.056
420.63	0.054
421.09	0.057
421.55	0.058
422.01	0.053
422.47	0.056
422.93	0.056
423.39	0.057
423.85	0.056
424.31	0.054
424.77	0.055
425.23	0.054
425.69	0.057
426.15	0.057
426.61	0.056
427.07	0.056
427.53	0.056
427.99	0.055
428.45	0.055
428.91	0.051
429.37	0.057
429.83	0.053
430.29	0.057
430.75	0.054
431.21	0.053
431.67	0.055
432.13	0.053
432.59	0.053
433.05	0.053
433.51	0.053
433.97	0.056
434.43	0.052
434.89	0.053
435.35	0.053
435.81	0.049
436.27	0.051
436.73	0.051
437.19	0.052
437.65	0.052
438.11	0.053
438.57	0.053
439.03	0.050
439.48	0.052
439.94	0.052
440.40	0.051
440.86	0.053
441.32	0.050
441.78	0.052
442.24	0.049
442.70	0.052
443.16	0.052
443.62	0.050
444.08	0.052
444.54	0.053
444.99	0.052
445.45	0.052
445.91	0.049
446.37	0.051
446.83	0.050
447.29	0.049
447.75	0.050
448.21	0.051
448.67	0.049
449.12	0.049
449.58	0.049
450.04	0.048
450.50	0.047
450.96	0.048
451.42	0.052
451.88	0.050
452.34	0.050
452.79	0.049
453.25	0.051
453.71	0.051
454.17	0.049
454.63	0.052
455.09	0.050
455.55	0.048
456.00	0.050
456.46	0.047
456.92	0.050
457.38	0.054
457.84	0.045
458.30	0.051
458.75	0.048
459.21	0.048
459.67	0.050
460.13	0.051
460.59	0.052
461.04	0.047
461.50	0.049
461.96	0.049
462.42	0.050
462.88	0.049
463.33	0.049
463.79	0.051
464.25	0.049
464.71	0.050
465.17	0.050
465.62	0.050
466.08	0.049
466.54	0.049
467.00	0.051
467.46	0.051
467.91	0.051
468.37	0.050
468.83	0.050
469.29	0.050
469.74	0.049
470.20	0.051
470.66	0.050
471.12	0.051
471.57	0.052
472.03	0.049
472.49	0.051
472.95	0.050
473.40	0.050
473.86	0.050
474.32	0.050
474.78	0.049
475.23	0.050
475.69	0.050
476.15	0.052
476.60	0.052
477.06	0.050
477.52	0.048
477.98	0.051
478.43	0.053
478.89	0.051
479.35	0.051
479.80	0.049
480.26	0.049
480.72	0.050
481.18	0.050
481.63	0.051
482.09	0.049
482.55	0.050
483.00	0.052
483.46	0.050
483.92	0.051
484.37	0.052
484.83	0.050
485.29	0.052
485.74	0.051
486.20	0.050
486.66	0.051
487.11	0.052
487.57	0.052
488.03	0.052
488.48	0.050
488.94	0.052
489.40	0.051
489.85	0.050
490.31	0.048
490.77	0.053
491.22	0.050
491.68	0.052
492.13	0.051
492.59	0.051
493.05	0.051
493.50	0.051
493.96	0.049
494.42	0.051
494.87	0.052
495.33	0.051
495.78	0.050
496.24	0.050
496.70	0.052
497.15	0.051
497.61	0.052
498.06	0.052
498.52	0.052
498.98	0.052
499.43	0.049
499.89	0.050
500.34	0.049
500.80	0.050
501.25	0.052
501.71	0.051
502.17	0.050
502.62	0.050
503.08	0.049
503.53	0.051
503.99	0.052
504.44	0.050
504.90	0.050
505.36	0.049
505.81	0.048
506.27	0.048
506.72	0.049
507.18	0.050
507.63	0.050
508.09	0.050
508.54	0.049
509.00	0.049
509.45	0.050
509.91	0.051
510.36	0.049
510.82	0.051
511.27	0.049
511.73	0.051
512.19	0.047
512.64	0.052
513.10	0.051
513.55	0.049
514.01	0.048
514.46	0.049
514.92	0.050
515.37	0.048
515.83	0.049
516.28	0.049
516.73	0.050
517.19	0.048
517.64	0.047
518.10	0.050
518.55	0.047
519.01	0.046
519.46	0.046
519.92	0.049
520.37	0.050
520.83	0.050
521.28	0.049
521.74	0.047
522.19	0.048
522.65	0.047
523.10	0.049
523.55	0.048
524.01	0.050
524.46	0.049
524.92	0.048
525.37	0.049
525.83	0.051
526.28	0.050
526.73	0.051
527.19	0.050
527.64	0.053
528.10	0.049
528.55	0.052
529.01	0.049
529.46	0.052
529.91	0.049
530.37	0.050
530.82	0.050
531.28	0.053
531.73	0.052
532.18	0.053
532.64	0.049
533.09	0.051
533.54	0.049
534.00	0.049
534.45	0.052
534.91	0.049
535.36	0.052
535.81	0.051
536.27	0.054
536.72	0.049
537.17	0.052
537.63	0.054
538.08	0.053
538.54	0.051
538.99	0.052
539.44	0.056
539.90	0.053
540.35	0.052
540.80	0.052
541.26	0.053
541.71	0.054
542.16	0.054
542.62	0.054
543.07	0.055
543.52	0.054
543.98	0.054
544.43	0.055
544.88	0.055
545.34	0.057
545.79	0.056
546.24	0.056
546.69	0.055
547.15	0.054
547.60	0.061
548.05	0.058
548.51	0.058
548.96	0.055
549.41	0.059
549.86	0.062
550.32	0.058
550.77	0.059
551.22	0.061
551.68	0.061
552.13	0.060
552.58	0.061
553.03	0.060
553.49	0.061
553.94	0.060
554.39	0.061
554.84	0.064
555.30	0.062
555.75	0.063
556.20	0.065
556.65	0.066
557.11	0.065
557.56	0.067
558.01	0.066
558.46	0.067
558.92	0.066
559.37	0.067
559.82	0.068
560.27	0.070
560.72	0.068
561.18	0.069
561.63	0.071
562.08	0.070
562.53	0.068
562.99	0.069
563.44	0.071
563.89	0.070
564.34	0.073
564.79	0.073
565.25	0.075
565.70	0.075
566.15	0.074
566.60	0.075
567.05	0.077
567.50	0.078
567.96	0.077
568.41	0.080
568.86	0.078
569.31	0.080
569.76	0.079
570.21	0.079
570.67	0.078
571.12	0.081
571.57	0.083
572.02	0.082
572.47	0.085
572.92	0.083
573.37	0.083
573.83	0.086
574.28	0.086
574.73	0.086
575.18	0.088
575.63	0.089
576.08	0.089
576.53	0.089
576.98	0.089
577.44	0.091
577.89	0.090
578.34	0.092
578.79	0.094
579.24	0.094
579.69	0.095
580.14	0.096
580.59	0.097
581.04	0.099
581.49	0.100
581.95	0.101
582.40	0.102
582.85	0.101
583.30	0.103
583.75	0.105
584.20	0.106
584.65	0.106
585.10	0.106
585.55	0.108
586.00	0.111
586.45	0.112
586.90	0.112
587.35	0.112
587.80	0.115
588.25	0.114
588.71	0.116
589.16	0.118
589.61	0.121
590.06	0.122
590.51	0.122
590.96	0.124
591.41	0.127
591.86	0.127
592.31	0.129
592.76	0.130
593.21	0.133
593.66	0.133
594.11	0.134
594.56	0.136
595.01	0.138
595.46	0.140
595.91	0.139
596.36	0.142
596.81	0.144
597.26	0.146
597.71	0.148
598.16	0.148
598.61	0.149
599.06	0.152
599.51	0.152
599.96	0.155
600.41	0.156
600.86	0.158
601.31	0.157
601.76	0.160
602.21	0.161
602.65	0.164
603.10	0.163
603.55	0.167
604.00	0.168
604.45	0.167
604.90	0.169
605.35	0.174
605.80	0.172
606.25	0.173
606.70	0.175
607.15	0.177
607.60	0.176
608.05	0.176
608.50	0.180
608.95	0.182
609.39	0.183
609.84	0.184
610.29	0.181
610.74	0.186
611.19	0.185
611.64	0.187
612.09	0.189
612.54	0.188
612.99	0.189
613.44	0.190
613.88	0.193
614.33	0.192
614.78	0.194
615.23	0.192
615.68	0.194
616.13	0.195
616.58	0.195
617.03	0.194
617.47	0.194
617.92	0.198
618.37	0.197
618.82	0.196
619.27	0.198
619.72	0.199
620.17	0.199
620.61	0.198
621.06	0.202
621.51	0.202
621.96	0.202
622.41	0.203
622.86	0.200
623.30	0.204
623.75	0.202
624.20	0.205
624.65	0.206
625.10	0.205
625.54	0.207
625.99	0.208
626.44	0.208
626.89	0.208
627.34	0.210
627.78	0.213
628.23	0.212
628.68	0.214
629.13	0.215
629.58	0.213
630.02	0.218
630.47	0.219
630.92	0.219
631.37	0.223
631.81	0.222
632.26	0.222
632.71	0.225
633.16	0.225
633.61	0.227
634.05	0.230
634.50	0.231
634.95	0.231
635.40	0.231
635.84	0.237
636.29	0.238
636.74	0.239
637.18	0.242
637.63	0.242
638.08	0.245
638.53	0.245
638.97	0.248
639.42	0.251
639.87	0.251
640.32	0.255
640.76	0.257
641.21	0.258
641.66	0.261
642.10	0.264
642.55	0.266
643.00	0.268
643.44	0.270
643.89	0.271
644.34	0.276
644.79	0.278
645.23	0.281
645.68	0.282
646.13	0.285
646.57	0.287
647.02	0.289
647.47	0.291
647.91	0.293
648.36	0.299
648.81	0.299
649.25	0.303
649.70	0.303
650.15	0.304
650.59	0.308
651.04	0.311
651.48	0.310
651.93	0.314
652.38	0.316
652.82	0.318
653.27	0.320
653.72	0.321
654.16	0.323
654.61	0.324
655.06	0.327
655.50	0.326
655.95	0.327
656.39	0.329
656.84	0.331
657.29	0.334
657.73	0.334
658.18	0.334
658.62	0.338
659.07	0.339
659.52	0.339
659.96	0.338
660.41	0.339
660.85	0.337
661.30	0.339
661.74	0.343
662.19	0.341
662.64	0.341
663.08	0.341
663.53	0.344
663.97	0.341
664.42	0.341
664.86	0.341
665.31	0.340
665.75	0.341
666.20	0.340
666.65	0.337
667.09	0.337
667.54	0.334
667.98	0.335
668.43	0.333
668.87	0.331
669.32	0.329
669.76	0.326
670.21	0.325
670.65	0.320
671.10	0.316
671.54	0.311
671.99	0.310
672.43	0.305
672.88	0.299
673.32	0.295
673.77	0.289
674.21	0.288
674.66	0.282
675.10	0.276
675.55	0.274
675.99	0.269
676.44	0.263
676.88	0.256
677.33	0.251
677.77	0.240
678.22	0.238
678.66	0.232
679.11	0.223
679.55	0.219
679.99	0.214
680.44	0.208
680.88	0.201
681.33	0.195
681.77	0.188
682.22	0.182
682.66	0.177
683.11	0.172
683.55	0.167
683.99	0.159
684.44	0.155
684.88	0.150
685.33	0.141
685.77	0.139
686.21	0.137
686.66	0.131
687.10	0.124
687.55	0.120
687.99	0.119
688.44	0.114
688.88	0.108
689.32	0.107
689.77	0.102
690.21	0.096
690.65	0.094
691.10	0.087
691.54	0.086
691.99	0.085
692.43	0.079
692.87	0.078
693.32	0.075
693.76	0.074
694.20	0.071
694.65	0.069
695.09	0.067
695.53	0.065
695.98	0.065
696.42	0.058
696.86	0.058
697.31	0.057
697.75	0.056
698.19	0.053
698.64	0.051
699.08	0.050
699.52	0.048
699.97	0.048
700.41	0.049
700.85	0.045
701.30	0.046
701.74	0.041
702.18	0.043
702.63	0.040
703.07	0.041
703.51	0.040
703.96	0.038
704.40	0.039
704.84	0.037
705.28	0.038
705.73	0.035
706.17	0.033
706.61	0.035
707.06	0.035
707.50	0.034
707.94	0.033
708.38	0.031
708.83	0.034
709.27	0.032
709.71	0.032
710.15	0.030
710.60	0.033
711.04	0.031
711.48	0.029
711.92	0.031
712.37	0.031
712.81	0.031
713.25	0.026
713.69	0.032
714.13	0.028
714.58	0.028
715.02	0.025
715.46	0.027
715.90	0.027
716.35	0.027
716.79	0.029
717.23	0.028
717.67	0.028
718.11	0.026
718.56	0.026
719.00	0.026
719.44	0.026
719.88	0.030
720.32	0.028
720.76	0.026
721.21	0.027
721.65	0.028
722.09	0.030
722.53	0.028
722.97	0.027
723.41	0.027
723.86	0.027
724.30	0.027
724.74	0.028
725.18	0.030
725.62	0.026
726.06	0.030
726.50	0.028
726.95	0.026
727.39	0.026
727.83	0.027
728.27	0.025
728.71	0.024
729.15	0.028
729.59	0.029
730.03	0.029
730.48	0.028
730.92	0.028
731.36	0.027
731.80	0.029
732.24	0.029
732.68	0.031
733.12	0.030
733.56	0.028
734.00	0.032
734.44	0.032
734.89	0.029
735.33	0.031
735.77	0.030
736.21	0.032
736.65	0.031
737.09	0.031
737.53	0.032
737.97	0.031
738.41	0.033
738.85	0.032
739.29	0.030
739.73	0.031
740.17	0.032
740.61	0.034
741.05	0.034
741.49	0.029
741.93	0.030
742.37	0.031
742.81	0.033
743.26	0.032
743.70	0.032
744.14	0.029
744.58	0.032
745.02	0.031
745.46	0.029
745.90	0.030
746.34	0.030
746.78	0.035
747.22	0.033
747.66	0.031
748.10	0.031
748.54	0.033
748.98	0.030
749.42	0.033
749.86	0.031
750.29	0.033
750.73	0.032
751.17	0.029
751.61	0.031
752.05	0.031
752.49	0.032
752.93	0.032
753.37	0.034
753.81	0.034
754.25	0.029
754.69	0.029
755.13	0.033
755.57	0.030
756.01	0.032
756.45	0.030
756.89	0.030
757.33	0.033
757.77	0.030
758.21	0.032
758.64	0.033
759.08	0.030
759.52	0.032
759.96	0.034
760.40	0.031
760.84	0.030
761.28	0.031
761.72	0.028
762.16	0.032
762.60	0.030
763.03	0.031
763.47	0.028
763.91	0.026
764.35	0.030
764.79	0.032
765.23	0.032
765.67	0.027
766.11	0.031
766.54	0.029
766.98	0.031
767.42	0.031
767.86	0.035
768.30	0.032
768.74	0.029
769.17	0.033
769.61	0.029
770.05	0.029
770.49	0.031
770.93	0.029
771.37	0.027
771.80	0.031
772.24	0.029
772.68	0.031
773.12	0.033
773.56	0.031
774.00	0.030
774.43	0.030
774.87	0.030
775.31	0.032
775.75	0.033
776.19	0.029
776.62	0.033
777.06	0.028
777.50	0.030
777.94	0.030
778.37	0.030
778.81	0.030
779.25	0.030
779.69	0.029
780.13	0.031
780.56	0.028
781.00	0.032
781.44	0.032
781.88	0.032
782.31	0.033
782.75	0.030
783.19	0.031
783.63	0.034
784.06	0.030
784.50	0.030
784.94	0.030
785.37	0.029
785.81	0.031
786.25	0.027
786.69	0.029
787.12	0.032
787.56	0.032
788.00	0.028
788.43	0.027
788.87	0.029
789.31	0.027
789.75	0.032
790.18	0.029
790.62	0.031
791.06	0.033
791.49	0.030
791.93	0.029
792.37	0.027
792.80	0.030
793.24	0.033
793.68	0.029
794.11	0.033
794.55	0.029
794.99	0.031
795.42	0.029
795.86	0.031
796.30	0.032
796.73	0.033
797.17	0.030
797.61	0.024
798.04	0.026
798.48	0.028
798.91	0.030
799.35	0.028
799.79	0.030
800.22	0.029
800.66	0.027
801.10	0.030
801.53	0.027
801.97	0.028
802.40	0.030
802.84	0.032
803.28	0.030
803.71	0.025
804.15	0.028
804.58	0.027
805.02	0.025
805.46	0.029
805.89	0.027
806.33	0.030
806.76	0.026
807.20	0.030
807.63	0.029
808.07	0.030
808.51	0.025
808.94	0.029
809.38	0.028
809.81	0.028
810.25	0.028
810.68	0.031
811.12	0.032
811.55	0.025
811.99	0.032
812.42	0.031
812.86	0.029
813.29	0.029
813.73	0.031
814.17	0.029
814.60	0.029
815.04	0.027
815.47	0.030
815.91	0.031
816.34	0.030
816.78	0.030
817.21	0.025
817.65	0.031
818.08	0.031
