SpectraSuite Data File
++++++++++++++++++++++++++++++++++++
Date: Tue Jul 11 15:43:02 CEST 2017
User: IPCE
Dark Spectrum Present: Yes
Reference Spectrum Present: Yes
Number of Sampled Component Spectra: 1
Spectrometers: HR+C0708
Integration Time (usec): 1000 (HR+C0708)
Spectra Averaged: 10 (HR+C0708)
Boxcar Smoothing: 0 (HR+C0708)
Correct for Electrical Dark: No (HR+C0708)
Strobe/Lamp Enabled: No (HR+C0708)
Correct for Detector Non-linearity: No (HR+C0708)
Correct for Stray Light: No (HR+C0708)
Number of Pixels in Processed Spectrum: 2048
>>>>>Begin Processed Spectral Data<<<<<
188.76	0.371
189.23	-0.157
189.70	-0.307
190.17	0.356
190.64	-0.000
191.12	0.410
191.59	0.659
192.06	0.544
192.53	0.193
193.01	0.463
193.48	-0.000
193.95	0.118
194.42	-0.037
194.90	0.356
195.37	0.127
195.84	-0.089
196.31	1.045
196.78	0.324
197.26	0.435
197.73	0.102
198.20	0.499
198.67	-0.063
199.14	-0.013
199.62	0.075
200.09	0.594
200.56	0.408
201.03	0.231
201.50	0.580
201.97	0.273
202.45	0.321
202.92	0.488
203.39	0.395
203.86	0.540
204.33	0.451
204.80	0.362
205.28	0.545
205.75	0.339
206.22	0.327
206.69	0.616
207.16	0.367
207.63	0.325
208.11	0.262
208.58	0.268
209.05	0.427
209.52	0.366
209.99	0.329
210.46	0.282
210.93	0.345
211.41	0.439
211.88	0.258
212.35	0.460
212.82	0.323
213.29	0.217
213.76	0.384
214.23	0.368
214.70	0.285
215.18	0.351
215.65	0.387
216.12	0.374
216.59	0.381
217.06	0.490
217.53	0.378
218.00	0.468
218.47	0.445
218.94	0.363
219.41	0.391
219.89	0.480
220.36	0.398
220.83	0.500
221.30	0.414
221.77	0.452
222.24	0.381
222.71	0.674
223.18	0.450
223.65	0.502
224.12	0.539
224.59	0.506
225.06	0.612
225.54	0.593
226.01	0.594
226.48	0.717
226.95	0.667
227.42	1.019
227.89	0.727
228.36	0.756
228.83	1.019
229.30	0.940
229.77	0.972
230.24	1.146
230.71	1.198
231.18	1.097
231.65	1.282
232.12	1.539
232.59	1.359
233.06	1.580
233.53	1.495
234.00	1.623
234.47	1.501
234.94	1.582
235.41	1.699
235.88	1.756
236.35	1.629
236.82	1.720
237.29	1.799
237.76	1.889
238.23	1.766
238.70	1.954
239.17	1.886
239.64	1.911
240.11	1.945
240.58	1.995
241.05	2.114
241.52	2.014
241.99	2.076
242.46	2.093
242.93	2.165
243.40	2.161
243.87	2.266
244.34	2.240
244.81	2.174
245.28	2.054
245.75	2.215
246.22	2.242
246.69	2.177
247.16	2.297
247.63	2.260
248.10	2.292
248.57	2.257
249.04	2.375
249.51	2.412
249.98	2.286
250.45	2.369
250.92	2.334
251.39	2.343
251.85	2.184
252.32	2.207
252.79	2.064
253.26	2.046
253.73	1.967
254.20	1.893
254.67	1.822
255.14	1.766
255.61	1.747
256.08	1.735
256.55	1.662
257.02	1.600
257.49	1.603
257.95	1.548
258.42	1.514
258.89	1.463
259.36	1.443
259.83	1.422
260.30	1.389
260.77	1.372
261.24	1.356
261.71	1.335
262.17	1.299
262.64	1.283
263.11	1.254
263.58	1.248
264.05	1.230
264.52	1.213
264.99	1.198
265.46	1.183
265.92	1.168
266.39	1.151
266.86	1.140
267.33	1.124
267.80	1.123
268.27	1.104
268.74	1.087
269.20	1.072
269.67	1.065
270.14	1.051
270.61	1.041
271.08	1.037
271.55	1.031
272.01	1.014
272.48	1.003
272.95	0.999
273.42	0.991
273.89	0.986
274.36	0.974
274.82	0.972
275.29	0.963
275.76	0.953
276.23	0.954
276.70	0.945
277.16	0.937
277.63	0.929
278.10	0.930
278.57	0.925
279.04	0.917
279.50	0.912
279.97	0.913
280.44	0.913
280.91	0.907
281.38	0.909
281.84	0.899
282.31	0.894
282.78	0.897
283.25	0.896
283.72	0.894
284.18	0.888
284.65	0.887
285.12	0.888
285.59	0.882
286.05	0.880
286.52	0.890
286.99	0.882
287.46	0.879
287.92	0.882
288.39	0.883
288.86	0.881
289.33	0.878
289.79	0.879
290.26	0.876
290.73	0.873
291.20	0.867
291.66	0.868
292.13	0.858
292.60	0.856
293.07	0.854
293.53	0.852
294.00	0.842
294.47	0.834
294.93	0.834
295.40	0.823
295.87	0.814
296.34	0.807
296.80	0.797
297.27	0.788
297.74	0.781
298.20	0.776
298.67	0.769
299.14	0.757
299.60	0.748
300.07	0.742
300.54	0.732
301.01	0.724
301.47	0.714
301.94	0.709
302.41	0.695
302.87	0.688
303.34	0.676
303.81	0.673
304.27	0.663
304.74	0.657
305.21	0.653
305.67	0.643
306.14	0.636
306.61	0.629
307.07	0.625
307.54	0.617
308.01	0.602
308.47	0.601
308.94	0.597
309.40	0.594
309.87	0.590
310.34	0.589
310.80	0.581
311.27	0.577
311.74	0.571
312.20	0.568
312.67	0.569
313.13	0.564
313.60	0.563
314.07	0.555
314.53	0.551
315.00	0.549
315.47	0.549
315.93	0.543
316.40	0.541
316.86	0.540
317.33	0.540
317.80	0.532
318.26	0.531
318.73	0.530
319.19	0.528
319.66	0.526
320.13	0.517
320.59	0.517
321.06	0.512
321.52	0.513
321.99	0.512
322.45	0.512
322.92	0.507
323.39	0.505
323.85	0.504
324.32	0.502
324.78	0.496
325.25	0.494
325.71	0.488
326.18	0.484
326.64	0.483
327.11	0.485
327.58	0.484
328.04	0.479
328.51	0.476
328.97	0.474
329.44	0.472
329.90	0.469
330.37	0.465
330.83	0.464
331.30	0.462
331.76	0.457
332.23	0.452
332.69	0.449
333.16	0.450
333.62	0.445
334.09	0.440
334.56	0.442
335.02	0.434
335.49	0.433
335.95	0.430
336.42	0.427
336.88	0.421
337.35	0.422
337.81	0.424
338.28	0.416
338.74	0.422
339.20	0.418
339.67	0.420
340.13	0.413
340.60	0.415
341.06	0.408
341.53	0.407
341.99	0.409
342.46	0.407
342.92	0.405
343.39	0.403
343.85	0.400
344.32	0.399
344.78	0.399
345.25	0.398
345.71	0.405
346.17	0.400
346.64	0.396
347.10	0.393
347.57	0.392
348.03	0.388
348.50	0.384
348.96	0.377
349.43	0.385
349.89	0.375
350.35	0.375
350.82	0.368
351.28	0.367
351.75	0.360
352.21	0.363
352.67	0.351
353.14	0.348
353.60	0.344
354.07	0.333
354.53	0.332
355.00	0.325
355.46	0.320
355.92	0.319
356.39	0.312
356.85	0.302
357.31	0.299
357.78	0.293
358.24	0.284
358.71	0.274
359.17	0.265
359.63	0.257
360.10	0.242
360.56	0.234
361.03	0.226
361.49	0.214
361.95	0.201
362.42	0.190
362.88	0.182
363.34	0.171
363.81	0.162
364.27	0.153
364.73	0.142
365.20	0.132
365.66	0.126
366.12	0.116
366.59	0.112
367.05	0.107
367.51	0.102
367.98	0.094
368.44	0.096
368.90	0.090
369.37	0.092
369.83	0.088
370.29	0.084
370.76	0.086
371.22	0.084
371.68	0.079
372.15	0.076
372.61	0.076
373.07	0.077
373.54	0.075
374.00	0.074
374.46	0.075
374.92	0.069
375.39	0.072
375.85	0.074
376.31	0.071
376.78	0.073
377.24	0.069
377.70	0.070
378.16	0.071
378.63	0.066
379.09	0.070
379.55	0.071
380.01	0.069
380.48	0.071
380.94	0.069
381.40	0.067
381.87	0.067
382.33	0.066
382.79	0.069
383.25	0.065
383.72	0.068
384.18	0.065
384.64	0.063
385.10	0.064
385.56	0.065
386.03	0.066
386.49	0.065
386.95	0.062
387.41	0.062
387.88	0.062
388.34	0.066
388.80	0.062
389.26	0.063
389.72	0.063
390.19	0.064
390.65	0.063
391.11	0.062
391.57	0.062
392.04	0.062
392.50	0.059
392.96	0.062
393.42	0.058
393.88	0.063
394.34	0.062
394.81	0.061
395.27	0.059
395.73	0.058
396.19	0.060
396.65	0.062
397.12	0.060
397.58	0.057
398.04	0.057
398.50	0.059
398.96	0.058
399.42	0.058
399.89	0.055
400.35	0.057
400.81	0.056
401.27	0.061
401.73	0.056
402.19	0.056
402.65	0.056
403.12	0.055
403.58	0.056
404.04	0.054
404.50	0.053
404.96	0.053
405.42	0.054
405.88	0.054
406.34	0.055
406.81	0.056
407.27	0.051
407.73	0.053
408.19	0.049
408.65	0.049
409.11	0.052
409.57	0.051
410.03	0.052
410.49	0.049
410.96	0.051
411.42	0.051
411.88	0.050
412.34	0.047
412.80	0.050
413.26	0.050
413.72	0.048
414.18	0.051
414.64	0.048
415.10	0.047
415.56	0.049
416.02	0.046
416.48	0.046
416.95	0.045
417.41	0.045
417.87	0.045
418.33	0.048
418.79	0.048
419.25	0.049
419.71	0.046
420.17	0.047
420.63	0.044
421.09	0.047
421.55	0.047
422.01	0.044
422.47	0.044
422.93	0.046
423.39	0.047
423.85	0.046
424.31	0.045
424.77	0.044
425.23	0.043
425.69	0.046
426.15	0.045
426.61	0.046
427.07	0.046
427.53	0.046
427.99	0.047
428.45	0.046
428.91	0.044
429.37	0.044
429.83	0.044
430.29	0.046
430.75	0.043
431.21	0.044
431.67	0.046
432.13	0.045
432.59	0.043
433.05	0.044
433.51	0.044
433.97	0.047
434.43	0.044
434.89	0.046
435.35	0.044
435.81	0.043
436.27	0.042
436.73	0.043
437.19	0.042
437.65	0.040
438.11	0.047
438.57	0.044
439.03	0.044
439.48	0.042
439.94	0.043
440.40	0.039
440.86	0.042
441.32	0.043
441.78	0.044
442.24	0.043
442.70	0.044
443.16	0.043
443.62	0.042
444.08	0.044
444.54	0.046
444.99	0.044
445.45	0.042
445.91	0.042
446.37	0.043
446.83	0.042
447.29	0.041
447.75	0.042
448.21	0.042
448.67	0.044
449.12	0.040
449.58	0.041
450.04	0.040
450.50	0.037
450.96	0.040
451.42	0.041
451.88	0.042
452.34	0.039
452.79	0.042
453.25	0.043
453.71	0.042
454.17	0.040
454.63	0.042
455.09	0.040
455.55	0.041
456.00	0.038
456.46	0.041
456.92	0.044
457.38	0.042
457.84	0.041
458.30	0.042
458.75	0.038
459.21	0.040
459.67	0.041
460.13	0.042
460.59	0.043
461.04	0.041
461.50	0.041
461.96	0.040
462.42	0.042
462.88	0.039
463.33	0.041
463.79	0.042
464.25	0.040
464.71	0.042
465.17	0.042
465.62	0.041
466.08	0.040
466.54	0.040
467.00	0.041
467.46	0.041
467.91	0.042
468.37	0.042
468.83	0.040
469.29	0.041
469.74	0.042
470.20	0.041
470.66	0.042
471.12	0.042
471.57	0.043
472.03	0.041
472.49	0.041
472.95	0.042
473.40	0.042
473.86	0.039
474.32	0.041
474.78	0.042
475.23	0.041
475.69	0.044
476.15	0.043
476.60	0.042
477.06	0.041
477.52	0.043
477.98	0.043
478.43	0.043
478.89	0.045
479.35	0.044
479.80	0.043
480.26	0.040
480.72	0.042
481.18	0.041
481.63	0.041
482.09	0.043
482.55	0.042
483.00	0.042
483.46	0.042
483.92	0.042
484.37	0.046
484.83	0.044
485.29	0.044
485.74	0.043
486.20	0.043
486.66	0.042
487.11	0.044
487.57	0.043
488.03	0.046
488.48	0.043
488.94	0.044
489.40	0.043
489.85	0.041
490.31	0.043
490.77	0.046
491.22	0.041
491.68	0.043
492.13	0.044
492.59	0.044
493.05	0.044
493.50	0.042
493.96	0.043
494.42	0.044
494.87	0.044
495.33	0.043
495.78	0.043
496.24	0.042
496.70	0.044
497.15	0.044
497.61	0.044
498.06	0.046
498.52	0.044
498.98	0.044
499.43	0.043
499.89	0.043
500.34	0.042
500.80	0.045
501.25	0.043
501.71	0.042
502.17	0.043
502.62	0.043
503.08	0.043
503.53	0.042
503.99	0.043
504.44	0.044
504.90	0.043
505.36	0.042
505.81	0.041
506.27	0.042
506.72	0.044
507.18	0.044
507.63	0.043
508.09	0.043
508.54	0.043
509.00	0.043
509.45	0.044
509.91	0.043
510.36	0.042
510.82	0.044
511.27	0.042
511.73	0.042
512.19	0.039
512.64	0.043
513.10	0.043
513.55	0.043
514.01	0.041
514.46	0.040
514.92	0.041
515.37	0.042
515.83	0.041
516.28	0.044
516.73	0.042
517.19	0.040
517.64	0.043
518.10	0.042
518.55	0.043
519.01	0.040
519.46	0.041
519.92	0.040
520.37	0.043
520.83	0.043
521.28	0.043
521.74	0.040
522.19	0.042
522.65	0.043
523.10	0.043
523.55	0.042
524.01	0.043
524.46	0.043
524.92	0.044
525.37	0.041
525.83	0.042
526.28	0.041
526.73	0.045
527.19	0.045
527.64	0.045
528.10	0.042
528.55	0.042
529.01	0.042
529.46	0.045
529.91	0.043
530.37	0.043
530.82	0.044
531.28	0.045
531.73	0.043
532.18	0.045
532.64	0.044
533.09	0.045
533.54	0.044
534.00	0.043
534.45	0.045
534.91	0.044
535.36	0.045
535.81	0.045
536.27	0.047
536.72	0.043
537.17	0.047
537.63	0.048
538.08	0.047
538.54	0.045
538.99	0.046
539.44	0.049
539.90	0.046
540.35	0.047
540.80	0.048
541.26	0.048
541.71	0.048
542.16	0.048
542.62	0.051
543.07	0.048
543.52	0.050
543.98	0.051
544.43	0.049
544.88	0.051
545.34	0.053
545.79	0.053
546.24	0.054
546.69	0.051
547.15	0.050
547.60	0.058
548.05	0.054
548.51	0.054
548.96	0.054
549.41	0.056
549.86	0.058
550.32	0.056
550.77	0.057
551.22	0.058
551.68	0.057
552.13	0.058
552.58	0.060
553.03	0.059
553.49	0.061
553.94	0.058
554.39	0.060
554.84	0.064
555.30	0.062
555.75	0.063
556.20	0.063
556.65	0.064
557.11	0.065
557.56	0.067
558.01	0.064
558.46	0.066
558.92	0.067
559.37	0.067
559.82	0.068
560.27	0.070
560.72	0.068
561.18	0.070
561.63	0.071
562.08	0.073
562.53	0.070
562.99	0.071
563.44	0.073
563.89	0.073
564.34	0.075
564.79	0.073
565.25	0.075
565.70	0.074
566.15	0.077
566.60	0.078
567.05	0.079
567.50	0.080
567.96	0.080
568.41	0.083
568.86	0.080
569.31	0.082
569.76	0.083
570.21	0.083
570.67	0.082
571.12	0.086
571.57	0.087
572.02	0.087
572.47	0.090
572.92	0.089
573.37	0.089
573.83	0.092
574.28	0.092
574.73	0.090
575.18	0.093
575.63	0.094
576.08	0.093
576.53	0.096
576.98	0.096
577.44	0.097
577.89	0.098
578.34	0.100
578.79	0.103
579.24	0.101
579.69	0.104
580.14	0.105
580.59	0.106
581.04	0.108
581.49	0.111
581.95	0.110
582.40	0.109
582.85	0.110
583.30	0.112
583.75	0.115
584.20	0.116
584.65	0.116
585.10	0.120
585.55	0.119
586.00	0.124
586.45	0.124
586.90	0.125
587.35	0.126
587.80	0.129
588.25	0.129
588.71	0.130
589.16	0.133
589.61	0.136
590.06	0.138
590.51	0.139
590.96	0.141
591.41	0.143
591.86	0.146
592.31	0.148
592.76	0.149
593.21	0.151
593.66	0.154
594.11	0.156
594.56	0.156
595.01	0.159
595.46	0.161
595.91	0.161
596.36	0.163
596.81	0.168
597.26	0.168
597.71	0.171
598.16	0.174
598.61	0.175
599.06	0.178
599.51	0.176
599.96	0.181
600.41	0.182
600.86	0.186
601.31	0.189
601.76	0.188
602.21	0.190
602.65	0.194
603.10	0.196
603.55	0.196
604.00	0.200
604.45	0.200
604.90	0.204
605.35	0.206
605.80	0.206
606.25	0.206
606.70	0.210
607.15	0.212
607.60	0.212
608.05	0.212
608.50	0.215
608.95	0.217
609.39	0.218
609.84	0.220
610.29	0.218
610.74	0.223
611.19	0.222
611.64	0.224
612.09	0.226
612.54	0.228
612.99	0.227
613.44	0.227
613.88	0.232
614.33	0.228
614.78	0.231
615.23	0.230
615.68	0.231
616.13	0.232
616.58	0.233
617.03	0.232
617.47	0.236
617.92	0.238
618.37	0.237
618.82	0.237
619.27	0.237
619.72	0.238
620.17	0.240
620.61	0.239
621.06	0.243
621.51	0.241
621.96	0.243
622.41	0.244
622.86	0.241
623.30	0.245
623.75	0.244
624.20	0.247
624.65	0.249
625.10	0.247
625.54	0.250
625.99	0.250
626.44	0.249
626.89	0.251
627.34	0.253
627.78	0.253
628.23	0.254
628.68	0.255
629.13	0.257
629.58	0.256
630.02	0.260
630.47	0.262
630.92	0.264
631.37	0.265
631.81	0.266
632.26	0.268
632.71	0.271
633.16	0.272
633.61	0.275
634.05	0.275
634.50	0.277
634.95	0.280
635.40	0.282
635.84	0.285
636.29	0.285
636.74	0.291
637.18	0.291
637.63	0.294
638.08	0.295
638.53	0.299
638.97	0.304
639.42	0.306
639.87	0.307
640.32	0.311
640.76	0.314
641.21	0.314
641.66	0.321
642.10	0.324
642.55	0.327
643.00	0.331
643.44	0.333
643.89	0.338
644.34	0.341
644.79	0.344
645.23	0.345
645.68	0.350
646.13	0.351
646.57	0.357
647.02	0.359
647.47	0.360
647.91	0.363
648.36	0.370
648.81	0.371
649.25	0.376
649.70	0.378
650.15	0.383
650.59	0.386
651.04	0.389
651.48	0.387
651.93	0.394
652.38	0.394
652.82	0.399
653.27	0.404
653.72	0.407
654.16	0.407
654.61	0.410
655.06	0.416
655.50	0.417
655.95	0.417
656.39	0.420
656.84	0.420
657.29	0.422
657.73	0.427
658.18	0.427
658.62	0.431
659.07	0.435
659.52	0.436
659.96	0.437
660.41	0.438
660.85	0.437
661.30	0.440
661.74	0.444
662.19	0.446
662.64	0.445
663.08	0.448
663.53	0.447
663.97	0.446
664.42	0.449
664.86	0.448
665.31	0.445
665.75	0.445
666.20	0.444
666.65	0.444
667.09	0.441
667.54	0.442
667.98	0.440
668.43	0.437
668.87	0.435
669.32	0.432
669.76	0.430
670.21	0.425
670.65	0.422
671.10	0.417
671.54	0.414
671.99	0.409
672.43	0.404
672.88	0.397
673.32	0.392
673.77	0.385
674.21	0.381
674.66	0.373
675.10	0.367
675.55	0.361
675.99	0.354
676.44	0.346
676.88	0.335
677.33	0.328
677.77	0.319
678.22	0.313
678.66	0.305
679.11	0.296
679.55	0.288
679.99	0.280
680.44	0.274
680.88	0.263
681.33	0.256
681.77	0.249
682.22	0.241
682.66	0.230
683.11	0.222
683.55	0.215
683.99	0.208
684.44	0.200
684.88	0.193
685.33	0.184
685.77	0.178
686.21	0.173
686.66	0.165
687.10	0.160
687.55	0.152
687.99	0.147
688.44	0.142
688.88	0.136
689.32	0.130
689.77	0.124
690.21	0.119
690.65	0.116
691.10	0.108
691.54	0.105
691.99	0.102
692.43	0.097
692.87	0.092
693.32	0.090
693.76	0.087
694.20	0.083
694.65	0.082
695.09	0.076
695.53	0.074
695.98	0.071
696.42	0.066
696.86	0.064
697.31	0.064
697.75	0.061
698.19	0.057
698.64	0.058
699.08	0.056
699.52	0.052
699.97	0.055
700.41	0.051
700.85	0.050
701.30	0.048
701.74	0.044
702.18	0.046
702.63	0.041
703.07	0.043
703.51	0.041
703.96	0.039
704.40	0.038
704.84	0.036
705.28	0.038
705.73	0.036
706.17	0.036
706.61	0.034
707.06	0.034
707.50	0.031
707.94	0.031
708.38	0.030
708.83	0.031
709.27	0.028
709.71	0.031
710.15	0.028
710.60	0.030
711.04	0.029
711.48	0.025
711.92	0.027
712.37	0.026
712.81	0.027
713.25	0.027
713.69	0.026
714.13	0.023
714.58	0.025
715.02	0.024
715.46	0.024
715.90	0.025
716.35	0.024
716.79	0.025
717.23	0.023
717.67	0.024
718.11	0.020
718.56	0.022
719.00	0.022
719.44	0.024
719.88	0.024
720.32	0.025
720.76	0.020
721.21	0.026
721.65	0.024
722.09	0.025
722.53	0.024
722.97	0.024
723.41	0.022
723.86	0.021
724.30	0.023
724.74	0.021
725.18	0.023
725.62	0.024
726.06	0.023
726.50	0.022
726.95	0.023
727.39	0.025
727.83	0.022
728.27	0.022
728.71	0.022
729.15	0.024
729.59	0.025
730.03	0.024
730.48	0.025
730.92	0.024
731.36	0.023
731.80	0.023
732.24	0.025
732.68	0.026
733.12	0.024
733.56	0.026
734.00	0.027
734.44	0.025
734.89	0.025
735.33	0.026
735.77	0.028
736.21	0.027
736.65	0.028
737.09	0.027
737.53	0.027
737.97	0.030
738.41	0.026
738.85	0.026
739.29	0.026
739.73	0.030
740.17	0.027
740.61	0.029
741.05	0.029
741.49	0.025
741.93	0.027
742.37	0.026
742.81	0.027
743.26	0.028
743.70	0.027
744.14	0.027
744.58	0.026
745.02	0.027
745.46	0.026
745.90	0.027
746.34	0.028
746.78	0.028
747.22	0.026
747.66	0.028
748.10	0.027
748.54	0.026
748.98	0.027
749.42	0.029
749.86	0.027
750.29	0.028
750.73	0.028
751.17	0.024
751.61	0.028
752.05	0.028
752.49	0.027
752.93	0.029
753.37	0.026
753.81	0.027
754.25	0.027
754.69	0.026
755.13	0.028
755.57	0.026
756.01	0.026
756.45	0.025
756.89	0.026
757.33	0.029
757.77	0.026
758.21	0.028
758.64	0.027
759.08	0.027
759.52	0.028
759.96	0.029
760.40	0.025
760.84	0.024
761.28	0.028
761.72	0.024
762.16	0.027
762.60	0.027
763.03	0.026
763.47	0.023
763.91	0.025
764.35	0.025
764.79	0.030
765.23	0.027
765.67	0.025
766.11	0.026
766.54	0.025
766.98	0.024
767.42	0.027
767.86	0.028
768.30	0.026
768.74	0.027
769.17	0.029
769.61	0.027
770.05	0.026
770.49	0.024
770.93	0.025
771.37	0.026
771.80	0.029
772.24	0.028
772.68	0.024
773.12	0.024
773.56	0.025
774.00	0.024
774.43	0.023
774.87	0.026
775.31	0.030
775.75	0.028
776.19	0.027
776.62	0.028
777.06	0.025
777.50	0.026
777.94	0.026
778.37	0.024
778.81	0.028
779.25	0.027
779.69	0.026
780.13	0.026
780.56	0.026
781.00	0.032
781.44	0.026
781.88	0.027
782.31	0.027
782.75	0.029
783.19	0.028
783.63	0.028
784.06	0.022
784.50	0.027
784.94	0.027
785.37	0.027
785.81	0.026
786.25	0.023
786.69	0.026
787.12	0.025
787.56	0.026
788.00	0.023
788.43	0.024
788.87	0.024
789.31	0.024
789.75	0.028
790.18	0.025
790.62	0.028
791.06	0.026
791.49	0.028
791.93	0.021
792.37	0.022
792.80	0.024
793.24	0.026
793.68	0.024
794.11	0.028
794.55	0.026
794.99	0.027
795.42	0.024
795.86	0.026
796.30	0.027
796.73	0.025
797.17	0.028
797.61	0.024
798.04	0.023
798.48	0.023
798.91	0.025
799.35	0.027
799.79	0.024
800.22	0.026
800.66	0.023
801.10	0.024
801.53	0.025
801.97	0.022
802.40	0.024
802.84	0.023
803.28	0.025
803.71	0.024
804.15	0.021
804.58	0.023
805.02	0.023
805.46	0.025
805.89	0.022
806.33	0.026
806.76	0.023
807.20	0.029
807.63	0.026
808.07	0.026
808.51	0.025
808.94	0.028
809.38	0.025
809.81	0.023
810.25	0.025
810.68	0.026
811.12	0.024
811.55	0.020
811.99	0.024
812.42	0.023
812.86	0.026
813.29	0.023
813.73	0.027
814.17	0.025
814.60	0.024
815.04	0.028
815.47	0.027
815.91	0.025
816.34	0.026
816.78	0.027
817.21	0.019
817.65	0.029
818.08	0.029
