SpectraSuite Data File
++++++++++++++++++++++++++++++++++++
Date: Tue Jul 11 15:32:02 CEST 2017
User: IPCE
Dark Spectrum Present: Yes
Reference Spectrum Present: Yes
Number of Sampled Component Spectra: 1
Spectrometers: HR+C0708
Integration Time (usec): 1000 (HR+C0708)
Spectra Averaged: 10 (HR+C0708)
Boxcar Smoothing: 0 (HR+C0708)
Correct for Electrical Dark: No (HR+C0708)
Strobe/Lamp Enabled: No (HR+C0708)
Correct for Detector Non-linearity: No (HR+C0708)
Correct for Stray Light: No (HR+C0708)
Number of Pixels in Processed Spectrum: 2048
>>>>>Begin Processed Spectral Data<<<<<
188.76	0.226
189.23	-0.301
189.70	-0.000
190.17	-0.049
190.64	0.168
191.12	0.775
191.59	0.257
192.06	-0.041
192.53	-0.000
193.01	-0.000
193.48	-0.000
193.95	0.240
194.42	-0.000
194.90	-0.000
195.37	0.055
195.84	-0.292
196.31	-0.000
196.78	0.201
197.26	0.590
197.73	0.347
198.20	0.489
198.67	0.207
199.14	0.222
199.62	0.717
200.09	0.895
200.56	0.223
201.03	0.348
201.50	0.608
201.97	0.239
202.45	0.567
202.92	0.782
203.39	0.434
203.86	0.570
204.33	0.712
204.80	0.743
205.28	0.626
205.75	0.382
206.22	0.573
206.69	1.021
207.16	0.303
207.63	0.409
208.11	0.595
208.58	0.423
209.05	0.534
209.52	0.741
209.99	0.538
210.46	0.453
210.93	0.479
211.41	0.291
211.88	0.619
212.35	0.339
212.82	0.288
213.29	1.090
213.76	0.474
214.23	0.392
214.70	0.484
215.18	0.492
215.65	0.363
216.12	0.432
216.59	0.467
217.06	1.195
217.53	0.459
218.00	0.366
218.47	0.684
218.94	0.239
219.41	0.520
219.89	0.615
220.36	0.634
220.83	0.558
221.30	0.420
221.77	0.601
222.24	0.935
222.71	0.500
223.18	0.569
223.65	0.760
224.12	0.543
224.59	0.489
225.06	0.807
225.54	0.733
226.01	0.914
226.48	0.942
226.95	0.659
227.42	1.156
227.89	0.856
228.36	0.908
228.83	1.294
229.30	1.085
229.77	1.028
230.24	1.312
230.71	1.374
231.18	1.141
231.65	1.424
232.12	1.649
232.59	1.805
233.06	1.462
233.53	1.579
234.00	2.011
234.47	1.596
234.94	1.709
235.41	1.920
235.88	1.906
236.35	1.627
236.82	1.818
237.29	1.947
237.76	2.042
238.23	1.935
238.70	2.003
239.17	2.293
239.64	1.957
240.11	2.101
240.58	2.180
241.05	2.204
241.52	2.130
241.99	2.362
242.46	2.192
242.93	2.265
243.40	2.258
243.87	2.395
244.34	2.654
244.81	2.215
245.28	2.201
245.75	2.502
246.22	2.494
246.69	2.226
247.16	2.625
247.63	2.415
248.10	2.372
248.57	2.367
249.04	2.484
249.51	2.591
249.98	2.219
250.45	2.422
250.92	2.688
251.39	2.430
251.85	2.303
252.32	2.603
252.79	2.501
253.26	2.507
253.73	2.506
254.20	2.416
254.67	2.550
255.14	2.344
255.61	2.439
256.08	3.511
256.55	2.507
257.02	2.347
257.49	2.870
257.95	2.692
258.42	2.592
258.89	2.550
259.36	2.564
259.83	3.003
260.30	2.423
260.77	2.729
261.24	2.874
261.71	2.675
262.17	2.636
262.64	2.989
263.11	2.635
263.58	2.724
264.05	2.753
264.52	2.838
264.99	2.801
265.46	2.818
265.92	2.707
266.39	2.999
266.86	2.587
267.33	2.642
267.80	2.939
268.27	2.526
268.74	2.487
269.20	2.706
269.67	2.710
270.14	2.809
270.61	2.614
271.08	2.575
271.55	2.958
272.01	2.383
272.48	2.545
272.95	3.140
273.42	2.592
273.89	2.404
274.36	2.639
274.82	2.599
275.29	2.558
275.76	2.503
276.23	2.392
276.70	2.730
277.16	2.520
277.63	2.428
278.10	2.798
278.57	2.453
279.04	2.373
279.50	2.770
279.97	2.568
280.44	2.477
280.91	2.448
281.38	2.479
281.84	2.794
282.31	2.557
282.78	2.521
283.25	2.721
283.72	2.574
284.18	2.487
284.65	2.649
285.12	2.488
285.59	2.464
286.05	2.445
286.52	2.616
286.99	2.695
287.46	2.550
287.92	2.650
288.39	2.844
288.86	2.645
289.33	2.465
289.79	2.656
290.26	2.568
290.73	2.481
291.20	2.471
291.66	2.644
292.13	2.584
292.60	2.463
293.07	2.556
293.53	2.664
294.00	2.417
294.47	2.440
294.93	3.038
295.40	2.479
295.87	2.355
296.34	2.520
296.80	2.501
297.27	2.501
297.74	2.433
298.20	2.655
298.67	2.556
299.14	2.585
299.60	2.489
300.07	2.543
300.54	2.344
301.01	2.349
301.47	2.608
301.94	2.634
302.41	2.393
302.87	2.373
303.34	2.373
303.81	2.633
304.27	2.335
304.74	2.319
305.21	2.599
305.67	2.287
306.14	2.311
306.61	2.362
307.07	2.302
307.54	2.306
308.01	2.354
308.47	2.354
308.94	2.360
309.40	2.330
309.87	2.361
310.34	2.713
310.80	2.346
311.27	2.249
311.74	2.460
312.20	2.296
312.67	2.306
313.13	2.381
313.60	2.392
314.07	2.482
314.53	2.286
315.00	2.301
315.47	2.484
315.93	2.286
316.40	2.388
316.86	2.447
317.33	2.302
317.80	2.342
318.26	2.348
318.73	2.392
319.19	2.349
319.66	2.209
320.13	2.284
320.59	2.415
321.06	2.207
321.52	2.272
321.99	2.336
322.45	2.379
322.92	2.289
323.39	2.291
323.85	2.193
324.32	2.248
324.78	2.144
325.25	2.203
325.71	2.355
326.18	2.281
326.64	2.181
327.11	2.304
327.58	2.198
328.04	2.198
328.51	2.337
328.97	2.221
329.44	2.329
329.90	2.192
330.37	2.148
330.83	2.298
331.30	2.180
331.76	2.159
332.23	2.231
332.69	2.139
333.16	2.150
333.62	2.266
334.09	2.169
334.56	2.172
335.02	2.129
335.49	2.239
335.95	2.213
336.42	2.082
336.88	2.076
337.35	2.167
337.81	2.076
338.28	2.076
338.74	2.134
339.20	2.154
339.67	2.117
340.13	2.157
340.60	2.184
341.06	2.099
341.53	2.109
341.99	2.155
342.46	2.192
342.92	2.068
343.39	2.096
343.85	2.104
344.32	2.060
344.78	2.071
345.25	2.081
345.71	2.135
346.17	2.097
346.64	1.984
347.10	2.003
347.57	2.056
348.03	1.978
348.50	1.896
348.96	1.946
349.43	1.951
349.89	1.803
350.35	1.914
350.82	1.817
351.28	1.831
351.75	1.746
352.21	1.773
352.67	1.792
353.14	1.659
353.60	1.639
354.07	1.741
354.53	1.581
355.00	1.548
355.46	1.572
355.92	1.542
356.39	1.533
356.85	1.500
357.31	1.476
357.78	1.469
358.24	1.371
358.71	1.335
359.17	1.310
359.63	1.253
360.10	1.189
360.56	1.133
361.03	1.079
361.49	1.018
361.95	0.946
362.42	0.884
362.88	0.827
363.34	0.768
363.81	0.715
364.27	0.665
364.73	0.613
365.20	0.570
365.66	0.539
366.12	0.496
366.59	0.462
367.05	0.435
367.51	0.406
367.98	0.383
368.44	0.363
368.90	0.343
369.37	0.330
369.83	0.309
370.29	0.296
370.76	0.288
371.22	0.280
371.68	0.270
372.15	0.261
372.61	0.255
373.07	0.251
373.54	0.248
374.00	0.239
374.46	0.239
374.92	0.232
375.39	0.228
375.85	0.230
376.31	0.226
376.78	0.223
377.24	0.219
377.70	0.220
378.16	0.218
378.63	0.213
379.09	0.213
379.55	0.214
380.01	0.209
380.48	0.207
380.94	0.208
381.40	0.201
381.87	0.203
382.33	0.205
382.79	0.199
383.25	0.198
383.72	0.198
384.18	0.193
384.64	0.193
385.10	0.193
385.56	0.193
386.03	0.189
386.49	0.191
386.95	0.186
387.41	0.186
387.88	0.188
388.34	0.188
388.80	0.184
389.26	0.183
389.72	0.182
390.19	0.182
390.65	0.178
391.11	0.182
391.57	0.182
392.04	0.177
392.50	0.176
392.96	0.177
393.42	0.178
393.88	0.179
394.34	0.175
394.81	0.173
395.27	0.170
395.73	0.169
396.19	0.171
396.65	0.169
397.12	0.166
397.58	0.166
398.04	0.168
398.50	0.168
398.96	0.167
399.42	0.165
399.89	0.165
400.35	0.163
400.81	0.164
401.27	0.167
401.73	0.160
402.19	0.159
402.65	0.161
403.12	0.159
403.58	0.157
404.04	0.155
404.50	0.157
404.96	0.154
405.42	0.154
405.88	0.155
406.34	0.155
406.81	0.154
407.27	0.152
407.73	0.153
408.19	0.150
408.65	0.147
409.11	0.149
409.57	0.148
410.03	0.151
410.49	0.148
410.96	0.144
411.42	0.149
411.88	0.145
412.34	0.144
412.80	0.147
413.26	0.145
413.72	0.142
414.18	0.144
414.64	0.144
415.10	0.142
415.56	0.143
416.02	0.139
416.48	0.140
416.95	0.139
417.41	0.140
417.87	0.139
418.33	0.137
418.79	0.136
419.25	0.138
419.71	0.137
420.17	0.136
420.63	0.136
421.09	0.140
421.55	0.137
422.01	0.133
422.47	0.136
422.93	0.136
423.39	0.134
423.85	0.133
424.31	0.131
424.77	0.132
425.23	0.130
425.69	0.132
426.15	0.132
426.61	0.132
427.07	0.129
427.53	0.130
427.99	0.132
428.45	0.128
428.91	0.126
429.37	0.129
429.83	0.128
430.29	0.129
430.75	0.127
431.21	0.126
431.67	0.125
432.13	0.124
432.59	0.126
433.05	0.124
433.51	0.125
433.97	0.125
434.43	0.122
434.89	0.121
435.35	0.123
435.81	0.120
436.27	0.121
436.73	0.120
437.19	0.120
437.65	0.119
438.11	0.122
438.57	0.119
439.03	0.118
439.48	0.121
439.94	0.117
440.40	0.118
440.86	0.118
441.32	0.120
441.78	0.116
442.24	0.115
442.70	0.115
443.16	0.116
443.62	0.112
444.08	0.115
444.54	0.119
444.99	0.116
445.45	0.111
445.91	0.113
446.37	0.113
446.83	0.110
447.29	0.113
447.75	0.112
448.21	0.113
448.67	0.114
449.12	0.112
449.58	0.108
450.04	0.107
450.50	0.103
450.96	0.106
451.42	0.109
451.88	0.112
452.34	0.110
452.79	0.106
453.25	0.108
453.71	0.105
454.17	0.108
454.63	0.110
455.09	0.105
455.55	0.106
456.00	0.104
456.46	0.107
456.92	0.106
457.38	0.108
457.84	0.104
458.30	0.107
458.75	0.104
459.21	0.103
459.67	0.105
460.13	0.105
460.59	0.105
461.04	0.103
461.50	0.102
461.96	0.103
462.42	0.106
462.88	0.101
463.33	0.103
463.79	0.102
464.25	0.101
464.71	0.104
465.17	0.104
465.62	0.101
466.08	0.101
466.54	0.101
467.00	0.099
467.46	0.101
467.91	0.101
468.37	0.099
468.83	0.101
469.29	0.100
469.74	0.099
470.20	0.099
470.66	0.099
471.12	0.101
471.57	0.100
472.03	0.098
472.49	0.099
472.95	0.098
473.40	0.099
473.86	0.098
474.32	0.098
474.78	0.097
475.23	0.097
475.69	0.096
476.15	0.100
476.60	0.097
477.06	0.094
477.52	0.098
477.98	0.098
478.43	0.096
478.89	0.098
479.35	0.094
479.80	0.096
480.26	0.095
480.72	0.096
481.18	0.096
481.63	0.093
482.09	0.091
482.55	0.093
483.00	0.092
483.46	0.090
483.92	0.094
484.37	0.095
484.83	0.093
485.29	0.096
485.74	0.093
486.20	0.092
486.66	0.092
487.11	0.094
487.57	0.093
488.03	0.094
488.48	0.092
488.94	0.093
489.40	0.091
489.85	0.091
490.31	0.091
490.77	0.092
491.22	0.090
491.68	0.090
492.13	0.091
492.59	0.091
493.05	0.091
493.50	0.089
493.96	0.089
494.42	0.090
494.87	0.090
495.33	0.089
495.78	0.089
496.24	0.089
496.70	0.090
497.15	0.088
497.61	0.090
498.06	0.091
498.52	0.088
498.98	0.090
499.43	0.085
499.89	0.086
500.34	0.087
500.80	0.089
501.25	0.086
501.71	0.087
502.17	0.087
502.62	0.086
503.08	0.085
503.53	0.085
503.99	0.087
504.44	0.087
504.90	0.085
505.36	0.085
505.81	0.083
506.27	0.084
506.72	0.085
507.18	0.085
507.63	0.083
508.09	0.083
508.54	0.084
509.00	0.083
509.45	0.085
509.91	0.083
510.36	0.087
510.82	0.086
511.27	0.082
511.73	0.084
512.19	0.081
512.64	0.084
513.10	0.085
513.55	0.081
514.01	0.080
514.46	0.082
514.92	0.082
515.37	0.080
515.83	0.080
516.28	0.081
516.73	0.081
517.19	0.081
517.64	0.080
518.10	0.081
518.55	0.081
519.01	0.079
519.46	0.078
519.92	0.079
520.37	0.082
520.83	0.082
521.28	0.080
521.74	0.080
522.19	0.080
522.65	0.081
523.10	0.079
523.55	0.078
524.01	0.081
524.46	0.081
524.92	0.080
525.37	0.080
525.83	0.079
526.28	0.079
526.73	0.078
527.19	0.080
527.64	0.080
528.10	0.077
528.55	0.078
529.01	0.079
529.46	0.081
529.91	0.077
530.37	0.077
530.82	0.080
531.28	0.079
531.73	0.077
532.18	0.078
532.64	0.077
533.09	0.079
533.54	0.078
534.00	0.079
534.45	0.077
534.91	0.076
535.36	0.077
535.81	0.077
536.27	0.080
536.72	0.076
537.17	0.077
537.63	0.080
538.08	0.076
538.54	0.075
538.99	0.076
539.44	0.080
539.90	0.077
540.35	0.076
540.80	0.076
541.26	0.075
541.71	0.077
542.16	0.078
542.62	0.077
543.07	0.077
543.52	0.077
543.98	0.077
544.43	0.077
544.88	0.077
545.34	0.080
545.79	0.077
546.24	0.077
546.69	0.075
547.15	0.075
547.60	0.080
548.05	0.078
548.51	0.075
548.96	0.077
549.41	0.078
549.86	0.079
550.32	0.079
550.77	0.078
551.22	0.081
551.68	0.077
552.13	0.077
552.58	0.077
553.03	0.077
553.49	0.078
553.94	0.076
554.39	0.079
554.84	0.081
555.30	0.078
555.75	0.079
556.20	0.081
556.65	0.081
557.11	0.079
557.56	0.081
558.01	0.079
558.46	0.081
558.92	0.080
559.37	0.079
559.82	0.081
560.27	0.081
560.72	0.079
561.18	0.078
561.63	0.083
562.08	0.081
562.53	0.080
562.99	0.080
563.44	0.081
563.89	0.081
564.34	0.082
564.79	0.082
565.25	0.083
565.70	0.082
566.15	0.082
566.60	0.083
567.05	0.083
567.50	0.084
567.96	0.085
568.41	0.085
568.86	0.083
569.31	0.085
569.76	0.085
570.21	0.083
570.67	0.083
571.12	0.084
571.57	0.085
572.02	0.087
572.47	0.084
572.92	0.086
573.37	0.085
573.83	0.087
574.28	0.086
574.73	0.084
575.18	0.086
575.63	0.088
576.08	0.086
576.53	0.088
576.98	0.086
577.44	0.086
577.89	0.087
578.34	0.088
578.79	0.092
579.24	0.089
579.69	0.090
580.14	0.090
580.59	0.089
581.04	0.091
581.49	0.094
581.95	0.091
582.40	0.091
582.85	0.092
583.30	0.091
583.75	0.093
584.20	0.095
584.65	0.093
585.10	0.095
585.55	0.093
586.00	0.097
586.45	0.098
586.90	0.098
587.35	0.096
587.80	0.098
588.25	0.098
588.71	0.097
589.16	0.099
589.61	0.102
590.06	0.102
590.51	0.102
590.96	0.101
591.41	0.103
591.86	0.103
592.31	0.106
592.76	0.106
593.21	0.104
593.66	0.105
594.11	0.107
594.56	0.109
595.01	0.108
595.46	0.110
595.91	0.111
596.36	0.111
596.81	0.112
597.26	0.113
597.71	0.115
598.16	0.115
598.61	0.115
599.06	0.115
599.51	0.114
599.96	0.116
600.41	0.119
600.86	0.120
601.31	0.118
601.76	0.121
602.21	0.120
602.65	0.121
603.10	0.121
603.55	0.122
604.00	0.125
604.45	0.125
604.90	0.125
605.35	0.127
605.80	0.125
606.25	0.126
606.70	0.127
607.15	0.129
607.60	0.127
608.05	0.126
608.50	0.129
608.95	0.132
609.39	0.129
609.84	0.131
610.29	0.130
610.74	0.132
611.19	0.130
611.64	0.132
612.09	0.131
612.54	0.133
612.99	0.133
613.44	0.132
613.88	0.136
614.33	0.131
614.78	0.133
615.23	0.135
615.68	0.135
616.13	0.134
616.58	0.135
617.03	0.132
617.47	0.135
617.92	0.137
618.37	0.136
618.82	0.136
619.27	0.135
619.72	0.136
620.17	0.136
620.61	0.135
621.06	0.139
621.51	0.136
621.96	0.134
622.41	0.139
622.86	0.134
623.30	0.138
623.75	0.138
624.20	0.138
624.65	0.139
625.10	0.136
625.54	0.137
625.99	0.139
626.44	0.140
626.89	0.140
627.34	0.141
627.78	0.140
628.23	0.140
628.68	0.142
629.13	0.142
629.58	0.139
630.02	0.143
630.47	0.144
630.92	0.145
631.37	0.145
631.81	0.145
632.26	0.146
632.71	0.147
633.16	0.148
633.61	0.147
634.05	0.147
634.50	0.149
634.95	0.151
635.40	0.152
635.84	0.152
636.29	0.154
636.74	0.152
637.18	0.155
637.63	0.155
638.08	0.156
638.53	0.158
638.97	0.156
639.42	0.160
639.87	0.160
640.32	0.162
640.76	0.163
641.21	0.163
641.66	0.167
642.10	0.167
642.55	0.168
643.00	0.169
643.44	0.170
643.89	0.171
644.34	0.173
644.79	0.176
645.23	0.175
645.68	0.177
646.13	0.176
646.57	0.178
647.02	0.182
647.47	0.181
647.91	0.181
648.36	0.185
648.81	0.186
649.25	0.188
649.70	0.189
650.15	0.189
650.59	0.190
651.04	0.191
651.48	0.193
651.93	0.191
652.38	0.196
652.82	0.197
653.27	0.197
653.72	0.201
654.16	0.199
654.61	0.203
655.06	0.203
655.50	0.203
655.95	0.203
656.39	0.205
656.84	0.206
657.29	0.206
657.73	0.208
658.18	0.211
658.62	0.210
659.07	0.212
659.52	0.212
659.96	0.212
660.41	0.211
660.85	0.213
661.30	0.212
661.74	0.215
662.19	0.216
662.64	0.215
663.08	0.217
663.53	0.217
663.97	0.218
664.42	0.216
664.86	0.218
665.31	0.217
665.75	0.217
666.20	0.216
666.65	0.217
667.09	0.214
667.54	0.216
667.98	0.214
668.43	0.215
668.87	0.213
669.32	0.212
669.76	0.211
670.21	0.209
670.65	0.207
671.10	0.206
671.54	0.203
671.99	0.202
672.43	0.199
672.88	0.195
673.32	0.194
673.77	0.190
674.21	0.190
674.66	0.188
675.10	0.184
675.55	0.183
675.99	0.181
676.44	0.177
676.88	0.172
677.33	0.167
677.77	0.164
678.22	0.165
678.66	0.158
679.11	0.155
679.55	0.153
679.99	0.148
680.44	0.145
680.88	0.145
681.33	0.139
681.77	0.136
682.22	0.130
682.66	0.129
683.11	0.125
683.55	0.121
683.99	0.120
684.44	0.116
684.88	0.115
685.33	0.110
685.77	0.108
686.21	0.105
686.66	0.103
687.10	0.099
687.55	0.096
687.99	0.096
688.44	0.093
688.88	0.091
689.32	0.088
689.77	0.084
690.21	0.084
690.65	0.082
691.10	0.077
691.54	0.078
691.99	0.077
692.43	0.075
692.87	0.073
693.32	0.071
693.76	0.071
694.20	0.070
694.65	0.069
695.09	0.067
695.53	0.065
695.98	0.064
696.42	0.062
696.86	0.062
697.31	0.062
697.75	0.061
698.19	0.059
698.64	0.058
699.08	0.059
699.52	0.055
699.97	0.058
700.41	0.057
700.85	0.054
701.30	0.055
701.74	0.052
702.18	0.054
702.63	0.053
703.07	0.055
703.51	0.052
703.96	0.053
704.40	0.052
704.84	0.052
705.28	0.051
705.73	0.048
706.17	0.049
706.61	0.050
707.06	0.049
707.50	0.050
707.94	0.048
708.38	0.046
708.83	0.049
709.27	0.048
709.71	0.048
710.15	0.047
710.60	0.048
711.04	0.048
711.48	0.045
711.92	0.048
712.37	0.048
712.81	0.046
713.25	0.047
713.69	0.048
714.13	0.043
714.58	0.046
715.02	0.047
715.46	0.046
715.90	0.046
716.35	0.044
716.79	0.046
717.23	0.046
717.67	0.045
718.11	0.043
718.56	0.045
719.00	0.044
719.44	0.044
719.88	0.048
720.32	0.046
720.76	0.044
721.21	0.049
721.65	0.046
722.09	0.047
722.53	0.046
722.97	0.046
723.41	0.047
723.86	0.045
724.30	0.044
724.74	0.045
725.18	0.045
725.62	0.045
726.06	0.046
726.50	0.046
726.95	0.044
727.39	0.048
727.83	0.043
728.27	0.045
728.71	0.043
729.15	0.046
729.59	0.050
730.03	0.048
730.48	0.047
730.92	0.046
731.36	0.046
731.80	0.048
732.24	0.047
732.68	0.046
733.12	0.049
733.56	0.047
734.00	0.048
734.44	0.048
734.89	0.047
735.33	0.051
735.77	0.050
736.21	0.048
736.65	0.051
737.09	0.047
737.53	0.049
737.97	0.050
738.41	0.050
738.85	0.047
739.29	0.048
739.73	0.049
740.17	0.050
740.61	0.050
741.05	0.050
741.49	0.049
741.93	0.049
742.37	0.048
742.81	0.047
743.26	0.049
743.70	0.050
744.14	0.051
744.58	0.047
745.02	0.048
745.46	0.047
745.90	0.050
746.34	0.050
746.78	0.050
747.22	0.050
747.66	0.049
748.10	0.048
748.54	0.047
748.98	0.047
749.42	0.049
749.86	0.049
750.29	0.052
750.73	0.048
751.17	0.048
751.61	0.051
752.05	0.050
752.49	0.048
752.93	0.049
753.37	0.048
753.81	0.050
754.25	0.048
754.69	0.048
755.13	0.049
755.57	0.046
756.01	0.049
756.45	0.047
756.89	0.047
757.33	0.052
757.77	0.048
758.21	0.048
758.64	0.050
759.08	0.047
759.52	0.049
759.96	0.049
760.40	0.047
760.84	0.048
761.28	0.049
761.72	0.048
762.16	0.049
762.60	0.046
763.03	0.048
763.47	0.049
763.91	0.045
764.35	0.044
764.79	0.051
765.23	0.046
765.67	0.045
766.11	0.049
766.54	0.047
766.98	0.048
767.42	0.047
767.86	0.048
768.30	0.050
768.74	0.048
769.17	0.048
769.61	0.049
770.05	0.044
770.49	0.046
770.93	0.049
771.37	0.046
771.80	0.048
772.24	0.048
772.68	0.045
773.12	0.046
773.56	0.047
774.00	0.045
774.43	0.048
774.87	0.045
775.31	0.048
775.75	0.047
776.19	0.046
776.62	0.046
777.06	0.044
777.50	0.045
777.94	0.047
778.37	0.045
778.81	0.045
779.25	0.047
779.69	0.046
780.13	0.044
780.56	0.046
781.00	0.049
781.44	0.050
781.88	0.047
782.31	0.049
782.75	0.050
783.19	0.047
783.63	0.051
784.06	0.044
784.50	0.050
784.94	0.046
785.37	0.048
785.81	0.046
786.25	0.042
786.69	0.044
787.12	0.045
787.56	0.049
788.00	0.043
788.43	0.045
788.87	0.048
789.31	0.046
789.75	0.047
790.18	0.043
790.62	0.045
791.06	0.049
791.49	0.044
791.93	0.043
792.37	0.044
792.80	0.047
793.24	0.045
793.68	0.045
794.11	0.046
794.55	0.042
794.99	0.047
795.42	0.043
795.86	0.045
796.30	0.046
796.73	0.044
797.17	0.046
797.61	0.046
798.04	0.042
798.48	0.044
798.91	0.044
799.35	0.043
799.79	0.047
800.22	0.042
800.66	0.041
801.10	0.047
801.53	0.043
801.97	0.044
802.40	0.047
802.84	0.044
803.28	0.043
803.71	0.043
804.15	0.041
804.58	0.046
805.02	0.041
805.46	0.043
805.89	0.043
806.33	0.043
806.76	0.045
807.20	0.044
807.63	0.044
808.07	0.050
808.51	0.041
808.94	0.042
809.38	0.046
809.81	0.041
810.25	0.042
810.68	0.050
811.12	0.045
811.55	0.042
811.99	0.043
812.42	0.042
812.86	0.044
813.29	0.040
813.73	0.042
814.17	0.041
814.60	0.045
815.04	0.042
815.47	0.047
815.91	0.047
816.34	0.046
816.78	0.045
817.21	0.041
817.65	0.044
