SpectraSuite Data File
++++++++++++++++++++++++++++++++++++
Date: Tue Jul 11 15:39:32 CEST 2017
User: IPCE
Dark Spectrum Present: Yes
Reference Spectrum Present: Yes
Number of Sampled Component Spectra: 1
Spectrometers: HR+C0708
Integration Time (usec): 1000 (HR+C0708)
Spectra Averaged: 10 (HR+C0708)
Boxcar Smoothing: 0 (HR+C0708)
Correct for Electrical Dark: No (HR+C0708)
Strobe/Lamp Enabled: No (HR+C0708)
Correct for Detector Non-linearity: No (HR+C0708)
Correct for Stray Light: No (HR+C0708)
Number of Pixels in Processed Spectrum: 2048
>>>>>Begin Processed Spectral Data<<<<<
188.76	0.342
189.23	0.201
189.70	0.088
190.17	0.236
190.64	-0.000
191.12	0.292
191.59	0.659
192.06	0.891
192.53	0.155
193.01	-0.000
193.48	-0.000
193.95	0.194
194.42	0.530
194.90	2.104
195.37	0.006
195.84	-0.074
196.31	0.461
196.78	0.171
197.26	0.042
197.73	0.934
198.20	0.253
198.67	0.240
199.14	0.233
199.62	0.193
200.09	-0.000
200.56	0.418
201.03	0.130
201.50	0.485
201.97	0.394
202.45	0.533
202.92	0.414
203.39	0.518
203.86	0.463
204.33	0.427
204.80	0.545
205.28	0.721
205.75	0.385
206.22	0.464
206.69	0.399
207.16	0.380
207.63	0.393
208.11	0.568
208.58	0.365
209.05	0.435
209.52	0.437
209.99	0.305
210.46	0.415
210.93	0.349
211.41	0.469
211.88	0.358
212.35	0.514
212.82	0.267
213.29	0.253
213.76	0.434
214.23	0.371
214.70	0.332
215.18	0.399
215.65	0.392
216.12	0.345
216.59	0.374
217.06	0.572
217.53	0.416
218.00	0.413
218.47	0.637
218.94	0.330
219.41	0.430
219.89	0.532
220.36	0.467
220.83	0.555
221.30	0.401
221.77	0.395
222.24	0.572
222.71	0.725
223.18	0.465
223.65	0.583
224.12	0.701
224.59	0.468
225.06	0.623
225.54	0.736
226.01	0.787
226.48	0.755
226.95	0.678
227.42	0.929
227.89	0.903
228.36	0.754
228.83	1.053
229.30	1.116
229.77	0.955
230.24	1.055
230.71	1.280
231.18	1.143
231.65	1.292
232.12	1.442
232.59	1.405
233.06	1.432
233.53	1.370
234.00	1.667
234.47	1.622
234.94	1.594
235.41	1.800
235.88	1.865
236.35	1.623
236.82	1.813
237.29	1.784
237.76	1.859
238.23	1.912
238.70	1.920
239.17	2.143
239.64	2.085
240.11	2.032
240.58	2.052
241.05	2.192
241.52	2.062
241.99	2.193
242.46	2.048
242.93	2.275
243.40	2.141
243.87	2.300
244.34	2.396
244.81	2.249
245.28	2.069
245.75	2.352
246.22	2.296
246.69	2.289
247.16	2.386
247.63	2.249
248.10	2.365
248.57	2.326
249.04	2.251
249.51	2.399
249.98	2.282
250.45	2.437
250.92	2.489
251.39	2.352
251.85	2.328
252.32	2.438
252.79	2.140
253.26	2.177
253.73	2.143
254.20	1.999
254.67	2.005
255.14	1.908
255.61	1.890
256.08	1.925
256.55	1.857
257.02	1.777
257.49	1.769
257.95	1.718
258.42	1.702
258.89	1.662
259.36	1.630
259.83	1.632
260.30	1.601
260.77	1.567
261.24	1.558
261.71	1.532
262.17	1.518
262.64	1.501
263.11	1.460
263.58	1.457
264.05	1.435
264.52	1.427
264.99	1.417
265.46	1.386
265.92	1.371
266.39	1.365
266.86	1.342
267.33	1.317
267.80	1.320
268.27	1.300
268.74	1.284
269.20	1.273
269.67	1.268
270.14	1.265
270.61	1.247
271.08	1.232
271.55	1.240
272.01	1.207
272.48	1.207
272.95	1.207
273.42	1.182
273.89	1.183
274.36	1.172
274.82	1.161
275.29	1.155
275.76	1.137
276.23	1.149
276.70	1.135
277.16	1.127
277.63	1.121
278.10	1.120
278.57	1.115
279.04	1.102
279.50	1.110
279.97	1.105
280.44	1.091
280.91	1.096
281.38	1.081
281.84	1.083
282.31	1.076
282.78	1.079
283.25	1.078
283.72	1.079
284.18	1.070
284.65	1.071
285.12	1.063
285.59	1.067
286.05	1.059
286.52	1.062
286.99	1.067
287.46	1.061
287.92	1.055
288.39	1.065
288.86	1.051
289.33	1.052
289.79	1.055
290.26	1.051
290.73	1.049
291.20	1.039
291.66	1.040
292.13	1.034
292.60	1.026
293.07	1.028
293.53	1.025
294.00	1.017
294.47	1.010
294.93	1.006
295.40	0.997
295.87	0.983
296.34	0.977
296.80	0.969
297.27	0.962
297.74	0.954
298.20	0.947
298.67	0.937
299.14	0.927
299.60	0.914
300.07	0.912
300.54	0.899
301.01	0.888
301.47	0.883
301.94	0.870
302.41	0.865
302.87	0.849
303.34	0.841
303.81	0.833
304.27	0.831
304.74	0.824
305.21	0.822
305.67	0.809
306.14	0.794
306.61	0.791
307.07	0.785
307.54	0.781
308.01	0.768
308.47	0.767
308.94	0.765
309.40	0.757
309.87	0.751
310.34	0.751
310.80	0.747
311.27	0.730
311.74	0.734
312.20	0.726
312.67	0.728
313.13	0.723
313.60	0.721
314.07	0.716
314.53	0.709
315.00	0.706
315.47	0.708
315.93	0.699
316.40	0.702
316.86	0.697
317.33	0.695
317.80	0.686
318.26	0.688
318.73	0.686
319.19	0.678
319.66	0.680
320.13	0.675
320.59	0.673
321.06	0.668
321.52	0.668
321.99	0.670
322.45	0.663
322.92	0.661
323.39	0.653
323.85	0.656
324.32	0.655
324.78	0.650
325.25	0.642
325.71	0.644
326.18	0.640
326.64	0.637
327.11	0.634
327.58	0.630
328.04	0.627
328.51	0.622
328.97	0.622
329.44	0.614
329.90	0.610
330.37	0.611
330.83	0.607
331.30	0.604
331.76	0.599
332.23	0.597
332.69	0.592
333.16	0.590
333.62	0.588
334.09	0.579
334.56	0.577
335.02	0.575
335.49	0.569
335.95	0.571
336.42	0.568
336.88	0.566
337.35	0.564
337.81	0.567
338.28	0.561
338.74	0.560
339.20	0.556
339.67	0.551
340.13	0.548
340.60	0.555
341.06	0.543
341.53	0.550
341.99	0.548
342.46	0.545
342.92	0.544
343.39	0.544
343.85	0.543
344.32	0.538
344.78	0.539
345.25	0.537
345.71	0.534
346.17	0.531
346.64	0.531
347.10	0.529
347.57	0.526
348.03	0.525
348.50	0.516
348.96	0.508
349.43	0.516
349.89	0.503
350.35	0.504
350.82	0.498
351.28	0.496
351.75	0.488
352.21	0.485
352.67	0.480
353.14	0.474
353.60	0.459
354.07	0.456
354.53	0.449
355.00	0.446
355.46	0.433
355.92	0.423
356.39	0.420
356.85	0.401
357.31	0.395
357.78	0.395
358.24	0.379
358.71	0.365
359.17	0.355
359.63	0.340
360.10	0.325
360.56	0.311
361.03	0.297
361.49	0.286
361.95	0.268
362.42	0.250
362.88	0.237
363.34	0.224
363.81	0.208
364.27	0.194
364.73	0.183
365.20	0.171
365.66	0.162
366.12	0.148
366.59	0.141
367.05	0.132
367.51	0.128
367.98	0.118
368.44	0.117
368.90	0.113
369.37	0.110
369.83	0.104
370.29	0.102
370.76	0.102
371.22	0.099
371.68	0.095
372.15	0.093
372.61	0.093
373.07	0.091
373.54	0.089
374.00	0.088
374.46	0.093
374.92	0.084
375.39	0.087
375.85	0.087
376.31	0.086
376.78	0.085
377.24	0.082
377.70	0.084
378.16	0.084
378.63	0.082
379.09	0.081
379.55	0.081
380.01	0.081
380.48	0.080
380.94	0.081
381.40	0.079
381.87	0.075
382.33	0.078
382.79	0.078
383.25	0.078
383.72	0.078
384.18	0.077
384.64	0.074
385.10	0.074
385.56	0.074
386.03	0.073
386.49	0.074
386.95	0.075
387.41	0.075
387.88	0.074
388.34	0.073
388.80	0.074
389.26	0.071
389.72	0.074
390.19	0.075
390.65	0.074
391.11	0.074
391.57	0.071
392.04	0.072
392.50	0.072
392.96	0.071
393.42	0.070
393.88	0.075
394.34	0.073
394.81	0.070
395.27	0.066
395.73	0.066
396.19	0.070
396.65	0.070
397.12	0.068
397.58	0.067
398.04	0.070
398.50	0.068
398.96	0.067
399.42	0.066
399.89	0.068
400.35	0.065
400.81	0.066
401.27	0.069
401.73	0.063
402.19	0.066
402.65	0.067
403.12	0.064
403.58	0.064
404.04	0.060
404.50	0.063
404.96	0.064
405.42	0.063
405.88	0.062
406.34	0.062
406.81	0.061
407.27	0.062
407.73	0.062
408.19	0.061
408.65	0.059
409.11	0.061
409.57	0.061
410.03	0.060
410.49	0.061
410.96	0.059
411.42	0.061
411.88	0.059
412.34	0.057
412.80	0.058
413.26	0.059
413.72	0.055
414.18	0.059
414.64	0.057
415.10	0.056
415.56	0.058
416.02	0.054
416.48	0.056
416.95	0.054
417.41	0.054
417.87	0.052
418.33	0.055
418.79	0.054
419.25	0.057
419.71	0.057
420.17	0.056
420.63	0.054
421.09	0.055
421.55	0.056
422.01	0.050
422.47	0.053
422.93	0.055
423.39	0.053
423.85	0.054
424.31	0.053
424.77	0.051
425.23	0.053
425.69	0.055
426.15	0.055
426.61	0.056
427.07	0.052
427.53	0.053
427.99	0.055
428.45	0.053
428.91	0.050
429.37	0.053
429.83	0.052
430.29	0.053
430.75	0.050
431.21	0.050
431.67	0.054
432.13	0.050
432.59	0.051
433.05	0.051
433.51	0.052
433.97	0.051
434.43	0.050
434.89	0.052
435.35	0.053
435.81	0.050
436.27	0.050
436.73	0.051
437.19	0.051
437.65	0.049
438.11	0.050
438.57	0.052
439.03	0.047
439.48	0.050
439.94	0.049
440.40	0.049
440.86	0.051
441.32	0.048
441.78	0.052
442.24	0.045
442.70	0.048
443.16	0.050
443.62	0.047
444.08	0.050
444.54	0.049
444.99	0.048
445.45	0.045
445.91	0.049
446.37	0.049
446.83	0.045
447.29	0.048
447.75	0.050
448.21	0.048
448.67	0.047
449.12	0.044
449.58	0.046
450.04	0.046
450.50	0.044
450.96	0.046
451.42	0.048
451.88	0.048
452.34	0.047
452.79	0.045
453.25	0.049
453.71	0.043
454.17	0.046
454.63	0.049
455.09	0.050
455.55	0.046
456.00	0.048
456.46	0.045
456.92	0.046
457.38	0.050
457.84	0.047
458.30	0.046
458.75	0.047
459.21	0.046
459.67	0.047
460.13	0.048
460.59	0.049
461.04	0.045
461.50	0.045
461.96	0.047
462.42	0.048
462.88	0.046
463.33	0.045
463.79	0.049
464.25	0.047
464.71	0.047
465.17	0.049
465.62	0.046
466.08	0.048
466.54	0.047
467.00	0.047
467.46	0.047
467.91	0.048
468.37	0.048
468.83	0.047
469.29	0.047
469.74	0.048
470.20	0.048
470.66	0.046
471.12	0.048
471.57	0.047
472.03	0.048
472.49	0.048
472.95	0.047
473.40	0.048
473.86	0.047
474.32	0.046
474.78	0.046
475.23	0.047
475.69	0.045
476.15	0.051
476.60	0.047
477.06	0.047
477.52	0.047
477.98	0.048
478.43	0.047
478.89	0.050
479.35	0.045
479.80	0.047
480.26	0.045
480.72	0.047
481.18	0.047
481.63	0.046
482.09	0.048
482.55	0.048
483.00	0.047
483.46	0.047
483.92	0.047
484.37	0.049
484.83	0.046
485.29	0.048
485.74	0.048
486.20	0.047
486.66	0.047
487.11	0.048
487.57	0.050
488.03	0.049
488.48	0.046
488.94	0.048
489.40	0.046
489.85	0.046
490.31	0.046
490.77	0.050
491.22	0.047
491.68	0.047
492.13	0.048
492.59	0.048
493.05	0.046
493.50	0.045
493.96	0.047
494.42	0.049
494.87	0.048
495.33	0.047
495.78	0.047
496.24	0.047
496.70	0.048
497.15	0.047
497.61	0.047
498.06	0.050
498.52	0.048
498.98	0.048
499.43	0.044
499.89	0.046
500.34	0.045
500.80	0.048
501.25	0.048
501.71	0.047
502.17	0.049
502.62	0.047
503.08	0.047
503.53	0.047
503.99	0.048
504.44	0.047
504.90	0.046
505.36	0.045
505.81	0.045
506.27	0.046
506.72	0.046
507.18	0.046
507.63	0.046
508.09	0.047
508.54	0.046
509.00	0.047
509.45	0.046
509.91	0.047
510.36	0.048
510.82	0.049
511.27	0.046
511.73	0.047
512.19	0.043
512.64	0.048
513.10	0.047
513.55	0.045
514.01	0.045
514.46	0.045
514.92	0.044
515.37	0.046
515.83	0.042
516.28	0.047
516.73	0.045
517.19	0.043
517.64	0.043
518.10	0.047
518.55	0.045
519.01	0.044
519.46	0.044
519.92	0.041
520.37	0.046
520.83	0.046
521.28	0.047
521.74	0.044
522.19	0.046
522.65	0.045
523.10	0.047
523.55	0.044
524.01	0.047
524.46	0.046
524.92	0.044
525.37	0.046
525.83	0.047
526.28	0.045
526.73	0.045
527.19	0.046
527.64	0.047
528.10	0.046
528.55	0.047
529.01	0.045
529.46	0.049
529.91	0.045
530.37	0.045
530.82	0.046
531.28	0.048
531.73	0.047
532.18	0.047
532.64	0.047
533.09	0.048
533.54	0.048
534.00	0.046
534.45	0.051
534.91	0.048
535.36	0.051
535.81	0.048
536.27	0.050
536.72	0.046
537.17	0.049
537.63	0.051
538.08	0.051
538.54	0.049
538.99	0.050
539.44	0.053
539.90	0.051
540.35	0.049
540.80	0.050
541.26	0.050
541.71	0.052
542.16	0.052
542.62	0.052
543.07	0.052
543.52	0.052
543.98	0.053
544.43	0.054
544.88	0.054
545.34	0.055
545.79	0.055
546.24	0.055
546.69	0.053
547.15	0.053
547.60	0.058
548.05	0.056
548.51	0.056
548.96	0.058
549.41	0.059
549.86	0.059
550.32	0.058
550.77	0.059
551.22	0.060
551.68	0.060
552.13	0.059
552.58	0.063
553.03	0.060
553.49	0.062
553.94	0.060
554.39	0.063
554.84	0.065
555.30	0.064
555.75	0.064
556.20	0.065
556.65	0.064
557.11	0.068
557.56	0.067
558.01	0.067
558.46	0.069
558.92	0.069
559.37	0.069
559.82	0.071
560.27	0.070
560.72	0.071
561.18	0.070
561.63	0.073
562.08	0.074
562.53	0.071
562.99	0.071
563.44	0.075
563.89	0.075
564.34	0.076
564.79	0.076
565.25	0.077
565.70	0.076
566.15	0.080
566.60	0.079
567.05	0.081
567.50	0.083
567.96	0.084
568.41	0.084
568.86	0.084
569.31	0.083
569.76	0.084
570.21	0.083
570.67	0.085
571.12	0.087
571.57	0.087
572.02	0.090
572.47	0.091
572.92	0.090
573.37	0.091
573.83	0.092
574.28	0.091
574.73	0.091
575.18	0.094
575.63	0.097
576.08	0.094
576.53	0.096
576.98	0.098
577.44	0.098
577.89	0.098
578.34	0.101
578.79	0.103
579.24	0.103
579.69	0.103
580.14	0.105
580.59	0.106
581.04	0.109
581.49	0.110
581.95	0.111
582.40	0.110
582.85	0.111
583.30	0.113
583.75	0.117
584.20	0.118
584.65	0.116
585.10	0.119
585.55	0.119
586.00	0.125
586.45	0.125
586.90	0.126
587.35	0.127
587.80	0.128
588.25	0.130
588.71	0.130
589.16	0.133
589.61	0.136
590.06	0.137
590.51	0.138
590.96	0.140
591.41	0.145
591.86	0.144
592.31	0.147
592.76	0.147
593.21	0.150
593.66	0.151
594.11	0.153
594.56	0.156
595.01	0.156
595.46	0.160
595.91	0.160
596.36	0.166
596.81	0.165
597.26	0.167
597.71	0.170
598.16	0.172
598.61	0.173
599.06	0.175
599.51	0.176
599.96	0.180
600.41	0.181
600.86	0.184
601.31	0.183
601.76	0.189
602.21	0.189
602.65	0.190
603.10	0.192
603.55	0.195
604.00	0.198
604.45	0.197
604.90	0.201
605.35	0.199
605.80	0.202
606.25	0.203
606.70	0.209
607.15	0.208
607.60	0.212
608.05	0.211
608.50	0.212
608.95	0.217
609.39	0.215
609.84	0.218
610.29	0.217
610.74	0.219
611.19	0.220
611.64	0.223
612.09	0.223
612.54	0.224
612.99	0.226
613.44	0.225
613.88	0.229
614.33	0.224
614.78	0.228
615.23	0.228
615.68	0.230
616.13	0.233
616.58	0.231
617.03	0.228
617.47	0.232
617.92	0.234
618.37	0.233
618.82	0.235
619.27	0.234
619.72	0.236
620.17	0.237
620.61	0.237
621.06	0.239
621.51	0.238
621.96	0.238
622.41	0.241
622.86	0.237
623.30	0.241
623.75	0.240
624.20	0.242
624.65	0.244
625.10	0.243
625.54	0.244
625.99	0.246
626.44	0.246
626.89	0.245
627.34	0.247
627.78	0.249
628.23	0.251
628.68	0.253
629.13	0.256
629.58	0.252
630.02	0.254
630.47	0.257
630.92	0.261
631.37	0.262
631.81	0.261
632.26	0.265
632.71	0.266
633.16	0.270
633.61	0.269
634.05	0.271
634.50	0.274
634.95	0.275
635.40	0.277
635.84	0.281
636.29	0.281
636.74	0.285
637.18	0.287
637.63	0.290
638.08	0.291
638.53	0.296
638.97	0.297
639.42	0.302
639.87	0.304
640.32	0.307
640.76	0.310
641.21	0.313
641.66	0.317
642.10	0.318
642.55	0.321
643.00	0.325
643.44	0.327
643.89	0.331
644.34	0.335
644.79	0.337
645.23	0.340
645.68	0.346
646.13	0.346
646.57	0.350
647.02	0.353
647.47	0.353
647.91	0.361
648.36	0.365
648.81	0.369
649.25	0.369
649.70	0.371
650.15	0.375
650.59	0.376
651.04	0.383
651.48	0.385
651.93	0.390
652.38	0.393
652.82	0.394
653.27	0.396
653.72	0.398
654.16	0.400
654.61	0.406
655.06	0.408
655.50	0.410
655.95	0.410
656.39	0.415
656.84	0.415
657.29	0.416
657.73	0.420
658.18	0.422
658.62	0.425
659.07	0.426
659.52	0.430
659.96	0.431
660.41	0.431
660.85	0.431
661.30	0.433
661.74	0.436
662.19	0.439
662.64	0.439
663.08	0.440
663.53	0.441
663.97	0.440
664.42	0.441
664.86	0.439
665.31	0.440
665.75	0.440
666.20	0.439
666.65	0.438
667.09	0.436
667.54	0.435
667.98	0.434
668.43	0.431
668.87	0.431
669.32	0.427
669.76	0.424
670.21	0.420
670.65	0.418
671.10	0.413
671.54	0.408
671.99	0.406
672.43	0.399
672.88	0.393
673.32	0.388
673.77	0.380
674.21	0.376
674.66	0.367
675.10	0.361
675.55	0.356
675.99	0.349
676.44	0.341
676.88	0.334
677.33	0.324
677.77	0.316
678.22	0.311
678.66	0.302
679.11	0.294
679.55	0.285
679.99	0.278
680.44	0.269
680.88	0.263
681.33	0.256
681.77	0.245
682.22	0.238
682.66	0.227
683.11	0.222
683.55	0.214
683.99	0.207
684.44	0.198
684.88	0.190
685.33	0.184
685.77	0.179
686.21	0.173
686.66	0.165
687.10	0.157
687.55	0.150
687.99	0.149
688.44	0.141
688.88	0.136
689.32	0.130
689.77	0.123
690.21	0.120
690.65	0.116
691.10	0.109
691.54	0.106
691.99	0.101
692.43	0.096
692.87	0.093
693.32	0.090
693.76	0.088
694.20	0.085
694.65	0.083
695.09	0.079
695.53	0.077
695.98	0.071
696.42	0.068
696.86	0.065
697.31	0.065
697.75	0.062
698.19	0.060
698.64	0.060
699.08	0.056
699.52	0.054
699.97	0.056
700.41	0.053
700.85	0.050
701.30	0.050
701.74	0.046
702.18	0.047
702.63	0.044
703.07	0.043
703.51	0.041
703.96	0.041
704.40	0.042
704.84	0.038
705.28	0.040
705.73	0.036
706.17	0.036
706.61	0.037
707.06	0.034
707.50	0.034
707.94	0.033
708.38	0.033
708.83	0.034
709.27	0.030
709.71	0.033
710.15	0.031
710.60	0.031
711.04	0.031
711.48	0.029
711.92	0.031
712.37	0.028
712.81	0.030
713.25	0.027
713.69	0.027
714.13	0.025
714.58	0.026
715.02	0.027
715.46	0.026
715.90	0.025
716.35	0.025
716.79	0.025
717.23	0.024
717.67	0.026
718.11	0.023
718.56	0.024
719.00	0.024
719.44	0.024
719.88	0.028
720.32	0.024
720.76	0.022
721.21	0.027
721.65	0.025
722.09	0.025
722.53	0.024
722.97	0.025
723.41	0.025
723.86	0.024
724.30	0.024
724.74	0.025
725.18	0.027
725.62	0.023
726.06	0.026
726.50	0.025
726.95	0.025
727.39	0.025
727.83	0.025
728.27	0.025
728.71	0.024
729.15	0.026
729.59	0.027
730.03	0.027
730.48	0.025
730.92	0.024
731.36	0.023
731.80	0.025
732.24	0.027
732.68	0.028
733.12	0.026
733.56	0.025
734.00	0.026
734.44	0.028
734.89	0.028
735.33	0.029
735.77	0.028
736.21	0.029
736.65	0.029
737.09	0.026
737.53	0.029
737.97	0.031
738.41	0.031
738.85	0.028
739.29	0.025
739.73	0.029
740.17	0.029
740.61	0.030
741.05	0.029
741.49	0.028
741.93	0.029
742.37	0.028
742.81	0.030
743.26	0.031
743.70	0.029
744.14	0.027
744.58	0.030
745.02	0.030
745.46	0.028
745.90	0.028
746.34	0.029
746.78	0.029
747.22	0.029
747.66	0.028
748.10	0.027
748.54	0.029
748.98	0.027
749.42	0.030
749.86	0.030
750.29	0.030
750.73	0.029
751.17	0.027
751.61	0.028
752.05	0.030
752.49	0.028
752.93	0.027
753.37	0.028
753.81	0.029
754.25	0.029
754.69	0.027
755.13	0.029
755.57	0.027
756.01	0.028
756.45	0.026
756.89	0.027
757.33	0.030
757.77	0.028
758.21	0.028
758.64	0.029
759.08	0.029
759.52	0.030
759.96	0.028
760.40	0.027
760.84	0.025
761.28	0.029
761.72	0.026
762.16	0.028
762.60	0.027
763.03	0.029
763.47	0.026
763.91	0.025
764.35	0.028
764.79	0.031
765.23	0.027
765.67	0.025
766.11	0.030
766.54	0.030
766.98	0.027
767.42	0.026
767.86	0.027
768.30	0.031
768.74	0.030
769.17	0.027
769.61	0.028
770.05	0.025
770.49	0.027
770.93	0.028
771.37	0.025
771.80	0.030
772.24	0.027
772.68	0.025
773.12	0.026
773.56	0.027
774.00	0.028
774.43	0.029
774.87	0.025
775.31	0.030
775.75	0.029
776.19	0.027
776.62	0.029
777.06	0.026
777.50	0.029
777.94	0.032
778.37	0.027
778.81	0.028
779.25	0.029
779.69	0.028
780.13	0.028
780.56	0.028
781.00	0.031
781.44	0.032
781.88	0.028
782.31	0.030
782.75	0.029
783.19	0.030
783.63	0.028
784.06	0.024
784.50	0.028
784.94	0.029
785.37	0.030
785.81	0.028
786.25	0.027
786.69	0.029
787.12	0.028
787.56	0.028
788.00	0.025
788.43	0.026
788.87	0.029
789.31	0.026
789.75	0.032
790.18	0.025
790.62	0.029
791.06	0.030
791.49	0.027
791.93	0.029
792.37	0.023
792.80	0.027
793.24	0.028
793.68	0.024
794.11	0.030
794.55	0.022
794.99	0.027
795.42	0.027
795.86	0.027
796.30	0.027
796.73	0.024
797.17	0.029
797.61	0.026
798.04	0.024
798.48	0.025
798.91	0.028
799.35	0.025
799.79	0.027
800.22	0.025
800.66	0.025
801.10	0.026
801.53	0.030
801.97	0.023
802.40	0.026
802.84	0.029
803.28	0.029
803.71	0.026
804.15	0.028
804.58	0.025
805.02	0.023
805.46	0.025
805.89	0.027
806.33	0.029
806.76	0.029
807.20	0.030
807.63	0.029
808.07	0.034
808.51	0.027
808.94	0.029
809.38	0.030
809.81	0.026
810.25	0.028
810.68	0.029
811.12	0.029
811.55	0.027
811.99	0.028
812.42	0.026
812.86	0.028
813.29	0.027
813.73	0.027
814.17	0.028
814.60	0.026
815.04	0.025
815.47	0.026
815.91	0.029
816.34	0.025
816.78	0.027
817.21	0.024
817.65	0.029
818.08	0.033
