SpectraSuite Data File
++++++++++++++++++++++++++++++++++++
Date: Tue Jul 11 15:49:32 CEST 2017
User: IPCE
Dark Spectrum Present: Yes
Reference Spectrum Present: Yes
Number of Sampled Component Spectra: 1
Spectrometers: HR+C0708
Integration Time (usec): 1000 (HR+C0708)
Spectra Averaged: 10 (HR+C0708)
Boxcar Smoothing: 0 (HR+C0708)
Correct for Electrical Dark: No (HR+C0708)
Strobe/Lamp Enabled: No (HR+C0708)
Correct for Detector Non-linearity: No (HR+C0708)
Correct for Stray Light: No (HR+C0708)
Number of Pixels in Processed Spectrum: 2048
>>>>>Begin Processed Spectral Data<<<<<
188.76	-0.123
189.23	-0.034
189.70	-0.289
190.17	0.123
190.64	-0.000
191.12	0.224
191.59	0.049
192.06	0.368
192.53	0.198
193.01	1.086
193.48	-0.000
193.95	0.349
194.42	0.168
194.90	-0.039
195.37	-0.009
195.84	1.574
196.31	0.425
196.78	-0.043
197.26	0.225
197.73	0.137
198.20	0.348
198.67	0.132
199.14	0.167
199.62	0.389
200.09	0.485
200.56	0.260
201.03	0.156
201.50	0.212
201.97	0.142
202.45	0.366
202.92	0.327
203.39	0.266
203.86	0.235
204.33	0.305
204.80	0.339
205.28	0.298
205.75	0.244
206.22	0.274
206.69	0.319
207.16	0.225
207.63	0.355
208.11	0.443
208.58	0.261
209.05	0.411
209.52	0.453
209.99	0.338
210.46	0.286
210.93	0.359
211.41	0.448
211.88	0.173
212.35	0.339
212.82	0.458
213.29	0.361
213.76	0.365
214.23	0.181
214.70	0.314
215.18	0.359
215.65	0.189
216.12	0.311
216.59	0.260
217.06	0.482
217.53	0.305
218.00	0.479
218.47	0.504
218.94	0.195
219.41	0.333
219.89	0.411
220.36	0.374
220.83	0.332
221.30	0.506
221.77	0.352
222.24	0.383
222.71	0.542
223.18	0.473
223.65	0.426
224.12	0.400
224.59	0.524
225.06	0.508
225.54	0.450
226.01	0.623
226.48	0.687
226.95	0.621
227.42	0.764
227.89	0.879
228.36	0.984
228.83	0.882
229.30	0.893
229.77	0.958
230.24	1.201
230.71	1.048
231.18	1.007
231.65	1.294
232.12	1.476
232.59	1.299
233.06	1.441
233.53	1.573
234.00	1.609
234.47	1.359
234.94	1.552
235.41	1.694
235.88	1.683
236.35	1.510
236.82	1.722
237.29	1.747
237.76	1.698
238.23	1.742
238.70	1.820
239.17	1.875
239.64	1.899
240.11	1.931
240.58	1.989
241.05	2.105
241.52	1.990
241.99	2.204
242.46	2.052
242.93	2.037
243.40	2.217
243.87	2.190
244.34	2.143
244.81	2.088
245.28	2.148
245.75	2.274
246.22	2.108
246.69	2.175
247.16	2.378
247.63	2.222
248.10	2.211
248.57	2.145
249.04	2.152
249.51	2.229
249.98	2.146
250.45	2.720
250.92	2.228
251.39	2.120
251.85	2.138
252.32	2.115
252.79	1.881
253.26	1.876
253.73	1.889
254.20	1.700
254.67	1.665
255.14	1.590
255.61	1.551
256.08	1.495
256.55	1.460
257.02	1.422
257.49	1.394
257.95	1.333
258.42	1.313
258.89	1.277
259.36	1.244
259.83	1.222
260.30	1.185
260.77	1.174
261.24	1.148
261.71	1.121
262.17	1.097
262.64	1.088
263.11	1.056
263.58	1.049
264.05	1.019
264.52	1.010
264.99	0.992
265.46	0.982
265.92	0.967
266.39	0.950
266.86	0.934
267.33	0.928
267.80	0.915
268.27	0.901
268.74	0.889
269.20	0.887
269.67	0.873
270.14	0.859
270.61	0.855
271.08	0.843
271.55	0.836
272.01	0.826
272.48	0.819
272.95	0.814
273.42	0.803
273.89	0.797
274.36	0.790
274.82	0.784
275.29	0.777
275.76	0.775
276.23	0.768
276.70	0.760
277.16	0.755
277.63	0.752
278.10	0.743
278.57	0.743
279.04	0.744
279.50	0.737
279.97	0.735
280.44	0.731
280.91	0.726
281.38	0.729
281.84	0.724
282.31	0.724
282.78	0.725
283.25	0.718
283.72	0.716
284.18	0.717
284.65	0.716
285.12	0.713
285.59	0.714
286.05	0.716
286.52	0.713
286.99	0.710
287.46	0.714
287.92	0.714
288.39	0.710
288.86	0.709
289.33	0.714
289.79	0.712
290.26	0.709
290.73	0.706
291.20	0.706
291.66	0.702
292.13	0.694
292.60	0.692
293.07	0.692
293.53	0.681
294.00	0.680
294.47	0.673
294.93	0.666
295.40	0.661
295.87	0.653
296.34	0.646
296.80	0.636
297.27	0.626
297.74	0.623
298.20	0.614
298.67	0.603
299.14	0.596
299.60	0.587
300.07	0.582
300.54	0.569
301.01	0.562
301.47	0.558
301.94	0.545
302.41	0.535
302.87	0.529
303.34	0.524
303.81	0.516
304.27	0.510
304.74	0.503
305.21	0.502
305.67	0.488
306.14	0.479
306.61	0.475
307.07	0.474
307.54	0.465
308.01	0.458
308.47	0.455
308.94	0.447
309.40	0.447
309.87	0.441
310.34	0.434
310.80	0.433
311.27	0.425
311.74	0.425
312.20	0.417
312.67	0.419
313.13	0.420
313.60	0.414
314.07	0.411
314.53	0.407
315.00	0.411
315.47	0.404
315.93	0.398
316.40	0.399
316.86	0.397
317.33	0.392
317.80	0.389
318.26	0.391
318.73	0.388
319.19	0.384
319.66	0.384
320.13	0.379
320.59	0.379
321.06	0.376
321.52	0.377
321.99	0.375
322.45	0.373
322.92	0.369
323.39	0.366
323.85	0.367
324.32	0.364
324.78	0.363
325.25	0.359
325.71	0.357
326.18	0.354
326.64	0.352
327.11	0.350
327.58	0.347
328.04	0.346
328.51	0.343
328.97	0.342
329.44	0.341
329.90	0.339
330.37	0.338
330.83	0.333
331.30	0.329
331.76	0.329
332.23	0.324
332.69	0.320
333.16	0.324
333.62	0.318
334.09	0.315
334.56	0.314
335.02	0.314
335.49	0.309
335.95	0.305
336.42	0.304
336.88	0.301
337.35	0.300
337.81	0.302
338.28	0.298
338.74	0.296
339.20	0.295
339.67	0.296
340.13	0.292
340.60	0.291
341.06	0.290
341.53	0.286
341.99	0.286
342.46	0.284
342.92	0.286
343.39	0.285
343.85	0.278
344.32	0.281
344.78	0.281
345.25	0.278
345.71	0.280
346.17	0.275
346.64	0.276
347.10	0.280
347.57	0.276
348.03	0.271
348.50	0.271
348.96	0.264
349.43	0.266
349.89	0.263
350.35	0.266
350.82	0.260
351.28	0.258
351.75	0.255
352.21	0.254
352.67	0.247
353.14	0.245
353.60	0.243
354.07	0.235
354.53	0.233
355.00	0.231
355.46	0.229
355.92	0.222
356.39	0.222
356.85	0.213
357.31	0.213
357.78	0.205
358.24	0.198
358.71	0.195
359.17	0.188
359.63	0.179
360.10	0.173
360.56	0.170
361.03	0.161
361.49	0.158
361.95	0.149
362.42	0.139
362.88	0.136
363.34	0.128
363.81	0.122
364.27	0.116
364.73	0.113
365.20	0.103
365.66	0.100
366.12	0.092
366.59	0.092
367.05	0.089
367.51	0.083
367.98	0.077
368.44	0.081
368.90	0.077
369.37	0.076
369.83	0.074
370.29	0.072
370.76	0.073
371.22	0.072
371.68	0.072
372.15	0.066
372.61	0.068
373.07	0.067
373.54	0.068
374.00	0.067
374.46	0.066
374.92	0.062
375.39	0.066
375.85	0.067
376.31	0.064
376.78	0.065
377.24	0.065
377.70	0.064
378.16	0.063
378.63	0.062
379.09	0.063
379.55	0.062
380.01	0.061
380.48	0.062
380.94	0.063
381.40	0.060
381.87	0.059
382.33	0.060
382.79	0.059
383.25	0.058
383.72	0.062
384.18	0.060
384.64	0.058
385.10	0.057
385.56	0.058
386.03	0.058
386.49	0.059
386.95	0.056
387.41	0.057
387.88	0.057
388.34	0.058
388.80	0.057
389.26	0.057
389.72	0.056
390.19	0.058
390.65	0.058
391.11	0.058
391.57	0.058
392.04	0.056
392.50	0.054
392.96	0.053
393.42	0.054
393.88	0.059
394.34	0.056
394.81	0.056
395.27	0.052
395.73	0.052
396.19	0.056
396.65	0.055
397.12	0.054
397.58	0.053
398.04	0.052
398.50	0.054
398.96	0.053
399.42	0.052
399.89	0.053
400.35	0.050
400.81	0.052
401.27	0.053
401.73	0.050
402.19	0.052
402.65	0.051
403.12	0.049
403.58	0.050
404.04	0.050
404.50	0.049
404.96	0.049
405.42	0.049
405.88	0.049
406.34	0.049
406.81	0.048
407.27	0.049
407.73	0.049
408.19	0.045
408.65	0.045
409.11	0.048
409.57	0.046
410.03	0.048
410.49	0.045
410.96	0.045
411.42	0.048
411.88	0.046
412.34	0.046
412.80	0.047
413.26	0.044
413.72	0.043
414.18	0.045
414.64	0.044
415.10	0.045
415.56	0.047
416.02	0.041
416.48	0.042
416.95	0.044
417.41	0.043
417.87	0.042
418.33	0.042
418.79	0.045
419.25	0.043
419.71	0.043
420.17	0.042
420.63	0.043
421.09	0.042
421.55	0.043
422.01	0.037
422.47	0.043
422.93	0.043
423.39	0.042
423.85	0.045
424.31	0.044
424.77	0.041
425.23	0.040
425.69	0.044
426.15	0.042
426.61	0.044
427.07	0.042
427.53	0.043
427.99	0.044
428.45	0.043
428.91	0.042
429.37	0.042
429.83	0.041
430.29	0.042
430.75	0.042
431.21	0.041
431.67	0.045
432.13	0.041
432.59	0.040
433.05	0.039
433.51	0.042
433.97	0.044
434.43	0.041
434.89	0.039
435.35	0.041
435.81	0.038
436.27	0.040
436.73	0.038
437.19	0.043
437.65	0.038
438.11	0.040
438.57	0.042
439.03	0.039
439.48	0.040
439.94	0.038
440.40	0.039
440.86	0.041
441.32	0.041
441.78	0.041
442.24	0.036
442.70	0.037
443.16	0.038
443.62	0.037
444.08	0.039
444.54	0.042
444.99	0.038
445.45	0.038
445.91	0.039
446.37	0.042
446.83	0.038
447.29	0.039
447.75	0.039
448.21	0.040
448.67	0.039
449.12	0.036
449.58	0.036
450.04	0.037
450.50	0.036
450.96	0.036
451.42	0.038
451.88	0.043
452.34	0.038
452.79	0.038
453.25	0.038
453.71	0.036
454.17	0.039
454.63	0.041
455.09	0.037
455.55	0.038
456.00	0.037
456.46	0.039
456.92	0.038
457.38	0.043
457.84	0.038
458.30	0.040
458.75	0.039
459.21	0.038
459.67	0.039
460.13	0.038
460.59	0.041
461.04	0.039
461.50	0.038
461.96	0.038
462.42	0.041
462.88	0.036
463.33	0.038
463.79	0.041
464.25	0.037
464.71	0.041
465.17	0.040
465.62	0.038
466.08	0.039
466.54	0.039
467.00	0.039
467.46	0.039
467.91	0.039
468.37	0.040
468.83	0.041
469.29	0.040
469.74	0.038
470.20	0.038
470.66	0.039
471.12	0.041
471.57	0.042
472.03	0.038
472.49	0.040
472.95	0.039
473.40	0.040
473.86	0.040
474.32	0.040
474.78	0.038
475.23	0.040
475.69	0.042
476.15	0.041
476.60	0.040
477.06	0.041
477.52	0.039
477.98	0.042
478.43	0.042
478.89	0.042
479.35	0.039
479.80	0.041
480.26	0.040
480.72	0.041
481.18	0.039
481.63	0.040
482.09	0.041
482.55	0.041
483.00	0.040
483.46	0.040
483.92	0.043
484.37	0.044
484.83	0.040
485.29	0.043
485.74	0.041
486.20	0.040
486.66	0.043
487.11	0.042
487.57	0.041
488.03	0.043
488.48	0.040
488.94	0.042
489.40	0.041
489.85	0.040
490.31	0.039
490.77	0.042
491.22	0.040
491.68	0.041
492.13	0.043
492.59	0.043
493.05	0.041
493.50	0.041
493.96	0.041
494.42	0.042
494.87	0.041
495.33	0.043
495.78	0.040
496.24	0.040
496.70	0.043
497.15	0.040
497.61	0.042
498.06	0.042
498.52	0.042
498.98	0.042
499.43	0.039
499.89	0.040
500.34	0.043
500.80	0.043
501.25	0.041
501.71	0.042
502.17	0.042
502.62	0.041
503.08	0.039
503.53	0.041
503.99	0.043
504.44	0.043
504.90	0.041
505.36	0.039
505.81	0.040
506.27	0.039
506.72	0.043
507.18	0.043
507.63	0.041
508.09	0.041
508.54	0.041
509.00	0.040
509.45	0.042
509.91	0.041
510.36	0.041
510.82	0.042
511.27	0.040
511.73	0.040
512.19	0.039
512.64	0.041
513.10	0.040
513.55	0.040
514.01	0.040
514.46	0.039
514.92	0.041
515.37	0.041
515.83	0.039
516.28	0.041
516.73	0.041
517.19	0.040
517.64	0.038
518.10	0.040
518.55	0.042
519.01	0.038
519.46	0.040
519.92	0.038
520.37	0.042
520.83	0.044
521.28	0.041
521.74	0.040
522.19	0.039
522.65	0.040
523.10	0.040
523.55	0.041
524.01	0.042
524.46	0.039
524.92	0.041
525.37	0.042
525.83	0.042
526.28	0.040
526.73	0.043
527.19	0.040
527.64	0.043
528.10	0.041
528.55	0.043
529.01	0.043
529.46	0.041
529.91	0.041
530.37	0.042
530.82	0.043
531.28	0.043
531.73	0.044
532.18	0.044
532.64	0.044
533.09	0.045
533.54	0.044
534.00	0.043
534.45	0.044
534.91	0.041
535.36	0.043
535.81	0.043
536.27	0.047
536.72	0.042
537.17	0.044
537.63	0.045
538.08	0.046
538.54	0.045
538.99	0.045
539.44	0.048
539.90	0.046
540.35	0.047
540.80	0.047
541.26	0.046
541.71	0.049
542.16	0.048
542.62	0.048
543.07	0.046
543.52	0.050
543.98	0.050
544.43	0.050
544.88	0.051
545.34	0.052
545.79	0.051
546.24	0.052
546.69	0.050
547.15	0.051
547.60	0.055
548.05	0.054
548.51	0.053
548.96	0.053
549.41	0.055
549.86	0.054
550.32	0.055
550.77	0.055
551.22	0.057
551.68	0.056
552.13	0.057
552.58	0.058
553.03	0.059
553.49	0.058
553.94	0.058
554.39	0.060
554.84	0.062
555.30	0.060
555.75	0.060
556.20	0.062
556.65	0.062
557.11	0.061
557.56	0.064
558.01	0.064
558.46	0.065
558.92	0.066
559.37	0.067
559.82	0.068
560.27	0.069
560.72	0.067
561.18	0.067
561.63	0.070
562.08	0.071
562.53	0.068
562.99	0.071
563.44	0.072
563.89	0.074
564.34	0.072
564.79	0.074
565.25	0.075
565.70	0.074
566.15	0.077
566.60	0.075
567.05	0.078
567.50	0.079
567.96	0.079
568.41	0.081
568.86	0.079
569.31	0.082
569.76	0.082
570.21	0.082
570.67	0.082
571.12	0.085
571.57	0.085
572.02	0.087
572.47	0.087
572.92	0.087
573.37	0.087
573.83	0.088
574.28	0.091
574.73	0.090
575.18	0.092
575.63	0.093
576.08	0.092
576.53	0.093
576.98	0.095
577.44	0.095
577.89	0.096
578.34	0.097
578.79	0.101
579.24	0.100
579.69	0.102
580.14	0.103
580.59	0.104
581.04	0.105
581.49	0.108
581.95	0.109
582.40	0.109
582.85	0.110
583.30	0.112
583.75	0.113
584.20	0.116
584.65	0.115
585.10	0.118
585.55	0.119
586.00	0.120
586.45	0.123
586.90	0.124
587.35	0.124
587.80	0.127
588.25	0.128
588.71	0.131
589.16	0.131
589.61	0.135
590.06	0.137
590.51	0.137
590.96	0.140
591.41	0.142
591.86	0.144
592.31	0.147
592.76	0.147
593.21	0.147
593.66	0.149
594.11	0.155
594.56	0.155
595.01	0.158
595.46	0.159
595.91	0.159
596.36	0.162
596.81	0.165
597.26	0.168
597.71	0.171
598.16	0.170
598.61	0.173
599.06	0.174
599.51	0.176
599.96	0.178
600.41	0.180
600.86	0.182
601.31	0.181
601.76	0.188
602.21	0.189
602.65	0.190
603.10	0.192
603.55	0.194
604.00	0.196
604.45	0.196
604.90	0.200
605.35	0.203
605.80	0.202
606.25	0.202
606.70	0.207
607.15	0.209
607.60	0.209
608.05	0.208
608.50	0.214
608.95	0.217
609.39	0.216
609.84	0.217
610.29	0.217
610.74	0.221
611.19	0.221
611.64	0.222
612.09	0.223
612.54	0.224
612.99	0.222
613.44	0.227
613.88	0.227
614.33	0.225
614.78	0.227
615.23	0.229
615.68	0.228
616.13	0.232
616.58	0.231
617.03	0.230
617.47	0.233
617.92	0.235
618.37	0.235
618.82	0.235
619.27	0.235
619.72	0.235
620.17	0.236
620.61	0.237
621.06	0.239
621.51	0.241
621.96	0.237
622.41	0.241
622.86	0.238
623.30	0.244
623.75	0.240
624.20	0.245
624.65	0.246
625.10	0.245
625.54	0.247
625.99	0.247
626.44	0.248
626.89	0.247
627.34	0.250
627.78	0.248
628.23	0.252
628.68	0.253
629.13	0.254
629.58	0.255
630.02	0.257
630.47	0.259
630.92	0.260
631.37	0.261
631.81	0.263
632.26	0.265
632.71	0.268
633.16	0.270
633.61	0.271
634.05	0.273
634.50	0.275
634.95	0.277
635.40	0.277
635.84	0.282
636.29	0.282
636.74	0.285
637.18	0.286
637.63	0.291
638.08	0.293
638.53	0.295
638.97	0.298
639.42	0.304
639.87	0.304
640.32	0.308
640.76	0.311
641.21	0.314
641.66	0.316
642.10	0.318
642.55	0.320
643.00	0.326
643.44	0.325
643.89	0.332
644.34	0.336
644.79	0.339
645.23	0.341
645.68	0.346
646.13	0.347
646.57	0.348
647.02	0.353
647.47	0.358
647.91	0.357
648.36	0.365
648.81	0.366
649.25	0.371
649.70	0.372
650.15	0.377
650.59	0.378
651.04	0.384
651.48	0.382
651.93	0.386
652.38	0.389
652.82	0.394
653.27	0.395
653.72	0.398
654.16	0.402
654.61	0.404
655.06	0.406
655.50	0.410
655.95	0.410
656.39	0.412
656.84	0.413
657.29	0.417
657.73	0.418
658.18	0.419
658.62	0.424
659.07	0.428
659.52	0.428
659.96	0.427
660.41	0.428
660.85	0.431
661.30	0.432
661.74	0.434
662.19	0.439
662.64	0.433
663.08	0.435
663.53	0.438
663.97	0.436
664.42	0.434
664.86	0.437
665.31	0.435
665.75	0.437
666.20	0.432
666.65	0.433
667.09	0.432
667.54	0.431
667.98	0.431
668.43	0.428
668.87	0.426
669.32	0.423
669.76	0.419
670.21	0.415
670.65	0.412
671.10	0.409
671.54	0.404
671.99	0.397
672.43	0.391
672.88	0.388
673.32	0.383
673.77	0.375
674.21	0.372
674.66	0.365
675.10	0.356
675.55	0.350
675.99	0.344
676.44	0.338
676.88	0.328
677.33	0.319
677.77	0.310
678.22	0.306
678.66	0.297
679.11	0.289
679.55	0.282
679.99	0.274
680.44	0.265
680.88	0.257
681.33	0.249
681.77	0.242
682.22	0.233
682.66	0.225
683.11	0.217
683.55	0.210
683.99	0.202
684.44	0.195
684.88	0.187
685.33	0.179
685.77	0.171
686.21	0.168
686.66	0.160
687.10	0.154
687.55	0.149
687.99	0.144
688.44	0.135
688.88	0.131
689.32	0.124
689.77	0.121
690.21	0.115
690.65	0.113
691.10	0.105
691.54	0.101
691.99	0.100
692.43	0.092
692.87	0.091
693.32	0.087
693.76	0.084
694.20	0.081
694.65	0.079
695.09	0.074
695.53	0.072
695.98	0.070
696.42	0.066
696.86	0.063
697.31	0.063
697.75	0.058
698.19	0.056
698.64	0.057
699.08	0.054
699.52	0.051
699.97	0.052
700.41	0.048
700.85	0.047
701.30	0.045
701.74	0.041
702.18	0.044
702.63	0.040
703.07	0.040
703.51	0.038
703.96	0.037
704.40	0.037
704.84	0.035
705.28	0.036
705.73	0.033
706.17	0.033
706.61	0.033
707.06	0.032
707.50	0.032
707.94	0.031
708.38	0.027
708.83	0.031
709.27	0.026
709.71	0.029
710.15	0.026
710.60	0.029
711.04	0.027
711.48	0.025
711.92	0.027
712.37	0.025
712.81	0.026
713.25	0.025
713.69	0.024
714.13	0.023
714.58	0.023
715.02	0.025
715.46	0.022
715.90	0.023
716.35	0.023
716.79	0.025
717.23	0.022
717.67	0.022
718.11	0.022
718.56	0.021
719.00	0.021
719.44	0.021
719.88	0.026
720.32	0.024
720.76	0.019
721.21	0.024
721.65	0.024
722.09	0.022
722.53	0.024
722.97	0.024
723.41	0.023
723.86	0.023
724.30	0.022
724.74	0.022
725.18	0.023
725.62	0.021
726.06	0.022
726.50	0.021
726.95	0.022
727.39	0.023
727.83	0.022
728.27	0.022
728.71	0.021
729.15	0.024
729.59	0.023
730.03	0.024
730.48	0.021
730.92	0.023
731.36	0.024
731.80	0.023
732.24	0.023
732.68	0.025
733.12	0.024
733.56	0.024
734.00	0.024
734.44	0.025
734.89	0.024
735.33	0.025
735.77	0.024
736.21	0.024
736.65	0.027
737.09	0.024
737.53	0.025
737.97	0.029
738.41	0.025
738.85	0.027
739.29	0.026
739.73	0.025
740.17	0.025
740.61	0.029
741.05	0.029
741.49	0.023
741.93	0.025
742.37	0.024
742.81	0.025
743.26	0.025
743.70	0.025
744.14	0.024
744.58	0.027
745.02	0.027
745.46	0.025
745.90	0.026
746.34	0.027
746.78	0.027
747.22	0.026
747.66	0.024
748.10	0.027
748.54	0.025
748.98	0.024
749.42	0.024
749.86	0.026
750.29	0.027
750.73	0.027
751.17	0.024
751.61	0.025
752.05	0.025
752.49	0.026
752.93	0.026
753.37	0.028
753.81	0.027
754.25	0.024
754.69	0.022
755.13	0.024
755.57	0.025
756.01	0.025
756.45	0.025
756.89	0.025
757.33	0.028
757.77	0.024
758.21	0.026
758.64	0.029
759.08	0.025
759.52	0.027
759.96	0.026
760.40	0.025
760.84	0.025
761.28	0.027
761.72	0.025
762.16	0.023
762.60	0.025
763.03	0.027
763.47	0.024
763.91	0.023
764.35	0.023
764.79	0.028
765.23	0.023
765.67	0.022
766.11	0.026
766.54	0.026
766.98	0.025
767.42	0.023
767.86	0.027
768.30	0.028
768.74	0.022
769.17	0.025
769.61	0.025
770.05	0.024
770.49	0.025
770.93	0.027
771.37	0.024
771.80	0.022
772.24	0.024
772.68	0.024
773.12	0.023
773.56	0.024
774.00	0.024
774.43	0.027
774.87	0.026
775.31	0.026
775.75	0.028
776.19	0.026
776.62	0.027
777.06	0.024
777.50	0.024
777.94	0.024
778.37	0.024
778.81	0.028
779.25	0.026
779.69	0.022
780.13	0.023
780.56	0.025
781.00	0.025
781.44	0.028
781.88	0.027
782.31	0.028
782.75	0.025
783.19	0.026
783.63	0.028
784.06	0.025
784.50	0.023
784.94	0.025
785.37	0.025
785.81	0.023
786.25	0.023
786.69	0.026
787.12	0.028
787.56	0.024
788.00	0.021
788.43	0.023
788.87	0.025
789.31	0.024
789.75	0.025
790.18	0.024
790.62	0.026
791.06	0.026
791.49	0.027
791.93	0.025
792.37	0.021
792.80	0.022
793.24	0.026
793.68	0.024
794.11	0.027
794.55	0.028
794.99	0.024
795.42	0.027
795.86	0.028
796.30	0.026
796.73	0.024
797.17	0.026
797.61	0.020
798.04	0.023
798.48	0.025
798.91	0.024
799.35	0.023
799.79	0.025
800.22	0.024
800.66	0.020
801.10	0.024
801.53	0.024
801.97	0.023
802.40	0.026
802.84	0.027
803.28	0.023
803.71	0.022
804.15	0.026
804.58	0.022
805.02	0.021
805.46	0.024
805.89	0.026
806.33	0.025
806.76	0.023
807.20	0.025
807.63	0.027
808.07	0.027
808.51	0.021
808.94	0.027
809.38	0.025
809.81	0.021
810.25	0.026
810.68	0.028
811.12	0.023
811.55	0.024
811.99	0.025
812.42	0.024
812.86	0.024
813.29	0.023
813.73	0.026
814.17	0.026
814.60	0.020
815.04	0.023
815.47	0.028
815.91	0.028
816.34	0.026
816.78	0.028
817.21	0.025
817.65	0.022
818.08	0.027
