SpectraSuite Data File
++++++++++++++++++++++++++++++++++++
Date: Tue Jul 11 15:43:32 CEST 2017
User: IPCE
Dark Spectrum Present: Yes
Reference Spectrum Present: Yes
Number of Sampled Component Spectra: 1
Spectrometers: HR+C0708
Integration Time (usec): 1000 (HR+C0708)
Spectra Averaged: 10 (HR+C0708)
Boxcar Smoothing: 0 (HR+C0708)
Correct for Electrical Dark: No (HR+C0708)
Strobe/Lamp Enabled: No (HR+C0708)
Correct for Detector Non-linearity: No (HR+C0708)
Correct for Stray Light: No (HR+C0708)
Number of Pixels in Processed Spectrum: 2048
>>>>>Begin Processed Spectral Data<<<<<
188.76	0.141
189.23	0.431
189.70	-0.000
190.17	0.220
190.64	-0.000
191.12	0.136
191.59	0.366
192.06	1.067
192.53	0.346
193.01	-0.134
193.48	-0.000
193.95	0.366
194.42	0.086
194.90	0.140
195.37	0.099
195.84	0.242
196.31	0.416
196.78	0.130
197.26	0.289
197.73	0.192
198.20	0.054
198.67	0.084
199.14	0.040
199.62	0.287
200.09	0.418
200.56	0.386
201.03	0.358
201.50	0.275
201.97	0.288
202.45	0.600
202.92	0.546
203.39	0.325
203.86	0.544
204.33	0.398
204.80	0.299
205.28	0.383
205.75	0.399
206.22	0.438
206.69	0.361
207.16	0.290
207.63	0.431
208.11	0.438
208.58	0.268
209.05	0.437
209.52	0.569
209.99	0.341
210.46	0.351
210.93	0.424
211.41	0.371
211.88	0.311
212.35	0.345
212.82	0.257
213.29	0.432
213.76	0.363
214.23	0.406
214.70	0.384
215.18	0.379
215.65	0.449
216.12	0.412
216.59	0.381
217.06	0.535
217.53	0.316
218.00	0.394
218.47	0.462
218.94	0.265
219.41	0.492
219.89	0.465
220.36	0.485
220.83	0.562
221.30	0.459
221.77	0.477
222.24	0.480
222.71	0.634
223.18	0.562
223.65	0.474
224.12	0.554
224.59	0.622
225.06	0.685
225.54	0.581
226.01	0.678
226.48	0.722
226.95	0.629
227.42	0.801
227.89	0.800
228.36	0.897
228.83	0.981
229.30	0.824
229.77	1.062
230.24	1.144
230.71	1.174
231.18	1.083
231.65	1.273
232.12	1.460
232.59	1.299
233.06	1.484
233.53	1.421
234.00	1.503
234.47	1.598
234.94	1.693
235.41	1.684
235.88	1.736
236.35	1.699
236.82	1.779
237.29	1.742
237.76	1.898
238.23	1.883
238.70	1.929
239.17	1.907
239.64	1.993
240.11	2.134
240.58	1.897
241.05	2.109
241.52	2.080
241.99	2.078
242.46	1.981
242.93	2.106
243.40	2.108
243.87	2.503
244.34	2.165
244.81	2.154
245.28	2.169
245.75	2.407
246.22	2.237
246.69	2.197
247.16	2.310
247.63	2.197
248.10	2.272
248.57	2.212
249.04	2.236
249.51	2.267
249.98	2.151
250.45	2.417
250.92	2.269
251.39	2.252
251.85	2.232
252.32	2.254
252.79	2.003
253.26	1.981
253.73	1.982
254.20	1.851
254.67	1.801
255.14	1.751
255.61	1.693
256.08	1.668
256.55	1.598
257.02	1.575
257.49	1.542
257.95	1.505
258.42	1.480
258.89	1.443
259.36	1.424
259.83	1.391
260.30	1.361
260.77	1.336
261.24	1.320
261.71	1.282
262.17	1.273
262.64	1.247
263.11	1.229
263.58	1.218
264.05	1.199
264.52	1.174
264.99	1.160
265.46	1.146
265.92	1.132
266.39	1.119
266.86	1.101
267.33	1.090
267.80	1.081
268.27	1.065
268.74	1.057
269.20	1.045
269.67	1.033
270.14	1.024
270.61	1.011
271.08	0.998
271.55	0.995
272.01	0.980
272.48	0.976
272.95	0.967
273.42	0.960
273.89	0.949
274.36	0.942
274.82	0.939
275.29	0.930
275.76	0.921
276.23	0.918
276.70	0.916
277.16	0.910
277.63	0.903
278.10	0.900
278.57	0.900
279.04	0.895
279.50	0.892
279.97	0.889
280.44	0.881
280.91	0.877
281.38	0.877
281.84	0.865
282.31	0.873
282.78	0.872
283.25	0.859
283.72	0.863
284.18	0.862
284.65	0.865
285.12	0.860
285.59	0.854
286.05	0.859
286.52	0.861
286.99	0.858
287.46	0.855
287.92	0.851
288.39	0.857
288.86	0.856
289.33	0.854
289.79	0.849
290.26	0.847
290.73	0.848
291.20	0.843
291.66	0.843
292.13	0.835
292.60	0.832
293.07	0.825
293.53	0.828
294.00	0.816
294.47	0.811
294.93	0.805
295.40	0.797
295.87	0.790
296.34	0.782
296.80	0.771
297.27	0.767
297.74	0.758
298.20	0.750
298.67	0.741
299.14	0.736
299.60	0.726
300.07	0.714
300.54	0.706
301.01	0.700
301.47	0.692
301.94	0.677
302.41	0.670
302.87	0.662
303.34	0.652
303.81	0.649
304.27	0.638
304.74	0.635
305.21	0.625
305.67	0.616
306.14	0.612
306.61	0.602
307.07	0.600
307.54	0.592
308.01	0.585
308.47	0.582
308.94	0.570
309.40	0.570
309.87	0.568
310.34	0.562
310.80	0.558
311.27	0.549
311.74	0.553
312.20	0.546
312.67	0.541
313.13	0.537
313.60	0.533
314.07	0.535
314.53	0.531
315.00	0.529
315.47	0.523
315.93	0.519
316.40	0.523
316.86	0.516
317.33	0.517
317.80	0.508
318.26	0.508
318.73	0.506
319.19	0.502
319.66	0.500
320.13	0.497
320.59	0.497
321.06	0.490
321.52	0.492
321.99	0.493
322.45	0.490
322.92	0.482
323.39	0.481
323.85	0.482
324.32	0.478
324.78	0.472
325.25	0.470
325.71	0.467
326.18	0.464
326.64	0.466
327.11	0.460
327.58	0.460
328.04	0.459
328.51	0.458
328.97	0.455
329.44	0.452
329.90	0.446
330.37	0.442
330.83	0.445
331.30	0.438
331.76	0.433
332.23	0.433
332.69	0.430
333.16	0.429
333.62	0.424
334.09	0.423
334.56	0.418
335.02	0.417
335.49	0.409
335.95	0.409
336.42	0.406
336.88	0.403
337.35	0.402
337.81	0.401
338.28	0.397
338.74	0.399
339.20	0.397
339.67	0.397
340.13	0.393
340.60	0.395
341.06	0.387
341.53	0.389
341.99	0.385
342.46	0.385
342.92	0.385
343.39	0.386
343.85	0.381
344.32	0.382
344.78	0.377
345.25	0.378
345.71	0.377
346.17	0.376
346.64	0.375
347.10	0.373
347.57	0.367
348.03	0.368
348.50	0.364
348.96	0.357
349.43	0.364
349.89	0.358
350.35	0.358
350.82	0.350
351.28	0.349
351.75	0.343
352.21	0.344
352.67	0.331
353.14	0.333
353.60	0.325
354.07	0.319
354.53	0.318
355.00	0.311
355.46	0.303
355.92	0.299
356.39	0.295
356.85	0.282
357.31	0.282
357.78	0.277
358.24	0.266
358.71	0.259
359.17	0.250
359.63	0.238
360.10	0.233
360.56	0.221
361.03	0.214
361.49	0.202
361.95	0.193
362.42	0.180
362.88	0.173
363.34	0.162
363.81	0.154
364.27	0.145
364.73	0.136
365.20	0.129
365.66	0.122
366.12	0.112
366.59	0.108
367.05	0.102
367.51	0.098
367.98	0.093
368.44	0.093
368.90	0.088
369.37	0.086
369.83	0.081
370.29	0.080
370.76	0.080
371.22	0.079
371.68	0.078
372.15	0.075
372.61	0.075
373.07	0.074
373.54	0.075
374.00	0.072
374.46	0.074
374.92	0.071
375.39	0.070
375.85	0.071
376.31	0.070
376.78	0.070
377.24	0.068
377.70	0.069
378.16	0.069
378.63	0.066
379.09	0.065
379.55	0.069
380.01	0.067
380.48	0.068
380.94	0.068
381.40	0.065
381.87	0.064
382.33	0.065
382.79	0.063
383.25	0.064
383.72	0.066
384.18	0.064
384.64	0.063
385.10	0.063
385.56	0.062
386.03	0.062
386.49	0.062
386.95	0.061
387.41	0.061
387.88	0.061
388.34	0.063
388.80	0.061
389.26	0.061
389.72	0.059
390.19	0.059
390.65	0.060
391.11	0.061
391.57	0.062
392.04	0.060
392.50	0.057
392.96	0.059
393.42	0.060
393.88	0.061
394.34	0.060
394.81	0.060
395.27	0.056
395.73	0.056
396.19	0.060
396.65	0.060
397.12	0.057
397.58	0.055
398.04	0.057
398.50	0.058
398.96	0.057
399.42	0.055
399.89	0.058
400.35	0.055
400.81	0.057
401.27	0.057
401.73	0.056
402.19	0.055
402.65	0.054
403.12	0.053
403.58	0.054
404.04	0.054
404.50	0.053
404.96	0.052
405.42	0.053
405.88	0.051
406.34	0.052
406.81	0.053
407.27	0.052
407.73	0.051
408.19	0.047
408.65	0.048
409.11	0.051
409.57	0.053
410.03	0.051
410.49	0.051
410.96	0.048
411.42	0.049
411.88	0.047
412.34	0.047
412.80	0.049
413.26	0.050
413.72	0.048
414.18	0.050
414.64	0.046
415.10	0.047
415.56	0.048
416.02	0.043
416.48	0.046
416.95	0.046
417.41	0.045
417.87	0.045
418.33	0.049
418.79	0.047
419.25	0.051
419.71	0.045
420.17	0.047
420.63	0.044
421.09	0.046
421.55	0.047
422.01	0.041
422.47	0.044
422.93	0.045
423.39	0.047
423.85	0.046
424.31	0.044
424.77	0.046
425.23	0.045
425.69	0.045
426.15	0.046
426.61	0.047
427.07	0.045
427.53	0.045
427.99	0.046
428.45	0.046
428.91	0.042
429.37	0.046
429.83	0.047
430.29	0.046
430.75	0.044
431.21	0.044
431.67	0.048
432.13	0.042
432.59	0.045
433.05	0.041
433.51	0.044
433.97	0.045
434.43	0.044
434.89	0.043
435.35	0.045
435.81	0.041
436.27	0.040
436.73	0.042
437.19	0.043
437.65	0.040
438.11	0.044
438.57	0.045
439.03	0.041
439.48	0.042
439.94	0.042
440.40	0.041
440.86	0.041
441.32	0.040
441.78	0.044
442.24	0.040
442.70	0.042
443.16	0.040
443.62	0.038
444.08	0.045
444.54	0.043
444.99	0.043
445.45	0.042
445.91	0.038
446.37	0.041
446.83	0.042
447.29	0.040
447.75	0.038
448.21	0.041
448.67	0.043
449.12	0.039
449.58	0.037
450.04	0.038
450.50	0.037
450.96	0.038
451.42	0.041
451.88	0.043
452.34	0.040
452.79	0.039
453.25	0.041
453.71	0.040
454.17	0.038
454.63	0.040
455.09	0.040
455.55	0.039
456.00	0.037
456.46	0.039
456.92	0.041
457.38	0.043
457.84	0.041
458.30	0.041
458.75	0.039
459.21	0.039
459.67	0.040
460.13	0.042
460.59	0.043
461.04	0.036
461.50	0.039
461.96	0.041
462.42	0.041
462.88	0.039
463.33	0.041
463.79	0.042
464.25	0.040
464.71	0.041
465.17	0.041
465.62	0.042
466.08	0.038
466.54	0.041
467.00	0.040
467.46	0.040
467.91	0.042
468.37	0.041
468.83	0.040
469.29	0.040
469.74	0.042
470.20	0.040
470.66	0.040
471.12	0.042
471.57	0.043
472.03	0.040
472.49	0.042
472.95	0.042
473.40	0.043
473.86	0.040
474.32	0.041
474.78	0.043
475.23	0.040
475.69	0.040
476.15	0.044
476.60	0.042
477.06	0.041
477.52	0.042
477.98	0.044
478.43	0.041
478.89	0.042
479.35	0.042
479.80	0.043
480.26	0.042
480.72	0.044
481.18	0.042
481.63	0.042
482.09	0.042
482.55	0.042
483.00	0.044
483.46	0.043
483.92	0.043
484.37	0.042
484.83	0.042
485.29	0.042
485.74	0.042
486.20	0.043
486.66	0.043
487.11	0.043
487.57	0.042
488.03	0.043
488.48	0.042
488.94	0.042
489.40	0.043
489.85	0.042
490.31	0.042
490.77	0.044
491.22	0.042
491.68	0.042
492.13	0.042
492.59	0.041
493.05	0.043
493.50	0.043
493.96	0.042
494.42	0.044
494.87	0.043
495.33	0.041
495.78	0.040
496.24	0.042
496.70	0.043
497.15	0.042
497.61	0.042
498.06	0.044
498.52	0.043
498.98	0.042
499.43	0.042
499.89	0.041
500.34	0.043
500.80	0.043
501.25	0.043
501.71	0.040
502.17	0.043
502.62	0.041
503.08	0.043
503.53	0.042
503.99	0.043
504.44	0.042
504.90	0.041
505.36	0.042
505.81	0.039
506.27	0.040
506.72	0.041
507.18	0.042
507.63	0.040
508.09	0.043
508.54	0.042
509.00	0.042
509.45	0.042
509.91	0.043
510.36	0.042
510.82	0.044
511.27	0.040
511.73	0.042
512.19	0.040
512.64	0.044
513.10	0.042
513.55	0.042
514.01	0.041
514.46	0.041
514.92	0.041
515.37	0.040
515.83	0.039
516.28	0.041
516.73	0.042
517.19	0.041
517.64	0.039
518.10	0.044
518.55	0.044
519.01	0.040
519.46	0.042
519.92	0.039
520.37	0.041
520.83	0.044
521.28	0.041
521.74	0.040
522.19	0.041
522.65	0.041
523.10	0.042
523.55	0.039
524.01	0.042
524.46	0.042
524.92	0.044
525.37	0.042
525.83	0.043
526.28	0.040
526.73	0.042
527.19	0.042
527.64	0.046
528.10	0.041
528.55	0.043
529.01	0.042
529.46	0.045
529.91	0.042
530.37	0.043
530.82	0.043
531.28	0.046
531.73	0.044
532.18	0.044
532.64	0.042
533.09	0.044
533.54	0.044
534.00	0.042
534.45	0.045
534.91	0.045
535.36	0.045
535.81	0.045
536.27	0.046
536.72	0.043
537.17	0.046
537.63	0.046
538.08	0.048
538.54	0.047
538.99	0.045
539.44	0.050
539.90	0.048
540.35	0.047
540.80	0.047
541.26	0.048
541.71	0.048
542.16	0.048
542.62	0.049
543.07	0.050
543.52	0.049
543.98	0.050
544.43	0.049
544.88	0.051
545.34	0.051
545.79	0.052
546.24	0.052
546.69	0.051
547.15	0.050
547.60	0.054
548.05	0.053
548.51	0.052
548.96	0.054
549.41	0.055
549.86	0.057
550.32	0.057
550.77	0.055
551.22	0.058
551.68	0.057
552.13	0.057
552.58	0.060
553.03	0.059
553.49	0.059
553.94	0.058
554.39	0.061
554.84	0.062
555.30	0.062
555.75	0.062
556.20	0.063
556.65	0.063
557.11	0.064
557.56	0.063
558.01	0.063
558.46	0.066
558.92	0.067
559.37	0.066
559.82	0.069
560.27	0.069
560.72	0.068
561.18	0.067
561.63	0.070
562.08	0.072
562.53	0.069
562.99	0.071
563.44	0.073
563.89	0.073
564.34	0.074
564.79	0.073
565.25	0.075
565.70	0.075
566.15	0.078
566.60	0.077
567.05	0.078
567.50	0.081
567.96	0.080
568.41	0.081
568.86	0.080
569.31	0.082
569.76	0.082
570.21	0.082
570.67	0.083
571.12	0.085
571.57	0.086
572.02	0.089
572.47	0.088
572.92	0.088
573.37	0.087
573.83	0.093
574.28	0.092
574.73	0.091
575.18	0.091
575.63	0.095
576.08	0.096
576.53	0.094
576.98	0.096
577.44	0.098
577.89	0.098
578.34	0.099
578.79	0.103
579.24	0.101
579.69	0.104
580.14	0.105
580.59	0.106
581.04	0.107
581.49	0.109
581.95	0.112
582.40	0.110
582.85	0.110
583.30	0.114
583.75	0.116
584.20	0.117
584.65	0.115
585.10	0.119
585.55	0.120
586.00	0.123
586.45	0.125
586.90	0.126
587.35	0.126
587.80	0.128
588.25	0.130
588.71	0.130
589.16	0.134
589.61	0.137
590.06	0.138
590.51	0.141
590.96	0.144
591.41	0.144
591.86	0.147
592.31	0.148
592.76	0.148
593.21	0.152
593.66	0.155
594.11	0.154
594.56	0.155
595.01	0.159
595.46	0.162
595.91	0.162
596.36	0.165
596.81	0.169
597.26	0.169
597.71	0.171
598.16	0.173
598.61	0.175
599.06	0.177
599.51	0.178
599.96	0.182
600.41	0.182
600.86	0.186
601.31	0.189
601.76	0.190
602.21	0.191
602.65	0.193
603.10	0.196
603.55	0.196
604.00	0.201
604.45	0.202
604.90	0.205
605.35	0.208
605.80	0.207
606.25	0.207
606.70	0.210
607.15	0.212
607.60	0.212
608.05	0.213
608.50	0.216
608.95	0.217
609.39	0.221
609.84	0.221
610.29	0.222
610.74	0.224
611.19	0.224
611.64	0.225
612.09	0.227
612.54	0.227
612.99	0.229
613.44	0.229
613.88	0.232
614.33	0.231
614.78	0.233
615.23	0.235
615.68	0.233
616.13	0.235
616.58	0.236
617.03	0.235
617.47	0.237
617.92	0.239
618.37	0.237
618.82	0.239
619.27	0.239
619.72	0.239
620.17	0.239
620.61	0.240
621.06	0.243
621.51	0.243
621.96	0.242
622.41	0.247
622.86	0.243
623.30	0.246
623.75	0.244
624.20	0.248
624.65	0.250
625.10	0.247
625.54	0.251
625.99	0.251
626.44	0.252
626.89	0.252
627.34	0.254
627.78	0.254
628.23	0.257
628.68	0.257
629.13	0.258
629.58	0.258
630.02	0.262
630.47	0.265
630.92	0.265
631.37	0.265
631.81	0.269
632.26	0.270
632.71	0.274
633.16	0.273
633.61	0.274
634.05	0.278
634.50	0.279
634.95	0.282
635.40	0.282
635.84	0.287
636.29	0.289
636.74	0.290
637.18	0.292
637.63	0.294
638.08	0.299
638.53	0.299
638.97	0.304
639.42	0.306
639.87	0.310
640.32	0.314
640.76	0.318
641.21	0.319
641.66	0.322
642.10	0.324
642.55	0.329
643.00	0.331
643.44	0.333
643.89	0.338
644.34	0.343
644.79	0.344
645.23	0.347
645.68	0.353
646.13	0.356
646.57	0.357
647.02	0.361
647.47	0.363
647.91	0.367
648.36	0.371
648.81	0.376
649.25	0.377
649.70	0.381
650.15	0.385
650.59	0.386
651.04	0.393
651.48	0.391
651.93	0.396
652.38	0.401
652.82	0.401
653.27	0.405
653.72	0.408
654.16	0.410
654.61	0.414
655.06	0.417
655.50	0.419
655.95	0.422
656.39	0.424
656.84	0.425
657.29	0.428
657.73	0.430
658.18	0.433
658.62	0.433
659.07	0.435
659.52	0.438
659.96	0.439
660.41	0.441
660.85	0.438
661.30	0.445
661.74	0.448
662.19	0.450
662.64	0.444
663.08	0.446
663.53	0.448
663.97	0.450
664.42	0.448
664.86	0.449
665.31	0.451
665.75	0.447
666.20	0.447
666.65	0.447
667.09	0.443
667.54	0.443
667.98	0.444
668.43	0.444
668.87	0.437
669.32	0.434
669.76	0.431
670.21	0.430
670.65	0.425
671.10	0.421
671.54	0.414
671.99	0.412
672.43	0.404
672.88	0.401
673.32	0.395
673.77	0.384
674.21	0.383
674.66	0.377
675.10	0.370
675.55	0.360
675.99	0.355
676.44	0.349
676.88	0.338
677.33	0.329
677.77	0.321
678.22	0.313
678.66	0.307
679.11	0.297
679.55	0.288
679.99	0.281
680.44	0.271
680.88	0.265
681.33	0.256
681.77	0.249
682.22	0.238
682.66	0.231
683.11	0.224
683.55	0.217
683.99	0.210
684.44	0.200
684.88	0.193
685.33	0.184
685.77	0.179
686.21	0.176
686.66	0.164
687.10	0.160
687.55	0.153
687.99	0.149
688.44	0.141
688.88	0.136
689.32	0.132
689.77	0.125
690.21	0.118
690.65	0.116
691.10	0.109
691.54	0.104
691.99	0.101
692.43	0.095
692.87	0.092
693.32	0.089
693.76	0.087
694.20	0.083
694.65	0.081
695.09	0.077
695.53	0.073
695.98	0.073
696.42	0.067
696.86	0.066
697.31	0.065
697.75	0.062
698.19	0.059
698.64	0.057
699.08	0.056
699.52	0.052
699.97	0.052
700.41	0.051
700.85	0.047
701.30	0.047
701.74	0.044
702.18	0.045
702.63	0.042
703.07	0.042
703.51	0.040
703.96	0.039
704.40	0.039
704.84	0.037
705.28	0.036
705.73	0.035
706.17	0.033
706.61	0.033
707.06	0.033
707.50	0.033
707.94	0.029
708.38	0.029
708.83	0.032
709.27	0.028
709.71	0.031
710.15	0.027
710.60	0.027
711.04	0.026
711.48	0.024
711.92	0.029
712.37	0.026
712.81	0.029
713.25	0.026
713.69	0.026
714.13	0.022
714.58	0.022
715.02	0.025
715.46	0.024
715.90	0.022
716.35	0.024
716.79	0.023
717.23	0.024
717.67	0.022
718.11	0.021
718.56	0.022
719.00	0.021
719.44	0.023
719.88	0.025
720.32	0.023
720.76	0.021
721.21	0.025
721.65	0.024
722.09	0.023
722.53	0.023
722.97	0.024
723.41	0.025
723.86	0.021
724.30	0.022
724.74	0.022
725.18	0.024
725.62	0.023
726.06	0.025
726.50	0.022
726.95	0.021
727.39	0.024
727.83	0.022
728.27	0.021
728.71	0.022
729.15	0.023
729.59	0.022
730.03	0.025
730.48	0.022
730.92	0.023
731.36	0.024
731.80	0.025
732.24	0.025
732.68	0.026
733.12	0.025
733.56	0.023
734.00	0.025
734.44	0.027
734.89	0.024
735.33	0.026
735.77	0.026
736.21	0.027
736.65	0.028
737.09	0.026
737.53	0.025
737.97	0.027
738.41	0.027
738.85	0.025
739.29	0.024
739.73	0.027
740.17	0.026
740.61	0.029
741.05	0.027
741.49	0.026
741.93	0.029
742.37	0.025
742.81	0.026
743.26	0.029
743.70	0.027
744.14	0.026
744.58	0.025
745.02	0.028
745.46	0.024
745.90	0.025
746.34	0.026
746.78	0.029
747.22	0.028
747.66	0.025
748.10	0.028
748.54	0.025
748.98	0.025
749.42	0.027
749.86	0.026
750.29	0.028
750.73	0.026
751.17	0.023
751.61	0.026
752.05	0.027
752.49	0.024
752.93	0.026
753.37	0.027
753.81	0.026
754.25	0.026
754.69	0.024
755.13	0.024
755.57	0.023
756.01	0.024
756.45	0.026
756.89	0.027
757.33	0.027
757.77	0.025
758.21	0.026
758.64	0.026
759.08	0.027
759.52	0.025
759.96	0.027
760.40	0.025
760.84	0.025
761.28	0.027
761.72	0.026
762.16	0.025
762.60	0.026
763.03	0.027
763.47	0.025
763.91	0.022
764.35	0.025
764.79	0.029
765.23	0.025
765.67	0.024
766.11	0.027
766.54	0.026
766.98	0.026
767.42	0.024
767.86	0.026
768.30	0.027
768.74	0.028
769.17	0.027
769.61	0.028
770.05	0.023
770.49	0.025
770.93	0.028
771.37	0.026
771.80	0.026
772.24	0.025
772.68	0.024
773.12	0.024
773.56	0.026
774.00	0.026
774.43	0.026
774.87	0.024
775.31	0.028
775.75	0.027
776.19	0.027
776.62	0.028
777.06	0.024
777.50	0.026
777.94	0.028
778.37	0.027
778.81	0.024
779.25	0.029
779.69	0.023
780.13	0.024
780.56	0.026
781.00	0.029
781.44	0.028
781.88	0.027
782.31	0.029
782.75	0.028
783.19	0.028
783.63	0.025
784.06	0.022
784.50	0.027
784.94	0.027
785.37	0.027
785.81	0.028
786.25	0.024
786.69	0.023
787.12	0.025
787.56	0.025
788.00	0.020
788.43	0.022
788.87	0.023
789.31	0.024
789.75	0.027
790.18	0.025
790.62	0.026
791.06	0.028
791.49	0.027
791.93	0.025
792.37	0.023
792.80	0.026
793.24	0.028
793.68	0.024
794.11	0.032
794.55	0.024
794.99	0.025
795.42	0.023
795.86	0.022
796.30	0.025
796.73	0.025
797.17	0.028
797.61	0.023
798.04	0.023
798.48	0.023
798.91	0.026
799.35	0.027
799.79	0.024
800.22	0.025
800.66	0.022
801.10	0.028
801.53	0.024
801.97	0.023
802.40	0.026
802.84	0.026
803.28	0.020
803.71	0.022
804.15	0.028
804.58	0.023
805.02	0.021
805.46	0.025
805.89	0.025
806.33	0.023
806.76	0.025
807.20	0.027
807.63	0.027
808.07	0.026
808.51	0.023
808.94	0.028
809.38	0.026
809.81	0.024
810.25	0.025
810.68	0.026
811.12	0.026
811.55	0.023
811.99	0.028
812.42	0.024
812.86	0.024
813.29	0.024
813.73	0.025
814.17	0.022
814.60	0.023
815.04	0.026
815.47	0.024
815.91	0.027
816.34	0.027
816.78	0.025
817.21	0.022
817.65	0.024
818.08	0.028
