SpectraSuite Data File
++++++++++++++++++++++++++++++++++++
Date: Tue Jul 11 16:29:02 CEST 2017
User: IPCE
Dark Spectrum Present: Yes
Reference Spectrum Present: Yes
Number of Sampled Component Spectra: 1
Spectrometers: HR+C0708
Integration Time (usec): 1000 (HR+C0708)
Spectra Averaged: 10 (HR+C0708)
Boxcar Smoothing: 0 (HR+C0708)
Correct for Electrical Dark: No (HR+C0708)
Strobe/Lamp Enabled: No (HR+C0708)
Correct for Detector Non-linearity: No (HR+C0708)
Correct for Stray Light: No (HR+C0708)
Number of Pixels in Processed Spectrum: 2048
>>>>>Begin Processed Spectral Data<<<<<
188.76	-0.148
189.23	-0.225
189.70	0.404
190.17	0.005
190.64	0.333
191.12	0.109
191.59	0.270
192.06	0.340
192.53	0.172
193.01	-0.000
193.48	-0.000
193.95	0.198
194.42	-0.137
194.90	0.414
195.37	-0.046
195.84	-0.252
196.31	0.170
196.78	-0.016
197.26	0.205
197.73	0.186
198.20	0.292
198.67	0.216
199.14	-0.022
199.62	0.022
200.09	0.510
200.56	0.340
201.03	0.216
201.50	0.321
201.97	0.203
202.45	0.273
202.92	0.273
203.39	0.434
203.86	0.374
204.33	0.328
204.80	0.281
205.28	0.429
205.75	0.359
206.22	0.269
206.69	0.427
207.16	0.164
207.63	0.189
208.11	0.323
208.58	0.191
209.05	0.477
209.52	0.230
209.99	0.344
210.46	0.264
210.93	0.190
211.41	0.185
211.88	0.232
212.35	0.266
212.82	0.164
213.29	0.223
213.76	0.272
214.23	0.341
214.70	0.204
215.18	0.287
215.65	0.355
216.12	0.195
216.59	0.207
217.06	0.429
217.53	0.271
218.00	0.320
218.47	0.305
218.94	0.285
219.41	0.536
219.89	0.387
220.36	0.402
220.83	0.512
221.30	0.248
221.77	0.315
222.24	0.449
222.71	0.574
223.18	0.330
223.65	0.451
224.12	0.456
224.59	0.491
225.06	0.470
225.54	0.566
226.01	0.721
226.48	0.518
226.95	0.617
227.42	0.729
227.89	0.751
228.36	0.692
228.83	0.815
229.30	0.808
229.77	0.965
230.24	1.074
230.71	1.088
231.18	1.104
231.65	1.151
232.12	1.305
232.59	1.239
233.06	1.323
233.53	1.301
234.00	1.430
234.47	1.407
234.94	1.592
235.41	1.502
235.88	1.690
236.35	1.552
236.82	1.666
237.29	1.612
237.76	1.778
238.23	1.771
238.70	1.817
239.17	1.893
239.64	1.844
240.11	1.927
240.58	1.965
241.05	2.005
241.52	2.043
241.99	2.003
242.46	1.982
242.93	2.026
243.40	2.049
243.87	2.092
244.34	2.235
244.81	2.093
245.28	1.982
245.75	2.227
246.22	2.137
246.69	2.093
247.16	2.201
247.63	2.157
248.10	2.242
248.57	2.103
249.04	2.109
249.51	2.234
249.98	2.072
250.45	2.146
250.92	2.041
251.39	2.060
251.85	1.942
252.32	1.904
252.79	1.771
253.26	1.723
253.73	1.619
254.20	1.510
254.67	1.460
255.14	1.383
255.61	1.307
256.08	1.259
256.55	1.202
257.02	1.156
257.49	1.119
257.95	1.076
258.42	1.044
258.89	1.004
259.36	0.976
259.83	0.947
260.30	0.922
260.77	0.897
261.24	0.878
261.71	0.858
262.17	0.835
262.64	0.818
263.11	0.797
263.58	0.785
264.05	0.763
264.52	0.751
264.99	0.738
265.46	0.725
265.92	0.711
266.39	0.699
266.86	0.686
267.33	0.668
267.80	0.670
268.27	0.655
268.74	0.640
269.20	0.630
269.67	0.626
270.14	0.619
270.61	0.602
271.08	0.597
271.55	0.585
272.01	0.584
272.48	0.575
272.95	0.569
273.42	0.562
273.89	0.559
274.36	0.545
274.82	0.542
275.29	0.540
275.76	0.528
276.23	0.524
276.70	0.525
277.16	0.516
277.63	0.512
278.10	0.506
278.57	0.507
279.04	0.498
279.50	0.498
279.97	0.491
280.44	0.492
280.91	0.487
281.38	0.484
281.84	0.485
282.31	0.484
282.78	0.478
283.25	0.477
283.72	0.478
284.18	0.477
284.65	0.473
285.12	0.472
285.59	0.470
286.05	0.470
286.52	0.468
286.99	0.468
287.46	0.469
287.92	0.463
288.39	0.467
288.86	0.464
289.33	0.463
289.79	0.461
290.26	0.460
290.73	0.460
291.20	0.452
291.66	0.453
292.13	0.447
292.60	0.446
293.07	0.441
293.53	0.437
294.00	0.432
294.47	0.424
294.93	0.419
295.40	0.415
295.87	0.409
296.34	0.402
296.80	0.396
297.27	0.390
297.74	0.383
298.20	0.377
298.67	0.373
299.14	0.365
299.60	0.354
300.07	0.349
300.54	0.341
301.01	0.339
301.47	0.331
301.94	0.325
302.41	0.320
302.87	0.310
303.34	0.303
303.81	0.299
304.27	0.292
304.74	0.286
305.21	0.282
305.67	0.277
306.14	0.273
306.61	0.266
307.07	0.261
307.54	0.255
308.01	0.250
308.47	0.249
308.94	0.245
309.40	0.241
309.87	0.242
310.34	0.234
310.80	0.235
311.27	0.226
311.74	0.227
312.20	0.223
312.67	0.221
313.13	0.221
313.60	0.218
314.07	0.216
314.53	0.211
315.00	0.211
315.47	0.211
315.93	0.207
316.40	0.208
316.86	0.207
317.33	0.207
317.80	0.201
318.26	0.202
318.73	0.202
319.19	0.198
319.66	0.199
320.13	0.195
320.59	0.194
321.06	0.193
321.52	0.192
321.99	0.191
322.45	0.189
322.92	0.186
323.39	0.188
323.85	0.186
324.32	0.184
324.78	0.183
325.25	0.181
325.71	0.180
326.18	0.178
326.64	0.175
327.11	0.175
327.58	0.176
328.04	0.175
328.51	0.174
328.97	0.174
329.44	0.171
329.90	0.172
330.37	0.169
330.83	0.165
331.30	0.167
331.76	0.161
332.23	0.163
332.69	0.162
333.16	0.159
333.62	0.157
334.09	0.155
334.56	0.156
335.02	0.151
335.49	0.149
335.95	0.148
336.42	0.145
336.88	0.144
337.35	0.143
337.81	0.144
338.28	0.141
338.74	0.143
339.20	0.141
339.67	0.141
340.13	0.139
340.60	0.137
341.06	0.136
341.53	0.136
341.99	0.135
342.46	0.132
342.92	0.134
343.39	0.134
343.85	0.129
344.32	0.128
344.78	0.131
345.25	0.128
345.71	0.129
346.17	0.128
346.64	0.126
347.10	0.125
347.57	0.125
348.03	0.125
348.50	0.121
348.96	0.119
349.43	0.124
349.89	0.121
350.35	0.120
350.82	0.120
351.28	0.118
351.75	0.118
352.21	0.121
352.67	0.115
353.14	0.115
353.60	0.112
354.07	0.110
354.53	0.116
355.00	0.109
355.46	0.108
355.92	0.109
356.39	0.112
356.85	0.108
357.31	0.102
357.78	0.109
358.24	0.102
358.71	0.104
359.17	0.103
359.63	0.101
360.10	0.098
360.56	0.099
361.03	0.095
361.49	0.097
361.95	0.095
362.42	0.092
362.88	0.092
363.34	0.088
363.81	0.091
364.27	0.088
364.73	0.089
365.20	0.084
365.66	0.086
366.12	0.083
366.59	0.084
367.05	0.081
367.51	0.079
367.98	0.081
368.44	0.079
368.90	0.081
369.37	0.081
369.83	0.077
370.29	0.081
370.76	0.078
371.22	0.076
371.68	0.078
372.15	0.077
372.61	0.077
373.07	0.076
373.54	0.077
374.00	0.074
374.46	0.076
374.92	0.074
375.39	0.074
375.85	0.075
376.31	0.075
376.78	0.074
377.24	0.072
377.70	0.072
378.16	0.074
378.63	0.070
379.09	0.071
379.55	0.074
380.01	0.072
380.48	0.073
380.94	0.074
381.40	0.070
381.87	0.068
382.33	0.070
382.79	0.071
383.25	0.072
383.72	0.072
384.18	0.069
384.64	0.070
385.10	0.070
385.56	0.070
386.03	0.070
386.49	0.069
386.95	0.068
387.41	0.069
387.88	0.067
388.34	0.071
388.80	0.067
389.26	0.068
389.72	0.066
390.19	0.068
390.65	0.068
391.11	0.069
391.57	0.066
392.04	0.067
392.50	0.065
392.96	0.068
393.42	0.067
393.88	0.069
394.34	0.068
394.81	0.068
395.27	0.064
395.73	0.064
396.19	0.066
396.65	0.068
397.12	0.066
397.58	0.062
398.04	0.065
398.50	0.064
398.96	0.064
399.42	0.063
399.89	0.063
400.35	0.060
400.81	0.065
401.27	0.065
401.73	0.063
402.19	0.064
402.65	0.062
403.12	0.063
403.58	0.062
404.04	0.059
404.50	0.060
404.96	0.062
405.42	0.060
405.88	0.061
406.34	0.062
406.81	0.062
407.27	0.060
407.73	0.060
408.19	0.060
408.65	0.058
409.11	0.060
409.57	0.060
410.03	0.060
410.49	0.059
410.96	0.057
411.42	0.058
411.88	0.058
412.34	0.055
412.80	0.059
413.26	0.057
413.72	0.056
414.18	0.058
414.64	0.055
415.10	0.056
415.56	0.058
416.02	0.053
416.48	0.053
416.95	0.054
417.41	0.055
417.87	0.054
418.33	0.055
418.79	0.056
419.25	0.056
419.71	0.055
420.17	0.053
420.63	0.054
421.09	0.053
421.55	0.056
422.01	0.051
422.47	0.054
422.93	0.053
423.39	0.057
423.85	0.054
424.31	0.053
424.77	0.053
425.23	0.052
425.69	0.054
426.15	0.057
426.61	0.055
427.07	0.054
427.53	0.055
427.99	0.056
428.45	0.055
428.91	0.052
429.37	0.055
429.83	0.053
430.29	0.055
430.75	0.051
431.21	0.055
431.67	0.057
432.13	0.050
432.59	0.051
433.05	0.051
433.51	0.053
433.97	0.055
434.43	0.053
434.89	0.052
435.35	0.053
435.81	0.049
436.27	0.050
436.73	0.049
437.19	0.050
437.65	0.049
438.11	0.054
438.57	0.052
439.03	0.050
439.48	0.051
439.94	0.050
440.40	0.051
440.86	0.051
441.32	0.051
441.78	0.050
442.24	0.049
442.70	0.050
443.16	0.049
443.62	0.049
444.08	0.051
444.54	0.052
444.99	0.048
445.45	0.048
445.91	0.052
446.37	0.051
446.83	0.051
447.29	0.049
447.75	0.051
448.21	0.051
448.67	0.048
449.12	0.048
449.58	0.047
450.04	0.048
450.50	0.047
450.96	0.048
451.42	0.050
451.88	0.050
452.34	0.050
452.79	0.047
453.25	0.050
453.71	0.047
454.17	0.047
454.63	0.051
455.09	0.050
455.55	0.048
456.00	0.046
456.46	0.048
456.92	0.050
457.38	0.051
457.84	0.048
458.30	0.051
458.75	0.049
459.21	0.051
459.67	0.050
460.13	0.051
460.59	0.051
461.04	0.047
461.50	0.049
461.96	0.048
462.42	0.051
462.88	0.048
463.33	0.050
463.79	0.050
464.25	0.048
464.71	0.050
465.17	0.050
465.62	0.049
466.08	0.049
466.54	0.049
467.00	0.048
467.46	0.049
467.91	0.049
468.37	0.048
468.83	0.049
469.29	0.049
469.74	0.049
470.20	0.050
470.66	0.050
471.12	0.051
471.57	0.049
472.03	0.049
472.49	0.049
472.95	0.050
473.40	0.049
473.86	0.049
474.32	0.050
474.78	0.047
475.23	0.049
475.69	0.048
476.15	0.053
476.60	0.049
477.06	0.049
477.52	0.049
477.98	0.050
478.43	0.050
478.89	0.052
479.35	0.051
479.80	0.049
480.26	0.048
480.72	0.051
481.18	0.050
481.63	0.049
482.09	0.050
482.55	0.049
483.00	0.050
483.46	0.051
483.92	0.049
484.37	0.052
484.83	0.051
485.29	0.050
485.74	0.050
486.20	0.050
486.66	0.051
487.11	0.051
487.57	0.050
488.03	0.052
488.48	0.051
488.94	0.049
489.40	0.050
489.85	0.049
490.31	0.048
490.77	0.051
491.22	0.050
491.68	0.051
492.13	0.049
492.59	0.053
493.05	0.051
493.50	0.049
493.96	0.048
494.42	0.052
494.87	0.050
495.33	0.048
495.78	0.051
496.24	0.048
496.70	0.051
497.15	0.050
497.61	0.049
498.06	0.051
498.52	0.051
498.98	0.050
499.43	0.049
499.89	0.048
500.34	0.051
500.80	0.050
501.25	0.051
501.71	0.049
502.17	0.049
502.62	0.048
503.08	0.049
503.53	0.051
503.99	0.049
504.44	0.050
504.90	0.047
505.36	0.048
505.81	0.048
506.27	0.049
506.72	0.050
507.18	0.051
507.63	0.048
508.09	0.049
508.54	0.049
509.00	0.051
509.45	0.049
509.91	0.050
510.36	0.049
510.82	0.050
511.27	0.050
511.73	0.048
512.19	0.048
512.64	0.050
513.10	0.049
513.55	0.048
514.01	0.047
514.46	0.048
514.92	0.048
515.37	0.049
515.83	0.045
516.28	0.049
516.73	0.050
517.19	0.046
517.64	0.046
518.10	0.048
518.55	0.049
519.01	0.047
519.46	0.047
519.92	0.048
520.37	0.051
520.83	0.050
521.28	0.049
521.74	0.048
522.19	0.047
522.65	0.049
523.10	0.049
523.55	0.047
524.01	0.051
524.46	0.049
524.92	0.051
525.37	0.050
525.83	0.048
526.28	0.048
526.73	0.049
527.19	0.049
527.64	0.051
528.10	0.048
528.55	0.049
529.01	0.049
529.46	0.050
529.91	0.049
530.37	0.048
530.82	0.049
531.28	0.051
531.73	0.050
532.18	0.051
532.64	0.049
533.09	0.051
533.54	0.051
534.00	0.049
534.45	0.052
534.91	0.050
535.36	0.051
535.81	0.049
536.27	0.053
536.72	0.049
537.17	0.053
537.63	0.051
538.08	0.053
538.54	0.051
538.99	0.053
539.44	0.054
539.90	0.053
540.35	0.051
540.80	0.051
541.26	0.052
541.71	0.054
542.16	0.053
542.62	0.054
543.07	0.055
543.52	0.053
543.98	0.056
544.43	0.054
544.88	0.055
545.34	0.058
545.79	0.056
546.24	0.056
546.69	0.055
547.15	0.057
547.60	0.060
548.05	0.056
548.51	0.058
548.96	0.057
549.41	0.059
549.86	0.060
550.32	0.059
550.77	0.060
551.22	0.062
551.68	0.058
552.13	0.060
552.58	0.061
553.03	0.060
553.49	0.062
553.94	0.061
554.39	0.062
554.84	0.066
555.30	0.063
555.75	0.061
556.20	0.066
556.65	0.064
557.11	0.064
557.56	0.066
558.01	0.066
558.46	0.067
558.92	0.067
559.37	0.068
559.82	0.069
560.27	0.069
560.72	0.070
561.18	0.068
561.63	0.070
562.08	0.073
562.53	0.070
562.99	0.070
563.44	0.070
563.89	0.073
564.34	0.074
564.79	0.074
565.25	0.075
565.70	0.074
566.15	0.076
566.60	0.073
567.05	0.077
567.50	0.077
567.96	0.079
568.41	0.078
568.86	0.079
569.31	0.080
569.76	0.080
570.21	0.080
570.67	0.080
571.12	0.081
571.57	0.082
572.02	0.084
572.47	0.085
572.92	0.083
573.37	0.083
573.83	0.088
574.28	0.088
574.73	0.085
575.18	0.089
575.63	0.090
576.08	0.087
576.53	0.089
576.98	0.090
577.44	0.091
577.89	0.091
578.34	0.093
578.79	0.095
579.24	0.095
579.69	0.097
580.14	0.097
580.59	0.098
581.04	0.099
581.49	0.101
581.95	0.102
582.40	0.102
582.85	0.102
583.30	0.105
583.75	0.106
584.20	0.107
584.65	0.106
585.10	0.108
585.55	0.107
586.00	0.111
586.45	0.114
586.90	0.114
587.35	0.114
587.80	0.116
588.25	0.117
588.71	0.117
589.16	0.120
589.61	0.123
590.06	0.124
590.51	0.125
590.96	0.126
591.41	0.129
591.86	0.131
592.31	0.131
592.76	0.133
593.21	0.134
593.66	0.135
594.11	0.136
594.56	0.140
595.01	0.139
595.46	0.141
595.91	0.142
596.36	0.146
596.81	0.146
597.26	0.147
597.71	0.150
598.16	0.149
598.61	0.154
599.06	0.153
599.51	0.153
599.96	0.157
600.41	0.157
600.86	0.159
601.31	0.161
601.76	0.163
602.21	0.163
602.65	0.167
603.10	0.167
603.55	0.168
604.00	0.171
604.45	0.171
604.90	0.173
605.35	0.176
605.80	0.173
606.25	0.176
606.70	0.178
607.15	0.178
607.60	0.179
608.05	0.180
608.50	0.181
608.95	0.184
609.39	0.185
609.84	0.188
610.29	0.185
610.74	0.188
611.19	0.189
611.64	0.190
612.09	0.192
612.54	0.192
612.99	0.193
613.44	0.192
613.88	0.196
614.33	0.194
614.78	0.196
615.23	0.195
615.68	0.196
616.13	0.196
616.58	0.197
617.03	0.196
617.47	0.198
617.92	0.201
618.37	0.202
618.82	0.202
619.27	0.201
619.72	0.201
620.17	0.203
620.61	0.203
621.06	0.205
621.51	0.206
621.96	0.205
622.41	0.208
622.86	0.204
623.30	0.206
623.75	0.208
624.20	0.210
624.65	0.210
625.10	0.209
625.54	0.210
625.99	0.213
626.44	0.213
626.89	0.212
627.34	0.214
627.78	0.215
628.23	0.216
628.68	0.216
629.13	0.219
629.58	0.216
630.02	0.220
630.47	0.221
630.92	0.221
631.37	0.221
631.81	0.224
632.26	0.226
632.71	0.229
633.16	0.229
633.61	0.234
634.05	0.232
634.50	0.235
634.95	0.237
635.40	0.235
635.84	0.240
636.29	0.241
636.74	0.241
637.18	0.245
637.63	0.246
638.08	0.246
638.53	0.251
638.97	0.252
639.42	0.256
639.87	0.257
640.32	0.259
640.76	0.263
641.21	0.263
641.66	0.268
642.10	0.269
642.55	0.270
643.00	0.272
643.44	0.277
643.89	0.279
644.34	0.282
644.79	0.282
645.23	0.285
645.68	0.287
646.13	0.289
646.57	0.293
647.02	0.296
647.47	0.297
647.91	0.297
648.36	0.303
648.81	0.306
649.25	0.307
649.70	0.309
650.15	0.313
650.59	0.312
651.04	0.318
651.48	0.316
651.93	0.321
652.38	0.323
652.82	0.324
653.27	0.326
653.72	0.329
654.16	0.330
654.61	0.332
655.06	0.333
655.50	0.335
655.95	0.332
656.39	0.336
656.84	0.339
657.29	0.339
657.73	0.341
658.18	0.343
658.62	0.343
659.07	0.346
659.52	0.345
659.96	0.344
660.41	0.345
660.85	0.345
661.30	0.348
661.74	0.350
662.19	0.350
662.64	0.348
663.08	0.348
663.53	0.351
663.97	0.350
664.42	0.349
664.86	0.349
665.31	0.348
665.75	0.348
666.20	0.346
666.65	0.347
667.09	0.346
667.54	0.343
667.98	0.342
668.43	0.341
668.87	0.336
669.32	0.335
669.76	0.332
670.21	0.329
670.65	0.327
671.10	0.325
671.54	0.319
671.99	0.316
672.43	0.312
672.88	0.307
673.32	0.304
673.77	0.298
674.21	0.293
674.66	0.288
675.10	0.283
675.55	0.278
675.99	0.273
676.44	0.270
676.88	0.262
677.33	0.255
677.77	0.249
678.22	0.242
678.66	0.238
679.11	0.229
679.55	0.224
679.99	0.216
680.44	0.211
680.88	0.206
681.33	0.200
681.77	0.195
682.22	0.185
682.66	0.181
683.11	0.174
683.55	0.168
683.99	0.166
684.44	0.158
684.88	0.152
685.33	0.146
685.77	0.144
686.21	0.139
686.66	0.131
687.10	0.127
687.55	0.122
687.99	0.120
688.44	0.115
688.88	0.111
689.32	0.108
689.77	0.101
690.21	0.097
690.65	0.095
691.10	0.089
691.54	0.089
691.99	0.085
692.43	0.081
692.87	0.079
693.32	0.076
693.76	0.075
694.20	0.072
694.65	0.070
695.09	0.068
695.53	0.066
695.98	0.064
696.42	0.058
696.86	0.059
697.31	0.058
697.75	0.055
698.19	0.054
698.64	0.053
699.08	0.051
699.52	0.047
699.97	0.050
700.41	0.048
700.85	0.046
701.30	0.046
701.74	0.039
702.18	0.042
702.63	0.040
703.07	0.042
703.51	0.040
703.96	0.039
704.40	0.038
704.84	0.037
705.28	0.038
705.73	0.034
706.17	0.035
706.61	0.036
707.06	0.033
707.50	0.036
707.94	0.034
708.38	0.031
708.83	0.034
709.27	0.031
709.71	0.032
710.15	0.031
710.60	0.032
711.04	0.030
711.48	0.028
711.92	0.033
712.37	0.030
712.81	0.031
713.25	0.028
713.69	0.028
714.13	0.027
714.58	0.028
715.02	0.027
715.46	0.028
715.90	0.028
716.35	0.025
716.79	0.028
717.23	0.026
717.67	0.026
718.11	0.026
718.56	0.026
719.00	0.027
719.44	0.027
719.88	0.028
720.32	0.026
720.76	0.027
721.21	0.028
721.65	0.029
722.09	0.028
722.53	0.028
722.97	0.028
723.41	0.029
723.86	0.026
724.30	0.026
724.74	0.027
725.18	0.030
725.62	0.026
726.06	0.028
726.50	0.026
726.95	0.025
727.39	0.026
727.83	0.027
728.27	0.026
728.71	0.026
729.15	0.029
729.59	0.029
730.03	0.030
730.48	0.029
730.92	0.027
731.36	0.027
731.80	0.029
732.24	0.027
732.68	0.029
733.12	0.030
733.56	0.029
734.00	0.030
734.44	0.030
734.89	0.028
735.33	0.031
735.77	0.030
736.21	0.031
736.65	0.032
737.09	0.029
737.53	0.029
737.97	0.032
738.41	0.030
738.85	0.031
739.29	0.028
739.73	0.030
740.17	0.030
740.61	0.033
741.05	0.032
741.49	0.031
741.93	0.030
742.37	0.031
742.81	0.031
743.26	0.028
743.70	0.031
744.14	0.030
744.58	0.030
745.02	0.032
745.46	0.028
745.90	0.029
746.34	0.032
746.78	0.032
747.22	0.032
747.66	0.030
748.10	0.032
748.54	0.031
748.98	0.029
749.42	0.030
749.86	0.033
750.29	0.031
750.73	0.029
751.17	0.028
751.61	0.031
752.05	0.030
752.49	0.029
752.93	0.032
753.37	0.032
753.81	0.032
754.25	0.031
754.69	0.032
755.13	0.032
755.57	0.030
756.01	0.031
756.45	0.028
756.89	0.030
757.33	0.032
757.77	0.029
758.21	0.032
758.64	0.033
759.08	0.031
759.52	0.032
759.96	0.032
760.40	0.031
760.84	0.029
761.28	0.031
761.72	0.027
762.16	0.029
762.60	0.030
763.03	0.029
763.47	0.028
763.91	0.028
764.35	0.028
764.79	0.032
765.23	0.028
765.67	0.028
766.11	0.030
766.54	0.032
766.98	0.027
767.42	0.029
767.86	0.032
768.30	0.031
768.74	0.032
769.17	0.031
769.61	0.032
770.05	0.027
770.49	0.027
770.93	0.029
771.37	0.031
771.80	0.029
772.24	0.030
772.68	0.030
773.12	0.031
773.56	0.030
774.00	0.028
774.43	0.030
774.87	0.029
775.31	0.033
775.75	0.028
776.19	0.031
776.62	0.033
777.06	0.029
777.50	0.032
777.94	0.029
778.37	0.030
778.81	0.032
779.25	0.031
779.69	0.030
780.13	0.029
780.56	0.027
781.00	0.032
781.44	0.032
781.88	0.033
782.31	0.032
782.75	0.033
783.19	0.031
783.63	0.031
784.06	0.029
784.50	0.031
784.94	0.032
785.37	0.028
785.81	0.030
786.25	0.029
786.69	0.027
787.12	0.027
787.56	0.031
788.00	0.025
788.43	0.027
788.87	0.029
789.31	0.027
789.75	0.031
790.18	0.028
790.62	0.029
791.06	0.032
791.49	0.028
791.93	0.026
792.37	0.027
792.80	0.031
793.24	0.031
793.68	0.030
794.11	0.029
794.55	0.029
794.99	0.030
795.42	0.033
795.86	0.033
796.30	0.031
796.73	0.029
797.17	0.030
797.61	0.025
798.04	0.029
798.48	0.029
798.91	0.030
799.35	0.027
799.79	0.031
800.22	0.026
800.66	0.025
801.10	0.031
801.53	0.027
801.97	0.028
802.40	0.028
802.84	0.031
803.28	0.031
803.71	0.032
804.15	0.030
804.58	0.023
805.02	0.024
805.46	0.032
805.89	0.030
806.33	0.028
806.76	0.028
807.20	0.030
807.63	0.029
808.07	0.032
808.51	0.024
808.94	0.031
809.38	0.031
809.81	0.029
810.25	0.030
810.68	0.029
811.12	0.028
811.55	0.027
811.99	0.029
812.42	0.028
812.86	0.033
813.29	0.028
813.73	0.030
814.17	0.031
814.60	0.027
815.04	0.029
815.47	0.027
815.91	0.031
816.34	0.029
816.78	0.031
817.21	0.027
817.65	0.030
