SpectraSuite Data File
++++++++++++++++++++++++++++++++++++
Date: Tue Jul 11 16:25:02 CEST 2017
User: IPCE
Dark Spectrum Present: Yes
Reference Spectrum Present: Yes
Number of Sampled Component Spectra: 1
Spectrometers: HR+C0708
Integration Time (usec): 1000 (HR+C0708)
Spectra Averaged: 10 (HR+C0708)
Boxcar Smoothing: 0 (HR+C0708)
Correct for Electrical Dark: No (HR+C0708)
Strobe/Lamp Enabled: No (HR+C0708)
Correct for Detector Non-linearity: No (HR+C0708)
Correct for Stray Light: No (HR+C0708)
Number of Pixels in Processed Spectrum: 2048
>>>>>Begin Processed Spectral Data<<<<<
188.76	0.080
189.23	-0.176
189.70	-0.226
190.17	0.412
190.64	-0.000
191.12	0.374
191.59	0.233
192.06	-0.000
192.53	0.235
193.01	0.095
193.48	0.196
193.95	0.301
194.42	-0.099
194.90	0.108
195.37	0.099
195.84	-0.236
196.31	1.082
196.78	0.016
197.26	0.205
197.73	-0.057
198.20	-0.048
198.67	0.155
199.14	0.311
199.62	0.015
200.09	0.196
200.56	0.274
201.03	0.133
201.50	0.233
201.97	0.167
202.45	0.422
202.92	0.206
203.39	0.302
203.86	0.352
204.33	0.363
204.80	0.283
205.28	0.253
205.75	0.549
206.22	0.199
206.69	0.401
207.16	0.175
207.63	0.305
208.11	0.259
208.58	0.250
209.05	0.228
209.52	0.468
209.99	0.193
210.46	0.223
210.93	0.320
211.41	0.241
211.88	0.299
212.35	0.275
212.82	0.184
213.29	0.214
213.76	0.325
214.23	0.277
214.70	0.281
215.18	0.263
215.65	0.226
216.12	0.252
216.59	0.278
217.06	0.447
217.53	0.342
218.00	0.387
218.47	0.323
218.94	0.332
219.41	0.291
219.89	0.403
220.36	0.344
220.83	0.399
221.30	0.284
221.77	0.300
222.24	0.362
222.71	0.394
223.18	0.353
223.65	0.455
224.12	0.478
224.59	0.478
225.06	0.508
225.54	0.492
226.01	0.611
226.48	0.695
226.95	0.619
227.42	0.714
227.89	0.729
228.36	0.778
228.83	0.845
229.30	0.789
229.77	0.989
230.24	1.093
230.71	1.068
231.18	1.020
231.65	1.280
232.12	1.275
232.59	1.197
233.06	1.287
233.53	1.309
234.00	1.389
234.47	1.447
234.94	1.552
235.41	1.571
235.88	1.610
236.35	1.554
236.82	1.671
237.29	1.686
237.76	1.717
238.23	1.747
238.70	1.798
239.17	1.840
239.64	1.820
240.11	1.927
240.58	1.903
241.05	1.989
241.52	1.925
241.99	2.017
242.46	1.909
242.93	2.036
243.40	2.088
243.87	2.097
244.34	2.087
244.81	2.163
245.28	2.036
245.75	2.151
246.22	2.140
246.69	2.175
247.16	2.275
247.63	2.176
248.10	2.130
248.57	2.076
249.04	2.107
249.51	2.144
249.98	2.127
250.45	2.208
250.92	2.091
251.39	2.060
251.85	1.990
252.32	1.911
252.79	1.741
253.26	1.720
253.73	1.654
254.20	1.497
254.67	1.436
255.14	1.381
255.61	1.313
256.08	1.272
256.55	1.216
257.02	1.166
257.49	1.127
257.95	1.085
258.42	1.045
258.89	1.010
259.36	0.978
259.83	0.950
260.30	0.931
260.77	0.900
261.24	0.881
261.71	0.854
262.17	0.844
262.64	0.827
263.11	0.801
263.58	0.789
264.05	0.774
264.52	0.755
264.99	0.744
265.46	0.730
265.92	0.715
266.39	0.705
266.86	0.691
267.33	0.679
267.80	0.670
268.27	0.660
268.74	0.650
269.20	0.639
269.67	0.633
270.14	0.621
270.61	0.610
271.08	0.601
271.55	0.594
272.01	0.585
272.48	0.580
272.95	0.572
273.42	0.565
273.89	0.560
274.36	0.551
274.82	0.545
275.29	0.542
275.76	0.538
276.23	0.534
276.70	0.529
277.16	0.525
277.63	0.521
278.10	0.512
278.57	0.513
279.04	0.506
279.50	0.504
279.97	0.503
280.44	0.497
280.91	0.498
281.38	0.491
281.84	0.487
282.31	0.491
282.78	0.487
283.25	0.485
283.72	0.484
284.18	0.482
284.65	0.478
285.12	0.480
285.59	0.478
286.05	0.478
286.52	0.478
286.99	0.475
287.46	0.475
287.92	0.475
288.39	0.475
288.86	0.471
289.33	0.474
289.79	0.469
290.26	0.467
290.73	0.466
291.20	0.462
291.66	0.465
292.13	0.458
292.60	0.453
293.07	0.451
293.53	0.446
294.00	0.441
294.47	0.436
294.93	0.431
295.40	0.423
295.87	0.419
296.34	0.414
296.80	0.402
297.27	0.399
297.74	0.395
298.20	0.387
298.67	0.381
299.14	0.375
299.60	0.366
300.07	0.357
300.54	0.351
301.01	0.344
301.47	0.340
301.94	0.332
302.41	0.325
302.87	0.319
303.34	0.310
303.81	0.309
304.27	0.300
304.74	0.296
305.21	0.291
305.67	0.282
306.14	0.278
306.61	0.273
307.07	0.268
307.54	0.262
308.01	0.259
308.47	0.257
308.94	0.252
309.40	0.247
309.87	0.244
310.34	0.241
310.80	0.240
311.27	0.233
311.74	0.232
312.20	0.226
312.67	0.228
313.13	0.226
313.60	0.223
314.07	0.220
314.53	0.218
315.00	0.219
315.47	0.216
315.93	0.214
316.40	0.215
316.86	0.212
317.33	0.211
317.80	0.208
318.26	0.206
318.73	0.205
319.19	0.202
319.66	0.201
320.13	0.199
320.59	0.198
321.06	0.199
321.52	0.198
321.99	0.197
322.45	0.195
322.92	0.197
323.39	0.193
323.85	0.191
324.32	0.191
324.78	0.188
325.25	0.184
325.71	0.186
326.18	0.182
326.64	0.181
327.11	0.181
327.58	0.179
328.04	0.181
328.51	0.178
328.97	0.179
329.44	0.177
329.90	0.175
330.37	0.172
330.83	0.173
331.30	0.169
331.76	0.167
332.23	0.167
332.69	0.164
333.16	0.165
333.62	0.162
334.09	0.159
334.56	0.161
335.02	0.157
335.49	0.154
335.95	0.154
336.42	0.151
336.88	0.146
337.35	0.148
337.81	0.148
338.28	0.146
338.74	0.146
339.20	0.145
339.67	0.146
340.13	0.144
340.60	0.142
341.06	0.138
341.53	0.139
341.99	0.140
342.46	0.137
342.92	0.137
343.39	0.135
343.85	0.133
344.32	0.131
344.78	0.134
345.25	0.131
345.71	0.134
346.17	0.131
346.64	0.131
347.10	0.129
347.57	0.130
348.03	0.127
348.50	0.127
348.96	0.125
349.43	0.125
349.89	0.122
350.35	0.124
350.82	0.122
351.28	0.122
351.75	0.122
352.21	0.124
352.67	0.118
353.14	0.118
353.60	0.118
354.07	0.117
354.53	0.114
355.00	0.114
355.46	0.112
355.92	0.113
356.39	0.110
356.85	0.110
357.31	0.108
357.78	0.114
358.24	0.105
358.71	0.107
359.17	0.102
359.63	0.103
360.10	0.103
360.56	0.101
361.03	0.098
361.49	0.098
361.95	0.096
362.42	0.095
362.88	0.094
363.34	0.092
363.81	0.091
364.27	0.090
364.73	0.089
365.20	0.085
365.66	0.085
366.12	0.084
366.59	0.084
367.05	0.082
367.51	0.079
367.98	0.078
368.44	0.081
368.90	0.081
369.37	0.081
369.83	0.076
370.29	0.077
370.76	0.078
371.22	0.075
371.68	0.076
372.15	0.076
372.61	0.077
373.07	0.078
373.54	0.078
374.00	0.075
374.46	0.075
374.92	0.071
375.39	0.074
375.85	0.073
376.31	0.073
376.78	0.074
377.24	0.072
377.70	0.074
378.16	0.074
378.63	0.073
379.09	0.072
379.55	0.074
380.01	0.070
380.48	0.073
380.94	0.072
381.40	0.070
381.87	0.071
382.33	0.071
382.79	0.071
383.25	0.070
383.72	0.071
384.18	0.071
384.64	0.069
385.10	0.068
385.56	0.069
386.03	0.069
386.49	0.066
386.95	0.067
387.41	0.067
387.88	0.070
388.34	0.070
388.80	0.068
389.26	0.068
389.72	0.069
390.19	0.069
390.65	0.065
391.11	0.069
391.57	0.067
392.04	0.068
392.50	0.064
392.96	0.067
393.42	0.067
393.88	0.070
394.34	0.067
394.81	0.068
395.27	0.066
395.73	0.062
396.19	0.066
396.65	0.065
397.12	0.062
397.58	0.063
398.04	0.065
398.50	0.067
398.96	0.063
399.42	0.061
399.89	0.064
400.35	0.061
400.81	0.065
401.27	0.066
401.73	0.063
402.19	0.063
402.65	0.062
403.12	0.061
403.58	0.062
404.04	0.061
404.50	0.060
404.96	0.063
405.42	0.062
405.88	0.059
406.34	0.061
406.81	0.060
407.27	0.060
407.73	0.060
408.19	0.056
408.65	0.059
409.11	0.059
409.57	0.059
410.03	0.060
410.49	0.057
410.96	0.058
411.42	0.059
411.88	0.059
412.34	0.055
412.80	0.058
413.26	0.058
413.72	0.056
414.18	0.058
414.64	0.058
415.10	0.055
415.56	0.056
416.02	0.054
416.48	0.055
416.95	0.054
417.41	0.056
417.87	0.054
418.33	0.053
418.79	0.057
419.25	0.056
419.71	0.056
420.17	0.055
420.63	0.054
421.09	0.055
421.55	0.055
422.01	0.050
422.47	0.054
422.93	0.055
423.39	0.055
423.85	0.055
424.31	0.052
424.77	0.052
425.23	0.053
425.69	0.056
426.15	0.053
426.61	0.056
427.07	0.055
427.53	0.053
427.99	0.053
428.45	0.056
428.91	0.052
429.37	0.053
429.83	0.052
430.29	0.053
430.75	0.053
431.21	0.053
431.67	0.055
432.13	0.051
432.59	0.051
433.05	0.050
433.51	0.052
433.97	0.053
434.43	0.050
434.89	0.051
435.35	0.050
435.81	0.048
436.27	0.050
436.73	0.053
437.19	0.052
437.65	0.049
438.11	0.051
438.57	0.054
439.03	0.049
439.48	0.051
439.94	0.048
440.40	0.050
440.86	0.053
441.32	0.049
441.78	0.051
442.24	0.048
442.70	0.050
443.16	0.048
443.62	0.049
444.08	0.050
444.54	0.051
444.99	0.049
445.45	0.051
445.91	0.049
446.37	0.050
446.83	0.050
447.29	0.051
447.75	0.051
448.21	0.051
448.67	0.049
449.12	0.047
449.58	0.047
450.04	0.046
450.50	0.047
450.96	0.045
451.42	0.050
451.88	0.053
452.34	0.047
452.79	0.048
453.25	0.050
453.71	0.048
454.17	0.047
454.63	0.050
455.09	0.046
455.55	0.050
456.00	0.048
456.46	0.048
456.92	0.049
457.38	0.051
457.84	0.047
458.30	0.050
458.75	0.048
459.21	0.049
459.67	0.049
460.13	0.050
460.59	0.050
461.04	0.047
461.50	0.048
461.96	0.051
462.42	0.052
462.88	0.048
463.33	0.048
463.79	0.049
464.25	0.048
464.71	0.048
465.17	0.050
465.62	0.049
466.08	0.048
466.54	0.049
467.00	0.049
467.46	0.048
467.91	0.051
468.37	0.050
468.83	0.049
469.29	0.049
469.74	0.050
470.20	0.050
470.66	0.049
471.12	0.050
471.57	0.049
472.03	0.049
472.49	0.051
472.95	0.048
473.40	0.048
473.86	0.050
474.32	0.050
474.78	0.049
475.23	0.050
475.69	0.049
476.15	0.053
476.60	0.050
477.06	0.049
477.52	0.050
477.98	0.050
478.43	0.050
478.89	0.053
479.35	0.049
479.80	0.050
480.26	0.048
480.72	0.050
481.18	0.051
481.63	0.047
482.09	0.051
482.55	0.051
483.00	0.049
483.46	0.051
483.92	0.050
484.37	0.051
484.83	0.049
485.29	0.051
485.74	0.052
486.20	0.050
486.66	0.051
487.11	0.052
487.57	0.050
488.03	0.051
488.48	0.051
488.94	0.051
489.40	0.051
489.85	0.050
490.31	0.047
490.77	0.053
491.22	0.050
491.68	0.050
492.13	0.049
492.59	0.051
493.05	0.051
493.50	0.051
493.96	0.048
494.42	0.050
494.87	0.051
495.33	0.051
495.78	0.050
496.24	0.049
496.70	0.051
497.15	0.050
497.61	0.050
498.06	0.052
498.52	0.050
498.98	0.050
499.43	0.048
499.89	0.050
500.34	0.049
500.80	0.050
501.25	0.050
501.71	0.050
502.17	0.049
502.62	0.049
503.08	0.048
503.53	0.050
503.99	0.051
504.44	0.048
504.90	0.048
505.36	0.048
505.81	0.048
506.27	0.048
506.72	0.048
507.18	0.050
507.63	0.050
508.09	0.049
508.54	0.049
509.00	0.049
509.45	0.049
509.91	0.051
510.36	0.048
510.82	0.049
511.27	0.047
511.73	0.049
512.19	0.048
512.64	0.050
513.10	0.050
513.55	0.048
514.01	0.046
514.46	0.047
514.92	0.047
515.37	0.049
515.83	0.048
516.28	0.050
516.73	0.050
517.19	0.047
517.64	0.045
518.10	0.050
518.55	0.049
519.01	0.046
519.46	0.047
519.92	0.049
520.37	0.050
520.83	0.051
521.28	0.049
521.74	0.048
522.19	0.048
522.65	0.050
523.10	0.048
523.55	0.050
524.01	0.049
524.46	0.050
524.92	0.050
525.37	0.048
525.83	0.050
526.28	0.048
526.73	0.050
527.19	0.049
527.64	0.050
528.10	0.048
528.55	0.049
529.01	0.051
529.46	0.051
529.91	0.050
530.37	0.047
530.82	0.051
531.28	0.050
531.73	0.049
532.18	0.052
532.64	0.051
533.09	0.050
533.54	0.051
534.00	0.050
534.45	0.051
534.91	0.049
535.36	0.050
535.81	0.050
536.27	0.054
536.72	0.049
537.17	0.053
537.63	0.054
538.08	0.052
538.54	0.053
538.99	0.051
539.44	0.053
539.90	0.053
540.35	0.053
540.80	0.051
541.26	0.052
541.71	0.054
542.16	0.053
542.62	0.055
543.07	0.055
543.52	0.054
543.98	0.055
544.43	0.055
544.88	0.056
545.34	0.056
545.79	0.056
546.24	0.057
546.69	0.055
547.15	0.055
547.60	0.060
548.05	0.057
548.51	0.057
548.96	0.057
549.41	0.060
549.86	0.061
550.32	0.059
550.77	0.059
551.22	0.062
551.68	0.060
552.13	0.060
552.58	0.062
553.03	0.061
553.49	0.063
553.94	0.060
554.39	0.063
554.84	0.066
555.30	0.065
555.75	0.063
556.20	0.065
556.65	0.064
557.11	0.066
557.56	0.069
558.01	0.066
558.46	0.069
558.92	0.067
559.37	0.069
559.82	0.070
560.27	0.069
560.72	0.070
561.18	0.068
561.63	0.071
562.08	0.071
562.53	0.071
562.99	0.071
563.44	0.072
563.89	0.073
564.34	0.072
564.79	0.075
565.25	0.076
565.70	0.075
566.15	0.077
566.60	0.076
567.05	0.076
567.50	0.079
567.96	0.079
568.41	0.081
568.86	0.078
569.31	0.082
569.76	0.081
570.21	0.081
570.67	0.079
571.12	0.083
571.57	0.084
572.02	0.085
572.47	0.086
572.92	0.086
573.37	0.084
573.83	0.087
574.28	0.087
574.73	0.088
575.18	0.089
575.63	0.091
576.08	0.090
576.53	0.090
576.98	0.094
577.44	0.092
577.89	0.091
578.34	0.093
578.79	0.098
579.24	0.096
579.69	0.099
580.14	0.099
580.59	0.100
581.04	0.100
581.49	0.103
581.95	0.103
582.40	0.103
582.85	0.106
583.30	0.105
583.75	0.108
584.20	0.109
584.65	0.108
585.10	0.111
585.55	0.111
586.00	0.114
586.45	0.116
586.90	0.116
587.35	0.116
587.80	0.118
588.25	0.119
588.71	0.120
589.16	0.120
589.61	0.124
590.06	0.125
590.51	0.128
590.96	0.126
591.41	0.129
591.86	0.132
592.31	0.133
592.76	0.134
593.21	0.133
593.66	0.136
594.11	0.138
594.56	0.140
595.01	0.143
595.46	0.146
595.91	0.145
596.36	0.147
596.81	0.149
597.26	0.150
597.71	0.153
598.16	0.153
598.61	0.156
599.06	0.157
599.51	0.157
599.96	0.161
600.41	0.161
600.86	0.162
601.31	0.163
601.76	0.165
602.21	0.166
602.65	0.168
603.10	0.171
603.55	0.172
604.00	0.173
604.45	0.173
604.90	0.177
605.35	0.178
605.80	0.176
606.25	0.181
606.70	0.182
607.15	0.184
607.60	0.184
608.05	0.184
608.50	0.188
608.95	0.188
609.39	0.189
609.84	0.189
610.29	0.190
610.74	0.192
611.19	0.193
611.64	0.193
612.09	0.196
612.54	0.196
612.99	0.197
613.44	0.198
613.88	0.199
614.33	0.197
614.78	0.199
615.23	0.200
615.68	0.201
616.13	0.201
616.58	0.202
617.03	0.201
617.47	0.204
617.92	0.206
618.37	0.204
618.82	0.205
619.27	0.205
619.72	0.205
620.17	0.206
620.61	0.207
621.06	0.210
621.51	0.209
621.96	0.207
622.41	0.211
622.86	0.208
623.30	0.210
623.75	0.210
624.20	0.212
624.65	0.214
625.10	0.214
625.54	0.216
625.99	0.216
626.44	0.216
626.89	0.217
627.34	0.219
627.78	0.220
628.23	0.221
628.68	0.222
629.13	0.222
629.58	0.222
630.02	0.226
630.47	0.225
630.92	0.228
631.37	0.229
631.81	0.231
632.26	0.231
632.71	0.234
633.16	0.235
633.61	0.235
634.05	0.237
634.50	0.240
634.95	0.240
635.40	0.241
635.84	0.247
636.29	0.248
636.74	0.247
637.18	0.250
637.63	0.251
638.08	0.253
638.53	0.257
638.97	0.257
639.42	0.262
639.87	0.265
640.32	0.267
640.76	0.268
641.21	0.266
641.66	0.271
642.10	0.276
642.55	0.275
643.00	0.279
643.44	0.281
643.89	0.284
644.34	0.289
644.79	0.289
645.23	0.292
645.68	0.295
646.13	0.298
646.57	0.300
647.02	0.301
647.47	0.302
647.91	0.306
648.36	0.311
648.81	0.313
649.25	0.314
649.70	0.317
650.15	0.319
650.59	0.321
651.04	0.324
651.48	0.325
651.93	0.328
652.38	0.329
652.82	0.330
653.27	0.330
653.72	0.336
654.16	0.338
654.61	0.339
655.06	0.342
655.50	0.343
655.95	0.341
656.39	0.345
656.84	0.347
657.29	0.347
657.73	0.349
658.18	0.350
658.62	0.351
659.07	0.354
659.52	0.355
659.96	0.356
660.41	0.353
660.85	0.354
661.30	0.357
661.74	0.359
662.19	0.360
662.64	0.356
663.08	0.358
663.53	0.359
663.97	0.359
664.42	0.359
664.86	0.358
665.31	0.356
665.75	0.355
666.20	0.356
666.65	0.356
667.09	0.355
667.54	0.353
667.98	0.351
668.43	0.349
668.87	0.348
669.32	0.345
669.76	0.342
670.21	0.339
670.65	0.335
671.10	0.334
671.54	0.328
671.99	0.325
672.43	0.320
672.88	0.314
673.32	0.311
673.77	0.305
674.21	0.303
674.66	0.295
675.10	0.292
675.55	0.288
675.99	0.279
676.44	0.277
676.88	0.266
677.33	0.262
677.77	0.255
678.22	0.251
678.66	0.241
679.11	0.235
679.55	0.229
679.99	0.223
680.44	0.216
680.88	0.211
681.33	0.204
681.77	0.200
682.22	0.192
682.66	0.185
683.11	0.179
683.55	0.173
683.99	0.166
684.44	0.162
684.88	0.157
685.33	0.150
685.77	0.146
686.21	0.141
686.66	0.135
687.10	0.130
687.55	0.126
687.99	0.122
688.44	0.117
688.88	0.112
689.32	0.110
689.77	0.104
690.21	0.099
690.65	0.097
691.10	0.091
691.54	0.089
691.99	0.088
692.43	0.082
692.87	0.080
693.32	0.077
693.76	0.073
694.20	0.074
694.65	0.071
695.09	0.067
695.53	0.067
695.98	0.064
696.42	0.059
696.86	0.058
697.31	0.059
697.75	0.055
698.19	0.054
698.64	0.053
699.08	0.052
699.52	0.050
699.97	0.049
700.41	0.049
700.85	0.048
701.30	0.048
701.74	0.042
702.18	0.042
702.63	0.041
703.07	0.041
703.51	0.040
703.96	0.039
704.40	0.039
704.84	0.038
705.28	0.039
705.73	0.034
706.17	0.035
706.61	0.037
707.06	0.033
707.50	0.034
707.94	0.033
708.38	0.032
708.83	0.034
709.27	0.030
709.71	0.032
710.15	0.032
710.60	0.032
711.04	0.028
711.48	0.029
711.92	0.032
712.37	0.029
712.81	0.030
713.25	0.028
713.69	0.028
714.13	0.028
714.58	0.029
715.02	0.028
715.46	0.027
715.90	0.027
716.35	0.027
716.79	0.027
717.23	0.027
717.67	0.026
718.11	0.025
718.56	0.024
719.00	0.026
719.44	0.027
719.88	0.028
720.32	0.028
720.76	0.026
721.21	0.028
721.65	0.027
722.09	0.029
722.53	0.027
722.97	0.026
723.41	0.028
723.86	0.025
724.30	0.025
724.74	0.026
725.18	0.029
725.62	0.027
726.06	0.029
726.50	0.025
726.95	0.025
727.39	0.029
727.83	0.028
728.27	0.027
728.71	0.024
729.15	0.026
729.59	0.028
730.03	0.027
730.48	0.026
730.92	0.029
731.36	0.028
731.80	0.029
732.24	0.027
732.68	0.029
733.12	0.030
733.56	0.030
734.00	0.029
734.44	0.032
734.89	0.030
735.33	0.032
735.77	0.029
736.21	0.029
736.65	0.032
737.09	0.031
737.53	0.029
737.97	0.033
738.41	0.029
738.85	0.032
739.29	0.030
739.73	0.030
740.17	0.031
740.61	0.034
741.05	0.033
741.49	0.028
741.93	0.032
742.37	0.028
742.81	0.029
743.26	0.029
743.70	0.029
744.14	0.032
744.58	0.031
745.02	0.031
745.46	0.029
745.90	0.032
746.34	0.031
746.78	0.032
747.22	0.030
747.66	0.031
748.10	0.030
748.54	0.031
748.98	0.031
749.42	0.030
749.86	0.028
750.29	0.033
750.73	0.031
751.17	0.030
751.61	0.030
752.05	0.031
752.49	0.030
752.93	0.031
753.37	0.030
753.81	0.030
754.25	0.029
754.69	0.029
755.13	0.030
755.57	0.031
756.01	0.030
756.45	0.029
756.89	0.029
757.33	0.033
757.77	0.029
758.21	0.033
758.64	0.033
759.08	0.030
759.52	0.032
759.96	0.032
760.40	0.031
760.84	0.028
761.28	0.031
761.72	0.029
762.16	0.030
762.60	0.027
763.03	0.029
763.47	0.026
763.91	0.029
764.35	0.029
764.79	0.031
765.23	0.031
765.67	0.026
766.11	0.029
766.54	0.031
766.98	0.028
767.42	0.029
767.86	0.031
768.30	0.033
768.74	0.031
769.17	0.033
769.61	0.031
770.05	0.029
770.49	0.029
770.93	0.029
771.37	0.029
771.80	0.030
772.24	0.031
772.68	0.029
773.12	0.027
773.56	0.028
774.00	0.029
774.43	0.030
774.87	0.027
775.31	0.029
775.75	0.028
776.19	0.028
776.62	0.031
777.06	0.025
777.50	0.030
777.94	0.030
778.37	0.030
778.81	0.031
779.25	0.031
779.69	0.027
780.13	0.031
780.56	0.030
781.00	0.033
781.44	0.031
781.88	0.032
782.31	0.032
782.75	0.031
783.19	0.031
783.63	0.032
784.06	0.028
784.50	0.033
784.94	0.029
785.37	0.028
785.81	0.032
786.25	0.027
786.69	0.029
787.12	0.031
787.56	0.029
788.00	0.026
788.43	0.026
788.87	0.029
789.31	0.030
789.75	0.028
790.18	0.027
790.62	0.030
791.06	0.031
791.49	0.030
791.93	0.029
792.37	0.026
792.80	0.029
793.24	0.031
793.68	0.029
794.11	0.030
794.55	0.028
794.99	0.028
795.42	0.032
795.86	0.030
796.30	0.030
796.73	0.027
797.17	0.031
797.61	0.028
798.04	0.028
798.48	0.028
798.91	0.029
799.35	0.028
799.79	0.032
800.22	0.028
800.66	0.026
801.10	0.031
801.53	0.026
801.97	0.029
802.40	0.028
802.84	0.030
803.28	0.028
803.71	0.026
804.15	0.032
804.58	0.027
805.02	0.026
805.46	0.027
805.89	0.029
806.33	0.028
806.76	0.030
807.20	0.029
807.63	0.026
808.07	0.030
808.51	0.025
808.94	0.029
809.38	0.029
809.81	0.027
810.25	0.031
810.68	0.033
811.12	0.028
811.55	0.026
811.99	0.029
812.42	0.029
812.86	0.027
813.29	0.030
813.73	0.026
814.17	0.026
814.60	0.029
815.04	0.029
815.47	0.027
815.91	0.030
816.34	0.029
816.78	0.029
817.21	0.028
817.65	0.031
818.08	0.031
