SpectraSuite Data File
++++++++++++++++++++++++++++++++++++
Date: Tue Jul 11 16:10:32 CEST 2017
User: IPCE
Dark Spectrum Present: Yes
Reference Spectrum Present: Yes
Number of Sampled Component Spectra: 1
Spectrometers: HR+C0708
Integration Time (usec): 1000 (HR+C0708)
Spectra Averaged: 10 (HR+C0708)
Boxcar Smoothing: 0 (HR+C0708)
Correct for Electrical Dark: No (HR+C0708)
Strobe/Lamp Enabled: No (HR+C0708)
Correct for Detector Non-linearity: No (HR+C0708)
Correct for Stray Light: No (HR+C0708)
Number of Pixels in Processed Spectrum: 2048
>>>>>Begin Processed Spectral Data<<<<<
188.76	0.219
189.23	-0.034
189.70	0.165
190.17	0.261
190.64	-0.000
191.12	0.354
191.59	0.312
192.06	-0.000
192.53	0.074
193.01	-0.060
193.48	-0.000
193.95	0.135
194.42	-0.062
194.90	0.043
195.37	-0.052
195.84	-0.280
196.31	0.709
196.78	0.345
197.26	0.231
197.73	0.362
198.20	0.140
198.67	0.143
199.14	0.304
199.62	0.115
200.09	0.064
200.56	0.269
201.03	0.186
201.50	0.249
201.97	0.199
202.45	0.374
202.92	0.466
203.39	0.310
203.86	0.269
204.33	0.230
204.80	0.315
205.28	0.298
205.75	0.391
206.22	0.300
206.69	0.452
207.16	0.305
207.63	0.280
208.11	0.301
208.58	0.275
209.05	0.354
209.52	0.630
209.99	0.274
210.46	0.288
210.93	0.273
211.41	0.245
211.88	0.212
212.35	0.257
212.82	0.239
213.29	0.331
213.76	0.311
214.23	0.329
214.70	0.244
215.18	0.287
215.65	0.345
216.12	0.254
216.59	0.178
217.06	0.350
217.53	0.390
218.00	0.332
218.47	0.406
218.94	0.252
219.41	0.381
219.89	0.399
220.36	0.335
220.83	0.358
221.30	0.340
221.77	0.296
222.24	0.391
222.71	0.480
223.18	0.384
223.65	0.312
224.12	0.378
224.59	0.499
225.06	0.580
225.54	0.521
226.01	0.590
226.48	0.654
226.95	0.545
227.42	0.772
227.89	0.820
228.36	0.787
228.83	0.760
229.30	0.864
229.77	0.912
230.24	1.139
230.71	1.007
231.18	1.043
231.65	1.319
232.12	1.322
232.59	1.223
233.06	1.397
233.53	1.314
234.00	1.478
234.47	1.534
234.94	1.533
235.41	1.510
235.88	1.694
236.35	1.518
236.82	1.701
237.29	1.740
237.76	1.789
238.23	1.715
238.70	1.845
239.17	1.873
239.64	1.841
240.11	1.902
240.58	1.897
241.05	2.001
241.52	1.950
241.99	2.008
242.46	2.002
242.93	2.004
243.40	1.988
243.87	2.099
244.34	2.120
244.81	2.063
245.28	2.062
245.75	2.251
246.22	2.242
246.69	2.214
247.16	2.253
247.63	2.157
248.10	2.171
248.57	2.089
249.04	2.149
249.51	2.234
249.98	2.126
250.45	2.267
250.92	2.235
251.39	2.086
251.85	1.975
252.32	1.935
252.79	1.764
253.26	1.764
253.73	1.638
254.20	1.541
254.67	1.487
255.14	1.413
255.61	1.358
256.08	1.319
256.55	1.251
257.02	1.204
257.49	1.172
257.95	1.120
258.42	1.086
258.89	1.052
259.36	1.025
259.83	0.996
260.30	0.969
260.77	0.943
261.24	0.927
261.71	0.899
262.17	0.883
262.64	0.867
263.11	0.845
263.58	0.829
264.05	0.810
264.52	0.799
264.99	0.784
265.46	0.768
265.92	0.755
266.39	0.744
266.86	0.728
267.33	0.717
267.80	0.713
268.27	0.700
268.74	0.688
269.20	0.679
269.67	0.672
270.14	0.663
270.61	0.650
271.08	0.642
271.55	0.635
272.01	0.627
272.48	0.620
272.95	0.616
273.42	0.608
273.89	0.598
274.36	0.594
274.82	0.590
275.29	0.584
275.76	0.579
276.23	0.573
276.70	0.568
277.16	0.566
277.63	0.562
278.10	0.557
278.57	0.552
279.04	0.548
279.50	0.547
279.97	0.546
280.44	0.539
280.91	0.539
281.38	0.536
281.84	0.536
282.31	0.532
282.78	0.531
283.25	0.528
283.72	0.528
284.18	0.526
284.65	0.526
285.12	0.523
285.59	0.527
286.05	0.521
286.52	0.523
286.99	0.524
287.46	0.521
287.92	0.516
288.39	0.520
288.86	0.519
289.33	0.519
289.79	0.514
290.26	0.517
290.73	0.513
291.20	0.511
291.66	0.509
292.13	0.506
292.60	0.501
293.07	0.498
293.53	0.498
294.00	0.493
294.47	0.486
294.93	0.481
295.40	0.472
295.87	0.467
296.34	0.461
296.80	0.451
297.27	0.444
297.74	0.439
298.20	0.432
298.67	0.426
299.14	0.416
299.60	0.407
300.07	0.402
300.54	0.393
301.01	0.387
301.47	0.380
301.94	0.373
302.41	0.366
302.87	0.361
303.34	0.354
303.81	0.344
304.27	0.337
304.74	0.331
305.21	0.329
305.67	0.321
306.14	0.315
306.61	0.308
307.07	0.304
307.54	0.300
308.01	0.295
308.47	0.291
308.94	0.285
309.40	0.282
309.87	0.280
310.34	0.277
310.80	0.275
311.27	0.268
311.74	0.265
312.20	0.262
312.67	0.260
313.13	0.261
313.60	0.257
314.07	0.255
314.53	0.248
315.00	0.249
315.47	0.250
315.93	0.246
316.40	0.248
316.86	0.244
317.33	0.241
317.80	0.237
318.26	0.239
318.73	0.237
319.19	0.236
319.66	0.233
320.13	0.230
320.59	0.230
321.06	0.227
321.52	0.225
321.99	0.225
322.45	0.225
322.92	0.225
323.39	0.219
323.85	0.218
324.32	0.220
324.78	0.218
325.25	0.214
325.71	0.215
326.18	0.211
326.64	0.211
327.11	0.210
327.58	0.209
328.04	0.211
328.51	0.208
328.97	0.207
329.44	0.202
329.90	0.202
330.37	0.201
330.83	0.199
331.30	0.198
331.76	0.193
332.23	0.194
332.69	0.194
333.16	0.191
333.62	0.187
334.09	0.184
334.56	0.183
335.02	0.182
335.49	0.180
335.95	0.178
336.42	0.173
336.88	0.172
337.35	0.173
337.81	0.175
338.28	0.168
338.74	0.174
339.20	0.170
339.67	0.169
340.13	0.165
340.60	0.168
341.06	0.164
341.53	0.161
341.99	0.164
342.46	0.160
342.92	0.159
343.39	0.157
343.85	0.158
344.32	0.157
344.78	0.157
345.25	0.155
345.71	0.156
346.17	0.156
346.64	0.155
347.10	0.153
347.57	0.152
348.03	0.150
348.50	0.148
348.96	0.145
349.43	0.148
349.89	0.145
350.35	0.148
350.82	0.146
351.28	0.144
351.75	0.146
352.21	0.144
352.67	0.138
353.14	0.141
353.60	0.136
354.07	0.133
354.53	0.136
355.00	0.134
355.46	0.131
355.92	0.131
356.39	0.132
356.85	0.126
357.31	0.125
357.78	0.128
358.24	0.121
358.71	0.119
359.17	0.118
359.63	0.114
360.10	0.113
360.56	0.111
361.03	0.108
361.49	0.106
361.95	0.103
362.42	0.101
362.88	0.101
363.34	0.097
363.81	0.095
364.27	0.092
364.73	0.091
365.20	0.090
365.66	0.088
366.12	0.084
366.59	0.083
367.05	0.082
367.51	0.085
367.98	0.080
368.44	0.079
368.90	0.077
369.37	0.083
369.83	0.075
370.29	0.077
370.76	0.077
371.22	0.077
371.68	0.075
372.15	0.074
372.61	0.075
373.07	0.075
373.54	0.075
374.00	0.073
374.46	0.073
374.92	0.071
375.39	0.072
375.85	0.075
376.31	0.070
376.78	0.073
377.24	0.071
377.70	0.071
378.16	0.072
378.63	0.071
379.09	0.070
379.55	0.072
380.01	0.070
380.48	0.070
380.94	0.070
381.40	0.069
381.87	0.068
382.33	0.070
382.79	0.069
383.25	0.068
383.72	0.069
384.18	0.067
384.64	0.066
385.10	0.067
385.56	0.067
386.03	0.064
386.49	0.067
386.95	0.064
387.41	0.065
387.88	0.068
388.34	0.067
388.80	0.065
389.26	0.066
389.72	0.065
390.19	0.065
390.65	0.064
391.11	0.065
391.57	0.065
392.04	0.066
392.50	0.061
392.96	0.063
393.42	0.064
393.88	0.066
394.34	0.062
394.81	0.066
395.27	0.060
395.73	0.059
396.19	0.066
396.65	0.063
397.12	0.062
397.58	0.061
398.04	0.061
398.50	0.061
398.96	0.062
399.42	0.059
399.89	0.062
400.35	0.059
400.81	0.062
401.27	0.064
401.73	0.060
402.19	0.060
402.65	0.060
403.12	0.059
403.58	0.059
404.04	0.057
404.50	0.059
404.96	0.060
405.42	0.057
405.88	0.055
406.34	0.058
406.81	0.056
407.27	0.056
407.73	0.056
408.19	0.055
408.65	0.055
409.11	0.058
409.57	0.057
410.03	0.058
410.49	0.055
410.96	0.056
411.42	0.055
411.88	0.055
412.34	0.054
412.80	0.055
413.26	0.055
413.72	0.051
414.18	0.055
414.64	0.053
415.10	0.053
415.56	0.055
416.02	0.052
416.48	0.051
416.95	0.053
417.41	0.052
417.87	0.052
418.33	0.052
418.79	0.052
419.25	0.052
419.71	0.050
420.17	0.052
420.63	0.051
421.09	0.052
421.55	0.053
422.01	0.048
422.47	0.054
422.93	0.053
423.39	0.051
423.85	0.053
424.31	0.051
424.77	0.049
425.23	0.051
425.69	0.054
426.15	0.051
426.61	0.053
427.07	0.051
427.53	0.052
427.99	0.053
428.45	0.050
428.91	0.050
429.37	0.052
429.83	0.053
430.29	0.053
430.75	0.048
431.21	0.049
431.67	0.052
432.13	0.047
432.59	0.049
433.05	0.050
433.51	0.051
433.97	0.052
434.43	0.050
434.89	0.049
435.35	0.049
435.81	0.046
436.27	0.049
436.73	0.048
437.19	0.049
437.65	0.046
438.11	0.049
438.57	0.052
439.03	0.046
439.48	0.052
439.94	0.048
440.40	0.047
440.86	0.049
441.32	0.046
441.78	0.048
442.24	0.044
442.70	0.045
443.16	0.048
443.62	0.047
444.08	0.048
444.54	0.049
444.99	0.049
445.45	0.048
445.91	0.048
446.37	0.048
446.83	0.047
447.29	0.046
447.75	0.047
448.21	0.049
448.67	0.047
449.12	0.043
449.58	0.045
450.04	0.044
450.50	0.046
450.96	0.044
451.42	0.047
451.88	0.049
452.34	0.046
452.79	0.045
453.25	0.048
453.71	0.046
454.17	0.044
454.63	0.048
455.09	0.047
455.55	0.046
456.00	0.045
456.46	0.045
456.92	0.049
457.38	0.049
457.84	0.043
458.30	0.048
458.75	0.044
459.21	0.047
459.67	0.047
460.13	0.048
460.59	0.048
461.04	0.044
461.50	0.045
461.96	0.046
462.42	0.049
462.88	0.044
463.33	0.045
463.79	0.048
464.25	0.045
464.71	0.048
465.17	0.048
465.62	0.048
466.08	0.047
466.54	0.047
467.00	0.048
467.46	0.047
467.91	0.048
468.37	0.047
468.83	0.048
469.29	0.047
469.74	0.048
470.20	0.046
470.66	0.046
471.12	0.048
471.57	0.048
472.03	0.047
472.49	0.047
472.95	0.048
473.40	0.049
473.86	0.044
474.32	0.048
474.78	0.046
475.23	0.047
475.69	0.047
476.15	0.049
476.60	0.046
477.06	0.046
477.52	0.048
477.98	0.048
478.43	0.050
478.89	0.050
479.35	0.047
479.80	0.047
480.26	0.046
480.72	0.050
481.18	0.048
481.63	0.047
482.09	0.048
482.55	0.047
483.00	0.046
483.46	0.047
483.92	0.049
484.37	0.048
484.83	0.049
485.29	0.048
485.74	0.049
486.20	0.048
486.66	0.049
487.11	0.048
487.57	0.049
488.03	0.050
488.48	0.048
488.94	0.050
489.40	0.049
489.85	0.049
490.31	0.047
490.77	0.051
491.22	0.047
491.68	0.047
492.13	0.048
492.59	0.048
493.05	0.049
493.50	0.049
493.96	0.047
494.42	0.050
494.87	0.050
495.33	0.049
495.78	0.048
496.24	0.047
496.70	0.050
497.15	0.050
497.61	0.048
498.06	0.050
498.52	0.049
498.98	0.048
499.43	0.046
499.89	0.048
500.34	0.047
500.80	0.049
501.25	0.050
501.71	0.049
502.17	0.048
502.62	0.048
503.08	0.048
503.53	0.048
503.99	0.049
504.44	0.048
504.90	0.048
505.36	0.048
505.81	0.048
506.27	0.048
506.72	0.047
507.18	0.049
507.63	0.047
508.09	0.049
508.54	0.046
509.00	0.049
509.45	0.048
509.91	0.049
510.36	0.049
510.82	0.049
511.27	0.046
511.73	0.046
512.19	0.045
512.64	0.049
513.10	0.048
513.55	0.047
514.01	0.046
514.46	0.047
514.92	0.047
515.37	0.048
515.83	0.045
516.28	0.049
516.73	0.046
517.19	0.047
517.64	0.048
518.10	0.047
518.55	0.048
519.01	0.047
519.46	0.046
519.92	0.046
520.37	0.049
520.83	0.049
521.28	0.047
521.74	0.046
522.19	0.047
522.65	0.049
523.10	0.048
523.55	0.047
524.01	0.048
524.46	0.048
524.92	0.050
525.37	0.048
525.83	0.050
526.28	0.048
526.73	0.047
527.19	0.048
527.64	0.050
528.10	0.048
528.55	0.048
529.01	0.047
529.46	0.050
529.91	0.048
530.37	0.046
530.82	0.049
531.28	0.050
531.73	0.049
532.18	0.049
532.64	0.048
533.09	0.048
533.54	0.049
534.00	0.048
534.45	0.052
534.91	0.049
535.36	0.049
535.81	0.049
536.27	0.053
536.72	0.048
537.17	0.050
537.63	0.051
538.08	0.051
538.54	0.051
538.99	0.051
539.44	0.055
539.90	0.052
540.35	0.051
540.80	0.053
541.26	0.051
541.71	0.051
542.16	0.054
542.62	0.054
543.07	0.053
543.52	0.053
543.98	0.055
544.43	0.054
544.88	0.056
545.34	0.058
545.79	0.057
546.24	0.058
546.69	0.055
547.15	0.056
547.60	0.061
548.05	0.057
548.51	0.058
548.96	0.057
549.41	0.060
549.86	0.061
550.32	0.061
550.77	0.059
551.22	0.061
551.68	0.059
552.13	0.060
552.58	0.062
553.03	0.062
553.49	0.062
553.94	0.063
554.39	0.064
554.84	0.065
555.30	0.064
555.75	0.066
556.20	0.066
556.65	0.065
557.11	0.067
557.56	0.068
558.01	0.067
558.46	0.068
558.92	0.068
559.37	0.069
559.82	0.072
560.27	0.071
560.72	0.071
561.18	0.070
561.63	0.074
562.08	0.075
562.53	0.071
562.99	0.073
563.44	0.072
563.89	0.074
564.34	0.075
564.79	0.076
565.25	0.078
565.70	0.076
566.15	0.078
566.60	0.078
567.05	0.080
567.50	0.082
567.96	0.082
568.41	0.082
568.86	0.080
569.31	0.084
569.76	0.083
570.21	0.082
570.67	0.083
571.12	0.085
571.57	0.087
572.02	0.089
572.47	0.089
572.92	0.089
573.37	0.088
573.83	0.091
574.28	0.092
574.73	0.090
575.18	0.091
575.63	0.095
576.08	0.093
576.53	0.093
576.98	0.095
577.44	0.097
577.89	0.095
578.34	0.096
578.79	0.102
579.24	0.100
579.69	0.102
580.14	0.102
580.59	0.103
581.04	0.104
581.49	0.106
581.95	0.110
582.40	0.108
582.85	0.108
583.30	0.111
583.75	0.112
584.20	0.113
584.65	0.112
585.10	0.114
585.55	0.116
586.00	0.120
586.45	0.120
586.90	0.123
587.35	0.122
587.80	0.124
588.25	0.125
588.71	0.126
589.16	0.129
589.61	0.131
590.06	0.132
590.51	0.134
590.96	0.134
591.41	0.137
591.86	0.140
592.31	0.142
592.76	0.143
593.21	0.144
593.66	0.145
594.11	0.148
594.56	0.147
595.01	0.152
595.46	0.153
595.91	0.152
596.36	0.156
596.81	0.160
597.26	0.159
597.71	0.161
598.16	0.162
598.61	0.166
599.06	0.167
599.51	0.166
599.96	0.169
600.41	0.170
600.86	0.174
601.31	0.175
601.76	0.177
602.21	0.177
602.65	0.182
603.10	0.182
603.55	0.185
604.00	0.187
604.45	0.185
604.90	0.189
605.35	0.192
605.80	0.190
606.25	0.192
606.70	0.194
607.15	0.197
607.60	0.195
608.05	0.198
608.50	0.202
608.95	0.201
609.39	0.203
609.84	0.205
610.29	0.202
610.74	0.205
611.19	0.207
611.64	0.209
612.09	0.212
612.54	0.210
612.99	0.211
613.44	0.213
613.88	0.213
614.33	0.213
614.78	0.214
615.23	0.214
615.68	0.215
616.13	0.217
616.58	0.216
617.03	0.217
617.47	0.219
617.92	0.222
618.37	0.221
618.82	0.219
619.27	0.221
619.72	0.221
620.17	0.222
620.61	0.222
621.06	0.224
621.51	0.224
621.96	0.223
622.41	0.226
622.86	0.223
623.30	0.225
623.75	0.228
624.20	0.230
624.65	0.230
625.10	0.230
625.54	0.229
625.99	0.234
626.44	0.232
626.89	0.233
627.34	0.236
627.78	0.234
628.23	0.238
628.68	0.238
629.13	0.238
629.58	0.238
630.02	0.242
630.47	0.243
630.92	0.243
631.37	0.246
631.81	0.247
632.26	0.248
632.71	0.249
633.16	0.253
633.61	0.253
634.05	0.255
634.50	0.258
634.95	0.260
635.40	0.261
635.84	0.264
636.29	0.264
636.74	0.267
637.18	0.267
637.63	0.271
638.08	0.274
638.53	0.275
638.97	0.277
639.42	0.281
639.87	0.284
640.32	0.288
640.76	0.289
641.21	0.292
641.66	0.294
642.10	0.298
642.55	0.297
643.00	0.303
643.44	0.304
643.89	0.308
644.34	0.312
644.79	0.313
645.23	0.317
645.68	0.319
646.13	0.322
646.57	0.324
647.02	0.327
647.47	0.329
647.91	0.332
648.36	0.336
648.81	0.339
649.25	0.340
649.70	0.344
650.15	0.346
650.59	0.347
651.04	0.353
651.48	0.351
651.93	0.354
652.38	0.358
652.82	0.361
653.27	0.363
653.72	0.365
654.16	0.368
654.61	0.370
655.06	0.373
655.50	0.375
655.95	0.375
656.39	0.377
656.84	0.377
657.29	0.376
657.73	0.379
658.18	0.381
658.62	0.384
659.07	0.384
659.52	0.386
659.96	0.388
660.41	0.389
660.85	0.388
661.30	0.390
661.74	0.394
662.19	0.396
662.64	0.391
663.08	0.393
663.53	0.393
663.97	0.393
664.42	0.395
664.86	0.391
665.31	0.392
665.75	0.390
666.20	0.390
666.65	0.391
667.09	0.387
667.54	0.387
667.98	0.387
668.43	0.383
668.87	0.383
669.32	0.379
669.76	0.375
670.21	0.372
670.65	0.370
671.10	0.365
671.54	0.364
671.99	0.359
672.43	0.350
672.88	0.349
673.32	0.344
673.77	0.337
674.21	0.332
674.66	0.327
675.10	0.321
675.55	0.315
675.99	0.310
676.44	0.304
676.88	0.294
677.33	0.287
677.77	0.279
678.22	0.276
678.66	0.271
679.11	0.261
679.55	0.252
679.99	0.247
680.44	0.239
680.88	0.228
681.33	0.224
681.77	0.219
682.22	0.211
682.66	0.203
683.11	0.196
683.55	0.189
683.99	0.183
684.44	0.176
684.88	0.172
685.33	0.162
685.77	0.158
686.21	0.153
686.66	0.146
687.10	0.141
687.55	0.137
687.99	0.136
688.44	0.127
688.88	0.123
689.32	0.117
689.77	0.113
690.21	0.107
690.65	0.106
691.10	0.098
691.54	0.097
691.99	0.093
692.43	0.088
692.87	0.087
693.32	0.082
693.76	0.081
694.20	0.076
694.65	0.075
695.09	0.071
695.53	0.068
695.98	0.068
696.42	0.062
696.86	0.062
697.31	0.061
697.75	0.060
698.19	0.056
698.64	0.057
699.08	0.054
699.52	0.050
699.97	0.051
700.41	0.051
700.85	0.047
701.30	0.048
701.74	0.040
702.18	0.046
702.63	0.041
703.07	0.043
703.51	0.040
703.96	0.040
704.40	0.041
704.84	0.039
705.28	0.038
705.73	0.037
706.17	0.036
706.61	0.035
707.06	0.034
707.50	0.033
707.94	0.033
708.38	0.029
708.83	0.032
709.27	0.031
709.71	0.030
710.15	0.031
710.60	0.030
711.04	0.028
711.48	0.030
711.92	0.032
712.37	0.028
712.81	0.030
713.25	0.028
713.69	0.029
714.13	0.028
714.58	0.028
715.02	0.027
715.46	0.023
715.90	0.026
716.35	0.025
716.79	0.028
717.23	0.026
717.67	0.025
718.11	0.024
718.56	0.026
719.00	0.025
719.44	0.026
719.88	0.026
720.32	0.027
720.76	0.023
721.21	0.028
721.65	0.026
722.09	0.026
722.53	0.025
722.97	0.026
723.41	0.024
723.86	0.026
724.30	0.024
724.74	0.023
725.18	0.027
725.62	0.024
726.06	0.027
726.50	0.025
726.95	0.024
727.39	0.027
727.83	0.026
728.27	0.026
728.71	0.025
729.15	0.026
729.59	0.030
730.03	0.028
730.48	0.026
730.92	0.026
731.36	0.024
731.80	0.028
732.24	0.027
732.68	0.029
733.12	0.027
733.56	0.026
734.00	0.028
734.44	0.027
734.89	0.028
735.33	0.031
735.77	0.029
736.21	0.030
736.65	0.030
737.09	0.029
737.53	0.029
737.97	0.030
738.41	0.029
738.85	0.029
739.29	0.029
739.73	0.030
740.17	0.028
740.61	0.031
741.05	0.032
741.49	0.029
741.93	0.030
742.37	0.028
742.81	0.029
743.26	0.029
743.70	0.031
744.14	0.029
744.58	0.028
745.02	0.030
745.46	0.027
745.90	0.030
746.34	0.028
746.78	0.028
747.22	0.029
747.66	0.028
748.10	0.029
748.54	0.032
748.98	0.030
749.42	0.030
749.86	0.030
750.29	0.029
750.73	0.029
751.17	0.027
751.61	0.029
752.05	0.031
752.49	0.030
752.93	0.030
753.37	0.031
753.81	0.029
754.25	0.028
754.69	0.028
755.13	0.029
755.57	0.028
756.01	0.028
756.45	0.027
756.89	0.031
757.33	0.030
757.77	0.028
758.21	0.031
758.64	0.031
759.08	0.030
759.52	0.029
759.96	0.031
760.40	0.027
760.84	0.025
761.28	0.031
761.72	0.029
762.16	0.029
762.60	0.026
763.03	0.029
763.47	0.025
763.91	0.026
764.35	0.028
764.79	0.031
765.23	0.028
765.67	0.026
766.11	0.030
766.54	0.029
766.98	0.025
767.42	0.028
767.86	0.031
768.30	0.029
768.74	0.026
769.17	0.028
769.61	0.031
770.05	0.027
770.49	0.028
770.93	0.027
771.37	0.027
771.80	0.030
772.24	0.030
772.68	0.027
773.12	0.028
773.56	0.031
774.00	0.030
774.43	0.030
774.87	0.028
775.31	0.032
775.75	0.031
776.19	0.030
776.62	0.033
777.06	0.025
777.50	0.029
777.94	0.028
778.37	0.030
778.81	0.030
779.25	0.028
779.69	0.027
780.13	0.028
780.56	0.028
781.00	0.030
781.44	0.028
781.88	0.028
782.31	0.029
782.75	0.031
783.19	0.030
783.63	0.031
784.06	0.028
784.50	0.030
784.94	0.029
785.37	0.031
785.81	0.029
786.25	0.025
786.69	0.028
787.12	0.031
787.56	0.030
788.00	0.024
788.43	0.027
788.87	0.029
789.31	0.028
789.75	0.029
790.18	0.027
790.62	0.027
791.06	0.030
791.49	0.027
791.93	0.030
792.37	0.027
792.80	0.026
793.24	0.030
793.68	0.028
794.11	0.029
794.55	0.028
794.99	0.028
795.42	0.026
795.86	0.027
796.30	0.029
796.73	0.028
797.17	0.030
797.61	0.023
798.04	0.026
798.48	0.025
798.91	0.027
799.35	0.026
799.79	0.030
800.22	0.029
800.66	0.024
801.10	0.031
801.53	0.027
801.97	0.025
802.40	0.027
802.84	0.030
803.28	0.027
803.71	0.029
804.15	0.027
804.58	0.028
805.02	0.021
805.46	0.027
805.89	0.027
806.33	0.029
806.76	0.026
807.20	0.030
807.63	0.029
808.07	0.030
808.51	0.023
808.94	0.028
809.38	0.029
809.81	0.025
810.25	0.028
810.68	0.034
811.12	0.029
811.55	0.026
811.99	0.030
812.42	0.029
812.86	0.026
813.29	0.024
813.73	0.026
814.17	0.024
814.60	0.028
815.04	0.026
815.47	0.028
815.91	0.027
816.34	0.029
816.78	0.029
817.21	0.025
817.65	0.030
818.08	0.028
