SpectraSuite Data File
++++++++++++++++++++++++++++++++++++
Date: Tue Jul 11 16:39:32 CEST 2017
User: IPCE
Dark Spectrum Present: Yes
Reference Spectrum Present: Yes
Number of Sampled Component Spectra: 1
Spectrometers: HR+C0708
Integration Time (usec): 1000 (HR+C0708)
Spectra Averaged: 10 (HR+C0708)
Boxcar Smoothing: 0 (HR+C0708)
Correct for Electrical Dark: No (HR+C0708)
Strobe/Lamp Enabled: No (HR+C0708)
Correct for Detector Non-linearity: No (HR+C0708)
Correct for Stray Light: No (HR+C0708)
Number of Pixels in Processed Spectrum: 2048
>>>>>Begin Processed Spectral Data<<<<<
188.76	0.135
189.23	-0.034
189.70	-0.284
190.17	0.220
190.64	-0.000
191.12	0.501
191.59	0.446
192.06	0.731
192.53	-0.014
193.01	0.280
193.48	-0.675
193.95	0.156
194.42	0.637
194.90	0.150
195.37	-0.027
195.84	0.056
196.31	0.823
196.78	0.304
197.26	0.174
197.73	0.412
198.20	0.058
198.67	0.048
199.14	0.062
199.62	0.355
200.09	0.334
200.56	0.225
201.03	0.171
201.50	0.254
201.97	0.147
202.45	0.294
202.92	0.208
203.39	0.286
203.86	0.212
204.33	0.307
204.80	0.209
205.28	0.337
205.75	0.212
206.22	0.344
206.69	0.223
207.16	0.202
207.63	0.144
208.11	0.299
208.58	0.203
209.05	0.360
209.52	0.341
209.99	0.177
210.46	0.280
210.93	0.198
211.41	0.273
211.88	0.275
212.35	0.297
212.82	0.236
213.29	0.298
213.76	0.388
214.23	0.249
214.70	0.259
215.18	0.268
215.65	0.343
216.12	0.211
216.59	0.287
217.06	0.334
217.53	0.183
218.00	0.282
218.47	0.363
218.94	0.225
219.41	0.290
219.89	0.422
220.36	0.370
220.83	0.401
221.30	0.305
221.77	0.331
222.24	0.438
222.71	0.416
223.18	0.370
223.65	0.415
224.12	0.339
224.59	0.452
225.06	0.451
225.54	0.435
226.01	0.611
226.48	0.598
226.95	0.636
227.42	0.737
227.89	0.646
228.36	0.797
228.83	0.948
229.30	0.864
229.77	0.879
230.24	1.004
230.71	1.096
231.18	1.022
231.65	1.280
232.12	1.232
232.59	1.320
233.06	1.267
233.53	1.369
234.00	1.501
234.47	1.482
234.94	1.496
235.41	1.694
235.88	1.580
236.35	1.482
236.82	1.635
237.29	1.755
237.76	1.726
238.23	1.739
238.70	1.756
239.17	1.931
239.64	1.887
240.11	1.868
240.58	1.853
241.05	2.016
241.52	1.929
241.99	1.979
242.46	2.008
242.93	2.005
243.40	2.006
243.87	2.222
244.34	2.195
244.81	2.034
245.28	2.013
245.75	2.206
246.22	2.179
246.69	2.142
247.16	2.174
247.63	2.165
248.10	2.134
248.57	2.059
249.04	2.122
249.51	2.231
249.98	2.059
250.45	2.131
250.92	2.076
251.39	2.043
251.85	1.950
252.32	1.888
252.79	1.727
253.26	1.687
253.73	1.600
254.20	1.502
254.67	1.426
255.14	1.356
255.61	1.296
256.08	1.247
256.55	1.185
257.02	1.143
257.49	1.105
257.95	1.065
258.42	1.022
258.89	0.988
259.36	0.960
259.83	0.933
260.30	0.905
260.77	0.881
261.24	0.861
261.71	0.837
262.17	0.824
262.64	0.801
263.11	0.779
263.58	0.765
264.05	0.749
264.52	0.737
264.99	0.722
265.46	0.707
265.92	0.692
266.39	0.684
266.86	0.665
267.33	0.656
267.80	0.651
268.27	0.641
268.74	0.629
269.20	0.615
269.67	0.612
270.14	0.600
270.61	0.589
271.08	0.580
271.55	0.572
272.01	0.562
272.48	0.560
272.95	0.553
273.42	0.544
273.89	0.534
274.36	0.528
274.82	0.522
275.29	0.519
275.76	0.511
276.23	0.510
276.70	0.506
277.16	0.500
277.63	0.496
278.10	0.491
278.57	0.488
279.04	0.483
279.50	0.477
279.97	0.474
280.44	0.470
280.91	0.470
281.38	0.466
281.84	0.464
282.31	0.464
282.78	0.457
283.25	0.455
283.72	0.458
284.18	0.453
284.65	0.453
285.12	0.450
285.59	0.450
286.05	0.449
286.52	0.448
286.99	0.447
287.46	0.444
287.92	0.445
288.39	0.443
288.86	0.443
289.33	0.443
289.79	0.437
290.26	0.436
290.73	0.436
291.20	0.430
291.66	0.429
292.13	0.427
292.60	0.421
293.07	0.420
293.53	0.412
294.00	0.411
294.47	0.403
294.93	0.400
295.40	0.392
295.87	0.390
296.34	0.382
296.80	0.377
297.27	0.369
297.74	0.362
298.20	0.355
298.67	0.351
299.14	0.345
299.60	0.337
300.07	0.330
300.54	0.327
301.01	0.319
301.47	0.311
301.94	0.304
302.41	0.300
302.87	0.295
303.34	0.285
303.81	0.281
304.27	0.275
304.74	0.273
305.21	0.267
305.67	0.258
306.14	0.255
306.61	0.250
307.07	0.249
307.54	0.244
308.01	0.235
308.47	0.237
308.94	0.230
309.40	0.226
309.87	0.225
310.34	0.221
310.80	0.219
311.27	0.214
311.74	0.212
312.20	0.210
312.67	0.211
313.13	0.207
313.60	0.205
314.07	0.203
314.53	0.199
315.00	0.199
315.47	0.198
315.93	0.195
316.40	0.195
316.86	0.192
317.33	0.193
317.80	0.188
318.26	0.187
318.73	0.189
319.19	0.185
319.66	0.184
320.13	0.181
320.59	0.181
321.06	0.180
321.52	0.179
321.99	0.179
322.45	0.179
322.92	0.175
323.39	0.176
323.85	0.173
324.32	0.176
324.78	0.172
325.25	0.170
325.71	0.170
326.18	0.168
326.64	0.163
327.11	0.166
327.58	0.167
328.04	0.164
328.51	0.163
328.97	0.161
329.44	0.161
329.90	0.157
330.37	0.157
330.83	0.153
331.30	0.156
331.76	0.152
332.23	0.153
332.69	0.148
333.16	0.149
333.62	0.149
334.09	0.145
334.56	0.146
335.02	0.143
335.49	0.137
335.95	0.138
336.42	0.135
336.88	0.135
337.35	0.132
337.81	0.134
338.28	0.131
338.74	0.133
339.20	0.132
339.67	0.132
340.13	0.130
340.60	0.130
341.06	0.127
341.53	0.126
341.99	0.127
342.46	0.125
342.92	0.124
343.39	0.123
343.85	0.120
344.32	0.119
344.78	0.119
345.25	0.118
345.71	0.121
346.17	0.118
346.64	0.117
347.10	0.117
347.57	0.117
348.03	0.115
348.50	0.113
348.96	0.111
349.43	0.112
349.89	0.112
350.35	0.113
350.82	0.110
351.28	0.113
351.75	0.112
352.21	0.111
352.67	0.107
353.14	0.111
353.60	0.106
354.07	0.101
354.53	0.108
355.00	0.102
355.46	0.101
355.92	0.103
356.39	0.103
356.85	0.100
357.31	0.101
357.78	0.102
358.24	0.099
358.71	0.099
359.17	0.096
359.63	0.096
360.10	0.097
360.56	0.093
361.03	0.091
361.49	0.092
361.95	0.090
362.42	0.088
362.88	0.088
363.34	0.086
363.81	0.088
364.27	0.086
364.73	0.085
365.20	0.085
365.66	0.083
366.12	0.079
366.59	0.082
367.05	0.083
367.51	0.081
367.98	0.078
368.44	0.079
368.90	0.077
369.37	0.082
369.83	0.079
370.29	0.077
370.76	0.078
371.22	0.078
371.68	0.077
372.15	0.074
372.61	0.075
373.07	0.076
373.54	0.078
374.00	0.075
374.46	0.076
374.92	0.073
375.39	0.076
375.85	0.077
376.31	0.077
376.78	0.075
377.24	0.073
377.70	0.074
378.16	0.075
378.63	0.073
379.09	0.072
379.55	0.075
380.01	0.073
380.48	0.072
380.94	0.073
381.40	0.070
381.87	0.068
382.33	0.070
382.79	0.071
383.25	0.071
383.72	0.073
384.18	0.071
384.64	0.068
385.10	0.069
385.56	0.070
386.03	0.070
386.49	0.070
386.95	0.069
387.41	0.069
387.88	0.068
388.34	0.069
388.80	0.067
389.26	0.068
389.72	0.070
390.19	0.068
390.65	0.068
391.11	0.068
391.57	0.067
392.04	0.070
392.50	0.066
392.96	0.066
393.42	0.065
393.88	0.069
394.34	0.067
394.81	0.067
395.27	0.063
395.73	0.063
396.19	0.069
396.65	0.067
397.12	0.066
397.58	0.065
398.04	0.065
398.50	0.064
398.96	0.063
399.42	0.062
399.89	0.063
400.35	0.063
400.81	0.063
401.27	0.069
401.73	0.061
402.19	0.063
402.65	0.064
403.12	0.062
403.58	0.061
404.04	0.062
404.50	0.064
404.96	0.061
405.42	0.061
405.88	0.062
406.34	0.062
406.81	0.060
407.27	0.058
407.73	0.061
408.19	0.057
408.65	0.059
409.11	0.060
409.57	0.060
410.03	0.061
410.49	0.058
410.96	0.060
411.42	0.060
411.88	0.058
412.34	0.057
412.80	0.057
413.26	0.056
413.72	0.058
414.18	0.059
414.64	0.054
415.10	0.057
415.56	0.055
416.02	0.056
416.48	0.056
416.95	0.058
417.41	0.059
417.87	0.053
418.33	0.054
418.79	0.057
419.25	0.056
419.71	0.054
420.17	0.056
420.63	0.055
421.09	0.056
421.55	0.054
422.01	0.054
422.47	0.056
422.93	0.057
423.39	0.057
423.85	0.056
424.31	0.054
424.77	0.053
425.23	0.053
425.69	0.054
426.15	0.054
426.61	0.057
427.07	0.054
427.53	0.057
427.99	0.057
428.45	0.055
428.91	0.054
429.37	0.056
429.83	0.055
430.29	0.056
430.75	0.051
431.21	0.053
431.67	0.057
432.13	0.053
432.59	0.052
433.05	0.052
433.51	0.054
433.97	0.054
434.43	0.053
434.89	0.052
435.35	0.053
435.81	0.050
436.27	0.051
436.73	0.050
437.19	0.052
437.65	0.051
438.11	0.053
438.57	0.053
439.03	0.051
439.48	0.050
439.94	0.052
440.40	0.049
440.86	0.052
441.32	0.050
441.78	0.049
442.24	0.047
442.70	0.049
443.16	0.051
443.62	0.050
444.08	0.051
444.54	0.051
444.99	0.050
445.45	0.049
445.91	0.050
446.37	0.050
446.83	0.050
447.29	0.050
447.75	0.050
448.21	0.050
448.67	0.050
449.12	0.050
449.58	0.049
450.04	0.049
450.50	0.045
450.96	0.047
451.42	0.051
451.88	0.050
452.34	0.050
452.79	0.048
453.25	0.048
453.71	0.047
454.17	0.050
454.63	0.053
455.09	0.049
455.55	0.051
456.00	0.048
456.46	0.048
456.92	0.051
457.38	0.052
457.84	0.048
458.30	0.051
458.75	0.048
459.21	0.047
459.67	0.049
460.13	0.051
460.59	0.051
461.04	0.048
461.50	0.049
461.96	0.047
462.42	0.051
462.88	0.048
463.33	0.048
463.79	0.049
464.25	0.048
464.71	0.049
465.17	0.050
465.62	0.048
466.08	0.050
466.54	0.051
467.00	0.050
467.46	0.048
467.91	0.049
468.37	0.049
468.83	0.049
469.29	0.049
469.74	0.050
470.20	0.047
470.66	0.047
471.12	0.050
471.57	0.051
472.03	0.049
472.49	0.052
472.95	0.046
473.40	0.051
473.86	0.050
474.32	0.048
474.78	0.049
475.23	0.048
475.69	0.049
476.15	0.052
476.60	0.049
477.06	0.047
477.52	0.049
477.98	0.051
478.43	0.051
478.89	0.053
479.35	0.048
479.80	0.050
480.26	0.047
480.72	0.050
481.18	0.050
481.63	0.050
482.09	0.051
482.55	0.049
483.00	0.050
483.46	0.050
483.92	0.050
484.37	0.051
484.83	0.051
485.29	0.051
485.74	0.050
486.20	0.050
486.66	0.050
487.11	0.052
487.57	0.051
488.03	0.050
488.48	0.048
488.94	0.053
489.40	0.050
489.85	0.050
490.31	0.048
490.77	0.053
491.22	0.049
491.68	0.051
492.13	0.051
492.59	0.048
493.05	0.049
493.50	0.049
493.96	0.049
494.42	0.052
494.87	0.052
495.33	0.050
495.78	0.049
496.24	0.050
496.70	0.051
497.15	0.050
497.61	0.051
498.06	0.050
498.52	0.050
498.98	0.049
499.43	0.048
499.89	0.048
500.34	0.051
500.80	0.050
501.25	0.051
501.71	0.051
502.17	0.048
502.62	0.049
503.08	0.047
503.53	0.050
503.99	0.050
504.44	0.051
504.90	0.047
505.36	0.047
505.81	0.047
506.27	0.049
506.72	0.050
507.18	0.050
507.63	0.049
508.09	0.050
508.54	0.049
509.00	0.049
509.45	0.051
509.91	0.048
510.36	0.049
510.82	0.051
511.27	0.048
511.73	0.048
512.19	0.047
512.64	0.050
513.10	0.050
513.55	0.049
514.01	0.046
514.46	0.047
514.92	0.048
515.37	0.049
515.83	0.047
516.28	0.047
516.73	0.049
517.19	0.047
517.64	0.048
518.10	0.049
518.55	0.049
519.01	0.046
519.46	0.048
519.92	0.051
520.37	0.048
520.83	0.052
521.28	0.048
521.74	0.047
522.19	0.048
522.65	0.049
523.10	0.046
523.55	0.046
524.01	0.049
524.46	0.049
524.92	0.048
525.37	0.049
525.83	0.049
526.28	0.047
526.73	0.049
527.19	0.050
527.64	0.050
528.10	0.048
528.55	0.048
529.01	0.049
529.46	0.051
529.91	0.049
530.37	0.048
530.82	0.049
531.28	0.050
531.73	0.049
532.18	0.049
532.64	0.050
533.09	0.050
533.54	0.050
534.00	0.050
534.45	0.051
534.91	0.049
535.36	0.052
535.81	0.049
536.27	0.053
536.72	0.049
537.17	0.051
537.63	0.051
538.08	0.052
538.54	0.053
538.99	0.051
539.44	0.054
539.90	0.054
540.35	0.051
540.80	0.052
541.26	0.052
541.71	0.055
542.16	0.054
542.62	0.052
543.07	0.055
543.52	0.054
543.98	0.055
544.43	0.054
544.88	0.054
545.34	0.056
545.79	0.056
546.24	0.057
546.69	0.055
547.15	0.055
547.60	0.059
548.05	0.057
548.51	0.056
548.96	0.057
549.41	0.058
549.86	0.058
550.32	0.059
550.77	0.058
551.22	0.060
551.68	0.058
552.13	0.059
552.58	0.061
553.03	0.058
553.49	0.060
553.94	0.060
554.39	0.062
554.84	0.063
555.30	0.063
555.75	0.063
556.20	0.065
556.65	0.062
557.11	0.063
557.56	0.064
558.01	0.062
558.46	0.067
558.92	0.065
559.37	0.066
559.82	0.067
560.27	0.068
560.72	0.065
561.18	0.065
561.63	0.069
562.08	0.070
562.53	0.069
562.99	0.067
563.44	0.068
563.89	0.069
564.34	0.071
564.79	0.072
565.25	0.072
565.70	0.071
566.15	0.073
566.60	0.072
567.05	0.075
567.50	0.076
567.96	0.075
568.41	0.077
568.86	0.075
569.31	0.076
569.76	0.079
570.21	0.077
570.67	0.078
571.12	0.080
571.57	0.080
572.02	0.080
572.47	0.082
572.92	0.081
573.37	0.080
573.83	0.083
574.28	0.084
574.73	0.083
575.18	0.085
575.63	0.087
576.08	0.086
576.53	0.087
576.98	0.087
577.44	0.089
577.89	0.089
578.34	0.090
578.79	0.094
579.24	0.091
579.69	0.093
580.14	0.095
580.59	0.095
581.04	0.096
581.49	0.097
581.95	0.098
582.40	0.098
582.85	0.097
583.30	0.099
583.75	0.102
584.20	0.101
584.65	0.102
585.10	0.104
585.55	0.105
586.00	0.108
586.45	0.110
586.90	0.109
587.35	0.110
587.80	0.112
588.25	0.112
588.71	0.112
589.16	0.113
589.61	0.116
590.06	0.118
590.51	0.119
590.96	0.120
591.41	0.122
591.86	0.126
592.31	0.126
592.76	0.126
593.21	0.127
593.66	0.130
594.11	0.131
594.56	0.132
595.01	0.134
595.46	0.137
595.91	0.135
596.36	0.138
596.81	0.139
597.26	0.142
597.71	0.141
598.16	0.144
598.61	0.146
599.06	0.147
599.51	0.145
599.96	0.150
600.41	0.150
600.86	0.153
601.31	0.152
601.76	0.156
602.21	0.155
602.65	0.158
603.10	0.160
603.55	0.159
604.00	0.162
604.45	0.160
604.90	0.164
605.35	0.166
605.80	0.165
606.25	0.168
606.70	0.169
607.15	0.170
607.60	0.171
608.05	0.172
608.50	0.173
608.95	0.175
609.39	0.175
609.84	0.178
610.29	0.176
610.74	0.179
611.19	0.179
611.64	0.180
612.09	0.181
612.54	0.182
612.99	0.184
613.44	0.182
613.88	0.187
614.33	0.183
614.78	0.185
615.23	0.185
615.68	0.187
616.13	0.189
616.58	0.187
617.03	0.186
617.47	0.188
617.92	0.190
618.37	0.191
618.82	0.192
619.27	0.190
619.72	0.191
620.17	0.192
620.61	0.192
621.06	0.196
621.51	0.194
621.96	0.193
622.41	0.196
622.86	0.194
623.30	0.196
623.75	0.196
624.20	0.197
624.65	0.201
625.10	0.200
625.54	0.200
625.99	0.202
626.44	0.202
626.89	0.201
627.34	0.203
627.78	0.204
628.23	0.205
628.68	0.206
629.13	0.207
629.58	0.206
630.02	0.209
630.47	0.210
630.92	0.212
631.37	0.214
631.81	0.215
632.26	0.215
632.71	0.217
633.16	0.218
633.61	0.220
634.05	0.221
634.50	0.221
634.95	0.223
635.40	0.225
635.84	0.227
636.29	0.229
636.74	0.231
637.18	0.232
637.63	0.233
638.08	0.238
638.53	0.238
638.97	0.238
639.42	0.244
639.87	0.244
640.32	0.247
640.76	0.248
641.21	0.248
641.66	0.253
642.10	0.257
642.55	0.257
643.00	0.259
643.44	0.258
643.89	0.263
644.34	0.269
644.79	0.266
645.23	0.269
645.68	0.273
646.13	0.274
646.57	0.278
647.02	0.278
647.47	0.279
647.91	0.282
648.36	0.286
648.81	0.287
649.25	0.291
649.70	0.291
650.15	0.294
650.59	0.295
651.04	0.300
651.48	0.297
651.93	0.299
652.38	0.305
652.82	0.306
653.27	0.309
653.72	0.310
654.16	0.309
654.61	0.314
655.06	0.314
655.50	0.315
655.95	0.313
656.39	0.316
656.84	0.319
657.29	0.320
657.73	0.324
658.18	0.323
658.62	0.324
659.07	0.328
659.52	0.324
659.96	0.326
660.41	0.326
660.85	0.325
661.30	0.326
661.74	0.329
662.19	0.330
662.64	0.327
663.08	0.329
663.53	0.331
663.97	0.331
664.42	0.328
664.86	0.330
665.31	0.328
665.75	0.327
666.20	0.325
666.65	0.324
667.09	0.320
667.54	0.319
667.98	0.322
668.43	0.318
668.87	0.317
669.32	0.316
669.76	0.311
670.21	0.311
670.65	0.305
671.10	0.305
671.54	0.300
671.99	0.297
672.43	0.292
672.88	0.287
673.32	0.284
673.77	0.279
674.21	0.274
674.66	0.266
675.10	0.266
675.55	0.262
675.99	0.257
676.44	0.252
676.88	0.243
677.33	0.237
677.77	0.229
678.22	0.228
678.66	0.222
679.11	0.214
679.55	0.210
679.99	0.205
680.44	0.197
680.88	0.191
681.33	0.186
681.77	0.180
682.22	0.173
682.66	0.167
683.11	0.162
683.55	0.160
683.99	0.154
684.44	0.148
684.88	0.144
685.33	0.139
685.77	0.133
686.21	0.130
686.66	0.125
687.10	0.120
687.55	0.118
687.99	0.113
688.44	0.110
688.88	0.106
689.32	0.101
689.77	0.095
690.21	0.095
690.65	0.091
691.10	0.086
691.54	0.084
691.99	0.081
692.43	0.077
692.87	0.077
693.32	0.074
693.76	0.070
694.20	0.069
694.65	0.066
695.09	0.063
695.53	0.062
695.98	0.060
696.42	0.056
696.86	0.056
697.31	0.056
697.75	0.055
698.19	0.052
698.64	0.050
699.08	0.049
699.52	0.046
699.97	0.048
700.41	0.046
700.85	0.044
701.30	0.043
701.74	0.040
702.18	0.044
702.63	0.040
703.07	0.040
703.51	0.039
703.96	0.039
704.40	0.039
704.84	0.034
705.28	0.038
705.73	0.035
706.17	0.034
706.61	0.034
707.06	0.033
707.50	0.034
707.94	0.033
708.38	0.029
708.83	0.033
709.27	0.032
709.71	0.032
710.15	0.029
710.60	0.033
711.04	0.029
711.48	0.027
711.92	0.030
712.37	0.029
712.81	0.028
713.25	0.028
713.69	0.029
714.13	0.028
714.58	0.026
715.02	0.028
715.46	0.026
715.90	0.027
716.35	0.028
716.79	0.027
717.23	0.027
717.67	0.027
718.11	0.025
718.56	0.029
719.00	0.026
719.44	0.027
719.88	0.029
720.32	0.028
720.76	0.024
721.21	0.029
721.65	0.028
722.09	0.027
722.53	0.028
722.97	0.029
723.41	0.028
723.86	0.025
724.30	0.028
724.74	0.027
725.18	0.029
725.62	0.028
726.06	0.028
726.50	0.025
726.95	0.026
727.39	0.028
727.83	0.026
728.27	0.026
728.71	0.026
729.15	0.027
729.59	0.028
730.03	0.029
730.48	0.029
730.92	0.026
731.36	0.027
731.80	0.029
732.24	0.028
732.68	0.029
733.12	0.028
733.56	0.031
734.00	0.029
734.44	0.030
734.89	0.028
735.33	0.031
735.77	0.033
736.21	0.030
736.65	0.034
737.09	0.030
737.53	0.031
737.97	0.033
738.41	0.031
738.85	0.032
739.29	0.030
739.73	0.032
740.17	0.032
740.61	0.032
741.05	0.034
741.49	0.031
741.93	0.033
742.37	0.032
742.81	0.030
743.26	0.032
743.70	0.029
744.14	0.033
744.58	0.032
745.02	0.031
745.46	0.028
745.90	0.033
746.34	0.031
746.78	0.034
747.22	0.032
747.66	0.030
748.10	0.031
748.54	0.032
748.98	0.030
749.42	0.031
749.86	0.030
750.29	0.032
750.73	0.031
751.17	0.029
751.61	0.031
752.05	0.029
752.49	0.029
752.93	0.033
753.37	0.031
753.81	0.031
754.25	0.030
754.69	0.029
755.13	0.031
755.57	0.033
756.01	0.031
756.45	0.031
756.89	0.030
757.33	0.034
757.77	0.030
758.21	0.031
758.64	0.034
759.08	0.031
759.52	0.031
759.96	0.031
760.40	0.031
760.84	0.031
761.28	0.031
761.72	0.031
762.16	0.031
762.60	0.030
763.03	0.028
763.47	0.028
763.91	0.029
764.35	0.029
764.79	0.032
765.23	0.030
765.67	0.029
766.11	0.032
766.54	0.029
766.98	0.028
767.42	0.031
767.86	0.031
768.30	0.033
768.74	0.031
769.17	0.031
769.61	0.031
770.05	0.029
770.49	0.029
770.93	0.030
771.37	0.032
771.80	0.029
772.24	0.031
772.68	0.029
773.12	0.028
773.56	0.029
774.00	0.029
774.43	0.029
774.87	0.031
775.31	0.030
775.75	0.030
776.19	0.030
776.62	0.032
777.06	0.027
777.50	0.030
777.94	0.033
778.37	0.030
778.81	0.031
779.25	0.033
779.69	0.031
780.13	0.029
780.56	0.027
781.00	0.034
781.44	0.031
781.88	0.030
782.31	0.035
782.75	0.031
783.19	0.031
783.63	0.034
784.06	0.028
784.50	0.033
784.94	0.032
785.37	0.034
785.81	0.031
786.25	0.027
786.69	0.033
787.12	0.032
787.56	0.031
788.00	0.027
788.43	0.026
788.87	0.029
789.31	0.026
789.75	0.031
790.18	0.028
790.62	0.032
791.06	0.032
791.49	0.032
791.93	0.030
792.37	0.026
792.80	0.031
793.24	0.029
793.68	0.025
794.11	0.029
794.55	0.029
794.99	0.030
795.42	0.028
795.86	0.029
796.30	0.031
796.73	0.030
797.17	0.033
797.61	0.028
798.04	0.028
798.48	0.028
798.91	0.027
799.35	0.030
799.79	0.030
800.22	0.028
800.66	0.029
801.10	0.032
801.53	0.028
801.97	0.026
802.40	0.030
802.84	0.034
803.28	0.029
803.71	0.030
804.15	0.030
804.58	0.028
805.02	0.027
805.46	0.026
805.89	0.029
806.33	0.030
806.76	0.029
807.20	0.032
807.63	0.033
808.07	0.034
808.51	0.024
808.94	0.033
809.38	0.032
809.81	0.028
810.25	0.030
810.68	0.032
811.12	0.031
811.55	0.029
811.99	0.033
812.42	0.027
812.86	0.028
813.29	0.028
813.73	0.031
814.17	0.025
814.60	0.029
815.04	0.028
815.47	0.032
815.91	0.029
816.34	0.035
816.78	0.031
817.21	0.030
817.65	0.027
818.08	0.033
