SpectraSuite Data File
++++++++++++++++++++++++++++++++++++
Date: Tue Jul 11 16:05:02 CEST 2017
User: IPCE
Dark Spectrum Present: Yes
Reference Spectrum Present: Yes
Number of Sampled Component Spectra: 1
Spectrometers: HR+C0708
Integration Time (usec): 1000 (HR+C0708)
Spectra Averaged: 10 (HR+C0708)
Boxcar Smoothing: 0 (HR+C0708)
Correct for Electrical Dark: No (HR+C0708)
Strobe/Lamp Enabled: No (HR+C0708)
Correct for Detector Non-linearity: No (HR+C0708)
Correct for Stray Light: No (HR+C0708)
Number of Pixels in Processed Spectrum: 2048
>>>>>Begin Processed Spectral Data<<<<<
188.76	0.573
189.23	-0.157
189.70	-0.398
190.17	0.130
190.64	0.406
191.12	0.219
191.59	0.366
192.06	0.046
192.53	0.026
193.01	-0.000
193.48	-0.000
193.95	0.231
194.42	-0.187
194.90	0.536
195.37	0.266
195.84	-0.332
196.31	0.556
196.78	0.317
197.26	0.330
197.73	0.098
198.20	0.144
198.67	0.787
199.14	-0.049
199.62	0.092
200.09	0.550
200.56	0.280
201.03	0.087
201.50	0.393
201.97	0.301
202.45	0.355
202.92	0.205
203.39	0.495
203.86	0.595
204.33	0.209
204.80	0.362
205.28	0.380
205.75	0.361
206.22	0.163
206.69	0.341
207.16	0.410
207.63	0.258
208.11	0.303
208.58	0.218
209.05	0.534
209.52	0.304
209.99	0.265
210.46	0.363
210.93	0.278
211.41	0.195
211.88	0.269
212.35	0.381
212.82	0.197
213.29	0.125
213.76	0.363
214.23	0.356
214.70	0.212
215.18	0.337
215.65	0.366
216.12	0.268
216.59	0.204
217.06	0.493
217.53	0.412
218.00	0.238
218.47	0.371
218.94	0.402
219.41	0.203
219.89	0.389
220.36	0.370
220.83	0.530
221.30	0.260
221.77	0.296
222.24	0.581
222.71	0.685
223.18	0.363
223.65	0.426
224.12	0.561
224.59	0.445
225.06	0.475
225.54	0.574
226.01	0.848
226.48	0.608
226.95	0.736
227.42	0.861
227.89	0.836
228.36	0.771
228.83	0.902
229.30	1.058
229.77	0.841
230.24	0.993
230.71	1.129
231.18	1.139
231.65	1.126
232.12	1.410
232.59	1.386
233.06	1.355
233.53	1.326
234.00	1.516
234.47	1.526
234.94	1.512
235.41	1.572
235.88	1.846
236.35	1.646
236.82	1.665
237.29	1.770
237.76	1.834
238.23	1.812
238.70	1.789
239.17	1.947
239.64	2.048
240.11	1.806
240.58	1.958
241.05	2.207
241.52	1.987
241.99	1.954
242.46	2.030
242.93	2.060
243.40	2.090
243.87	2.065
244.34	2.161
244.81	2.151
245.28	2.054
245.75	2.204
246.22	2.343
246.69	2.109
247.16	2.123
247.63	2.153
248.10	2.253
248.57	2.154
249.04	2.200
249.51	2.251
249.98	2.198
250.45	2.143
250.92	2.150
251.39	2.108
251.85	2.003
252.32	1.942
252.79	1.841
253.26	1.747
253.73	1.670
254.20	1.568
254.67	1.522
255.14	1.436
255.61	1.365
256.08	1.336
256.55	1.285
257.02	1.231
257.49	1.185
257.95	1.153
258.42	1.118
258.89	1.071
259.36	1.042
259.83	1.017
260.30	0.992
260.77	0.970
261.24	0.943
261.71	0.923
262.17	0.900
262.64	0.890
263.11	0.869
263.58	0.851
264.05	0.832
264.52	0.818
264.99	0.802
265.46	0.791
265.92	0.774
266.39	0.765
266.86	0.754
267.33	0.738
267.80	0.736
268.27	0.721
268.74	0.711
269.20	0.699
269.67	0.695
270.14	0.678
270.61	0.667
271.08	0.661
271.55	0.658
272.01	0.647
272.48	0.637
272.95	0.636
273.42	0.626
273.89	0.621
274.36	0.614
274.82	0.607
275.29	0.604
275.76	0.600
276.23	0.596
276.70	0.592
277.16	0.586
277.63	0.580
278.10	0.577
278.57	0.574
279.04	0.573
279.50	0.564
279.97	0.566
280.44	0.564
280.91	0.562
281.38	0.557
281.84	0.557
282.31	0.558
282.78	0.550
283.25	0.553
283.72	0.551
284.18	0.549
284.65	0.547
285.12	0.546
285.59	0.549
286.05	0.547
286.52	0.546
286.99	0.545
287.46	0.547
287.92	0.545
288.39	0.546
288.86	0.548
289.33	0.545
289.79	0.540
290.26	0.541
290.73	0.536
291.20	0.535
291.66	0.538
292.13	0.529
292.60	0.528
293.07	0.525
293.53	0.518
294.00	0.516
294.47	0.505
294.93	0.507
295.40	0.497
295.87	0.487
296.34	0.481
296.80	0.474
297.27	0.467
297.74	0.460
298.20	0.452
298.67	0.446
299.14	0.441
299.60	0.431
300.07	0.423
300.54	0.416
301.01	0.406
301.47	0.401
301.94	0.394
302.41	0.388
302.87	0.377
303.34	0.371
303.81	0.364
304.27	0.360
304.74	0.351
305.21	0.348
305.67	0.340
306.14	0.332
306.61	0.328
307.07	0.324
307.54	0.320
308.01	0.309
308.47	0.309
308.94	0.304
309.40	0.301
309.87	0.295
310.34	0.294
310.80	0.292
311.27	0.285
311.74	0.283
312.20	0.278
312.67	0.280
313.13	0.276
313.60	0.271
314.07	0.272
314.53	0.269
315.00	0.265
315.47	0.265
315.93	0.261
316.40	0.262
316.86	0.258
317.33	0.258
317.80	0.255
318.26	0.252
318.73	0.252
319.19	0.249
319.66	0.248
320.13	0.244
320.59	0.244
321.06	0.244
321.52	0.241
321.99	0.242
322.45	0.242
322.92	0.236
323.39	0.236
323.85	0.233
324.32	0.234
324.78	0.232
325.25	0.225
325.71	0.229
326.18	0.229
326.64	0.226
327.11	0.226
327.58	0.226
328.04	0.221
328.51	0.218
328.97	0.224
329.44	0.220
329.90	0.215
330.37	0.214
330.83	0.212
331.30	0.210
331.76	0.206
332.23	0.205
332.69	0.206
333.16	0.203
333.62	0.201
334.09	0.199
334.56	0.197
335.02	0.195
335.49	0.190
335.95	0.190
336.42	0.188
336.88	0.186
337.35	0.185
337.81	0.186
338.28	0.182
338.74	0.184
339.20	0.183
339.67	0.183
340.13	0.180
340.60	0.179
341.06	0.174
341.53	0.173
341.99	0.173
342.46	0.174
342.92	0.173
343.39	0.174
343.85	0.167
344.32	0.169
344.78	0.168
345.25	0.166
345.71	0.169
346.17	0.168
346.64	0.164
347.10	0.163
347.57	0.164
348.03	0.164
348.50	0.161
348.96	0.155
349.43	0.163
349.89	0.155
350.35	0.158
350.82	0.153
351.28	0.156
351.75	0.154
352.21	0.153
352.67	0.147
353.14	0.152
353.60	0.143
354.07	0.140
354.53	0.144
355.00	0.139
355.46	0.140
355.92	0.139
356.39	0.139
356.85	0.131
357.31	0.134
357.78	0.135
358.24	0.126
358.71	0.127
359.17	0.121
359.63	0.120
360.10	0.117
360.56	0.115
361.03	0.112
361.49	0.114
361.95	0.107
362.42	0.102
362.88	0.103
363.34	0.096
363.81	0.097
364.27	0.092
364.73	0.093
365.20	0.087
365.66	0.087
366.12	0.084
366.59	0.081
367.05	0.081
367.51	0.080
367.98	0.076
368.44	0.078
368.90	0.075
369.37	0.076
369.83	0.073
370.29	0.072
370.76	0.074
371.22	0.072
371.68	0.071
372.15	0.069
372.61	0.071
373.07	0.072
373.54	0.071
374.00	0.068
374.46	0.070
374.92	0.069
375.39	0.067
375.85	0.070
376.31	0.069
376.78	0.069
377.24	0.068
377.70	0.069
378.16	0.068
378.63	0.065
379.09	0.065
379.55	0.067
380.01	0.067
380.48	0.064
380.94	0.068
381.40	0.067
381.87	0.064
382.33	0.065
382.79	0.065
383.25	0.066
383.72	0.066
384.18	0.065
384.64	0.063
385.10	0.062
385.56	0.064
386.03	0.063
386.49	0.062
386.95	0.060
387.41	0.061
387.88	0.062
388.34	0.062
388.80	0.060
389.26	0.061
389.72	0.062
390.19	0.063
390.65	0.061
391.11	0.062
391.57	0.060
392.04	0.061
392.50	0.061
392.96	0.061
393.42	0.059
393.88	0.062
394.34	0.061
394.81	0.062
395.27	0.057
395.73	0.057
396.19	0.060
396.65	0.060
397.12	0.059
397.58	0.057
398.04	0.059
398.50	0.059
398.96	0.058
399.42	0.057
399.89	0.059
400.35	0.056
400.81	0.060
401.27	0.061
401.73	0.056
402.19	0.057
402.65	0.057
403.12	0.057
403.58	0.053
404.04	0.052
404.50	0.056
404.96	0.059
405.42	0.054
405.88	0.054
406.34	0.057
406.81	0.052
407.27	0.055
407.73	0.054
408.19	0.051
408.65	0.052
409.11	0.054
409.57	0.054
410.03	0.053
410.49	0.051
410.96	0.051
411.42	0.052
411.88	0.052
412.34	0.050
412.80	0.051
413.26	0.052
413.72	0.048
414.18	0.053
414.64	0.049
415.10	0.052
415.56	0.049
416.02	0.047
416.48	0.048
416.95	0.050
417.41	0.047
417.87	0.046
418.33	0.047
418.79	0.048
419.25	0.050
419.71	0.048
420.17	0.048
420.63	0.048
421.09	0.049
421.55	0.050
422.01	0.046
422.47	0.048
422.93	0.049
423.39	0.050
423.85	0.049
424.31	0.046
424.77	0.048
425.23	0.049
425.69	0.048
426.15	0.049
426.61	0.049
427.07	0.047
427.53	0.046
427.99	0.048
428.45	0.049
428.91	0.046
429.37	0.047
429.83	0.047
430.29	0.049
430.75	0.045
431.21	0.047
431.67	0.050
432.13	0.044
432.59	0.046
433.05	0.046
433.51	0.049
433.97	0.048
434.43	0.045
434.89	0.046
435.35	0.046
435.81	0.042
436.27	0.045
436.73	0.045
437.19	0.048
437.65	0.045
438.11	0.046
438.57	0.048
439.03	0.045
439.48	0.045
439.94	0.043
440.40	0.044
440.86	0.044
441.32	0.045
441.78	0.047
442.24	0.041
442.70	0.042
443.16	0.046
443.62	0.046
444.08	0.045
444.54	0.046
444.99	0.046
445.45	0.043
445.91	0.045
446.37	0.044
446.83	0.043
447.29	0.045
447.75	0.043
448.21	0.046
448.67	0.046
449.12	0.042
449.58	0.042
450.04	0.042
450.50	0.040
450.96	0.041
451.42	0.044
451.88	0.045
452.34	0.042
452.79	0.042
453.25	0.045
453.71	0.042
454.17	0.043
454.63	0.045
455.09	0.045
455.55	0.041
456.00	0.041
456.46	0.045
456.92	0.045
457.38	0.044
457.84	0.041
458.30	0.045
458.75	0.044
459.21	0.044
459.67	0.044
460.13	0.044
460.59	0.045
461.04	0.044
461.50	0.045
461.96	0.043
462.42	0.045
462.88	0.043
463.33	0.045
463.79	0.044
464.25	0.044
464.71	0.044
465.17	0.045
465.62	0.044
466.08	0.044
466.54	0.045
467.00	0.047
467.46	0.043
467.91	0.047
468.37	0.044
468.83	0.045
469.29	0.045
469.74	0.045
470.20	0.045
470.66	0.045
471.12	0.047
471.57	0.047
472.03	0.044
472.49	0.043
472.95	0.046
473.40	0.047
473.86	0.045
474.32	0.045
474.78	0.044
475.23	0.044
475.69	0.045
476.15	0.046
476.60	0.045
477.06	0.042
477.52	0.047
477.98	0.047
478.43	0.046
478.89	0.047
479.35	0.044
479.80	0.048
480.26	0.046
480.72	0.044
481.18	0.045
481.63	0.046
482.09	0.047
482.55	0.045
483.00	0.045
483.46	0.046
483.92	0.046
484.37	0.047
484.83	0.047
485.29	0.046
485.74	0.047
486.20	0.045
486.66	0.047
487.11	0.047
487.57	0.047
488.03	0.048
488.48	0.047
488.94	0.047
489.40	0.047
489.85	0.047
490.31	0.044
490.77	0.046
491.22	0.044
491.68	0.048
492.13	0.046
492.59	0.047
493.05	0.048
493.50	0.047
493.96	0.044
494.42	0.047
494.87	0.047
495.33	0.046
495.78	0.045
496.24	0.047
496.70	0.046
497.15	0.044
497.61	0.047
498.06	0.047
498.52	0.048
498.98	0.047
499.43	0.044
499.89	0.046
500.34	0.046
500.80	0.048
501.25	0.047
501.71	0.047
502.17	0.047
502.62	0.047
503.08	0.046
503.53	0.046
503.99	0.047
504.44	0.047
504.90	0.046
505.36	0.045
505.81	0.043
506.27	0.046
506.72	0.047
507.18	0.045
507.63	0.045
508.09	0.046
508.54	0.045
509.00	0.046
509.45	0.046
509.91	0.045
510.36	0.044
510.82	0.048
511.27	0.044
511.73	0.046
512.19	0.044
512.64	0.047
513.10	0.046
513.55	0.043
514.01	0.044
514.46	0.045
514.92	0.044
515.37	0.045
515.83	0.045
516.28	0.047
516.73	0.045
517.19	0.046
517.64	0.045
518.10	0.048
518.55	0.045
519.01	0.043
519.46	0.044
519.92	0.045
520.37	0.047
520.83	0.046
521.28	0.045
521.74	0.043
522.19	0.043
522.65	0.045
523.10	0.045
523.55	0.043
524.01	0.046
524.46	0.045
524.92	0.046
525.37	0.045
525.83	0.046
526.28	0.045
526.73	0.045
527.19	0.047
527.64	0.049
528.10	0.046
528.55	0.047
529.01	0.047
529.46	0.048
529.91	0.046
530.37	0.046
530.82	0.048
531.28	0.049
531.73	0.046
532.18	0.049
532.64	0.049
533.09	0.048
533.54	0.049
534.00	0.046
534.45	0.049
534.91	0.046
535.36	0.048
535.81	0.048
536.27	0.050
536.72	0.046
537.17	0.050
537.63	0.051
538.08	0.049
538.54	0.048
538.99	0.050
539.44	0.052
539.90	0.050
540.35	0.051
540.80	0.049
541.26	0.051
541.71	0.051
542.16	0.052
542.62	0.055
543.07	0.053
543.52	0.053
543.98	0.053
544.43	0.053
544.88	0.053
545.34	0.056
545.79	0.055
546.24	0.055
546.69	0.052
547.15	0.053
547.60	0.060
548.05	0.056
548.51	0.056
548.96	0.056
549.41	0.058
549.86	0.059
550.32	0.059
550.77	0.059
551.22	0.062
551.68	0.059
552.13	0.060
552.58	0.060
553.03	0.059
553.49	0.060
553.94	0.060
554.39	0.063
554.84	0.064
555.30	0.064
555.75	0.062
556.20	0.066
556.65	0.066
557.11	0.067
557.56	0.067
558.01	0.067
558.46	0.067
558.92	0.068
559.37	0.068
559.82	0.068
560.27	0.070
560.72	0.069
561.18	0.070
561.63	0.072
562.08	0.073
562.53	0.071
562.99	0.073
563.44	0.073
563.89	0.076
564.34	0.076
564.79	0.077
565.25	0.078
565.70	0.077
566.15	0.076
566.60	0.078
567.05	0.079
567.50	0.080
567.96	0.081
568.41	0.082
568.86	0.082
569.31	0.083
569.76	0.084
570.21	0.082
570.67	0.085
571.12	0.086
571.57	0.087
572.02	0.088
572.47	0.088
572.92	0.087
573.37	0.087
573.83	0.092
574.28	0.091
574.73	0.091
575.18	0.092
575.63	0.094
576.08	0.094
576.53	0.095
576.98	0.098
577.44	0.096
577.89	0.098
578.34	0.101
578.79	0.102
579.24	0.100
579.69	0.102
580.14	0.105
580.59	0.105
581.04	0.106
581.49	0.108
581.95	0.109
582.40	0.110
582.85	0.109
583.30	0.111
583.75	0.113
584.20	0.114
584.65	0.114
585.10	0.117
585.55	0.116
586.00	0.121
586.45	0.123
586.90	0.125
587.35	0.122
587.80	0.127
588.25	0.127
588.71	0.127
589.16	0.131
589.61	0.134
590.06	0.135
590.51	0.135
590.96	0.137
591.41	0.140
591.86	0.142
592.31	0.144
592.76	0.145
593.21	0.147
593.66	0.147
594.11	0.150
594.56	0.153
595.01	0.155
595.46	0.156
595.91	0.155
596.36	0.160
596.81	0.162
597.26	0.163
597.71	0.165
598.16	0.166
598.61	0.168
599.06	0.171
599.51	0.172
599.96	0.176
600.41	0.176
600.86	0.178
601.31	0.178
601.76	0.182
602.21	0.180
602.65	0.185
603.10	0.187
603.55	0.188
604.00	0.190
604.45	0.190
604.90	0.195
605.35	0.195
605.80	0.196
606.25	0.199
606.70	0.200
607.15	0.202
607.60	0.203
608.05	0.203
608.50	0.204
608.95	0.208
609.39	0.209
609.84	0.210
610.29	0.208
610.74	0.211
611.19	0.213
611.64	0.213
612.09	0.214
612.54	0.217
612.99	0.218
613.44	0.217
613.88	0.221
614.33	0.218
614.78	0.220
615.23	0.221
615.68	0.220
616.13	0.223
616.58	0.223
617.03	0.221
617.47	0.226
617.92	0.224
618.37	0.226
618.82	0.227
619.27	0.225
619.72	0.227
620.17	0.229
620.61	0.230
621.06	0.232
621.51	0.231
621.96	0.229
622.41	0.232
622.86	0.231
623.30	0.233
623.75	0.231
624.20	0.234
624.65	0.237
625.10	0.236
625.54	0.239
625.99	0.237
626.44	0.239
626.89	0.239
627.34	0.241
627.78	0.242
628.23	0.243
628.68	0.245
629.13	0.244
629.58	0.245
630.02	0.250
630.47	0.250
630.92	0.252
631.37	0.250
631.81	0.254
632.26	0.255
632.71	0.256
633.16	0.258
633.61	0.260
634.05	0.265
634.50	0.265
634.95	0.265
635.40	0.268
635.84	0.275
636.29	0.272
636.74	0.275
637.18	0.277
637.63	0.279
638.08	0.281
638.53	0.285
638.97	0.286
639.42	0.290
639.87	0.292
640.32	0.297
640.76	0.300
641.21	0.299
641.66	0.302
642.10	0.306
642.55	0.308
643.00	0.312
643.44	0.313
643.89	0.319
644.34	0.321
644.79	0.324
645.23	0.324
645.68	0.330
646.13	0.332
646.57	0.334
647.02	0.339
647.47	0.339
647.91	0.342
648.36	0.349
648.81	0.349
649.25	0.352
649.70	0.355
650.15	0.357
650.59	0.361
651.04	0.363
651.48	0.365
651.93	0.367
652.38	0.370
652.82	0.374
653.27	0.375
653.72	0.379
654.16	0.381
654.61	0.383
655.06	0.384
655.50	0.388
655.95	0.387
656.39	0.392
656.84	0.394
657.29	0.390
657.73	0.394
658.18	0.397
658.62	0.400
659.07	0.400
659.52	0.402
659.96	0.406
660.41	0.402
660.85	0.401
661.30	0.405
661.74	0.412
662.19	0.408
662.64	0.406
663.08	0.409
663.53	0.411
663.97	0.410
664.42	0.411
664.86	0.407
665.31	0.407
665.75	0.409
666.20	0.407
666.65	0.406
667.09	0.402
667.54	0.404
667.98	0.404
668.43	0.398
668.87	0.397
669.32	0.394
669.76	0.394
670.21	0.386
670.65	0.383
671.10	0.384
671.54	0.377
671.99	0.372
672.43	0.364
672.88	0.363
673.32	0.356
673.77	0.350
674.21	0.348
674.66	0.340
675.10	0.333
675.55	0.329
675.99	0.321
676.44	0.317
676.88	0.306
677.33	0.298
677.77	0.292
678.22	0.286
678.66	0.278
679.11	0.269
679.55	0.263
679.99	0.254
680.44	0.249
680.88	0.240
681.33	0.232
681.77	0.227
682.22	0.219
682.66	0.212
683.11	0.202
683.55	0.198
683.99	0.193
684.44	0.185
684.88	0.175
685.33	0.170
685.77	0.163
686.21	0.159
686.66	0.151
687.10	0.145
687.55	0.141
687.99	0.136
688.44	0.131
688.88	0.126
689.32	0.120
689.77	0.116
690.21	0.110
690.65	0.108
691.10	0.101
691.54	0.098
691.99	0.096
692.43	0.092
692.87	0.086
693.32	0.085
693.76	0.083
694.20	0.077
694.65	0.078
695.09	0.075
695.53	0.072
695.98	0.067
696.42	0.064
696.86	0.063
697.31	0.060
697.75	0.059
698.19	0.057
698.64	0.057
699.08	0.054
699.52	0.051
699.97	0.051
700.41	0.051
700.85	0.047
701.30	0.045
701.74	0.042
702.18	0.043
702.63	0.041
703.07	0.043
703.51	0.041
703.96	0.039
704.40	0.039
704.84	0.038
705.28	0.039
705.73	0.035
706.17	0.034
706.61	0.035
707.06	0.034
707.50	0.033
707.94	0.034
708.38	0.031
708.83	0.032
709.27	0.028
709.71	0.030
710.15	0.028
710.60	0.030
711.04	0.028
711.48	0.027
711.92	0.030
712.37	0.028
712.81	0.030
713.25	0.027
713.69	0.026
714.13	0.024
714.58	0.026
715.02	0.025
715.46	0.023
715.90	0.026
716.35	0.025
716.79	0.026
717.23	0.024
717.67	0.025
718.11	0.022
718.56	0.022
719.00	0.024
719.44	0.025
719.88	0.025
720.32	0.025
720.76	0.024
721.21	0.025
721.65	0.027
722.09	0.025
722.53	0.026
722.97	0.026
723.41	0.023
723.86	0.024
724.30	0.024
724.74	0.023
725.18	0.027
725.62	0.023
726.06	0.023
726.50	0.023
726.95	0.026
727.39	0.027
727.83	0.026
728.27	0.022
728.71	0.024
729.15	0.025
729.59	0.026
730.03	0.025
730.48	0.026
730.92	0.025
731.36	0.026
731.80	0.026
732.24	0.026
732.68	0.027
733.12	0.027
733.56	0.026
734.00	0.028
734.44	0.028
734.89	0.027
735.33	0.029
735.77	0.028
736.21	0.026
736.65	0.030
737.09	0.028
737.53	0.027
737.97	0.031
738.41	0.027
738.85	0.025
739.29	0.025
739.73	0.028
740.17	0.028
740.61	0.030
741.05	0.029
741.49	0.028
741.93	0.029
742.37	0.027
742.81	0.026
743.26	0.028
743.70	0.029
744.14	0.029
744.58	0.027
745.02	0.029
745.46	0.025
745.90	0.028
746.34	0.028
746.78	0.029
747.22	0.030
747.66	0.029
748.10	0.029
748.54	0.028
748.98	0.027
749.42	0.029
749.86	0.031
750.29	0.028
750.73	0.030
751.17	0.026
751.61	0.030
752.05	0.029
752.49	0.027
752.93	0.028
753.37	0.028
753.81	0.027
754.25	0.026
754.69	0.028
755.13	0.027
755.57	0.027
756.01	0.028
756.45	0.024
756.89	0.027
757.33	0.031
757.77	0.027
758.21	0.027
758.64	0.028
759.08	0.028
759.52	0.028
759.96	0.029
760.40	0.026
760.84	0.026
761.28	0.028
761.72	0.028
762.16	0.026
762.60	0.025
763.03	0.029
763.47	0.026
763.91	0.026
764.35	0.028
764.79	0.028
765.23	0.026
765.67	0.025
766.11	0.029
766.54	0.026
766.98	0.026
767.42	0.027
767.86	0.027
768.30	0.028
768.74	0.029
769.17	0.030
769.61	0.026
770.05	0.029
770.49	0.026
770.93	0.027
771.37	0.026
771.80	0.029
772.24	0.028
772.68	0.025
773.12	0.028
773.56	0.029
774.00	0.027
774.43	0.029
774.87	0.027
775.31	0.027
775.75	0.028
776.19	0.028
776.62	0.031
777.06	0.028
777.50	0.026
777.94	0.031
778.37	0.026
778.81	0.027
779.25	0.026
779.69	0.025
780.13	0.027
780.56	0.027
781.00	0.031
781.44	0.030
781.88	0.028
782.31	0.030
782.75	0.027
783.19	0.028
783.63	0.028
784.06	0.025
784.50	0.027
784.94	0.028
785.37	0.027
785.81	0.026
786.25	0.025
786.69	0.028
787.12	0.027
787.56	0.029
788.00	0.022
788.43	0.023
788.87	0.028
789.31	0.028
789.75	0.025
790.18	0.024
790.62	0.029
791.06	0.031
791.49	0.025
791.93	0.023
792.37	0.024
792.80	0.027
793.24	0.028
793.68	0.027
794.11	0.026
794.55	0.026
794.99	0.026
795.42	0.029
795.86	0.029
796.30	0.027
796.73	0.028
797.17	0.028
797.61	0.023
798.04	0.025
798.48	0.023
798.91	0.025
799.35	0.025
799.79	0.027
800.22	0.027
800.66	0.026
801.10	0.026
801.53	0.026
801.97	0.026
802.40	0.026
802.84	0.022
803.28	0.026
803.71	0.027
804.15	0.027
804.58	0.023
805.02	0.026
805.46	0.022
805.89	0.025
806.33	0.025
806.76	0.025
807.20	0.023
807.63	0.028
808.07	0.030
808.51	0.026
808.94	0.028
809.38	0.028
809.81	0.024
810.25	0.027
810.68	0.027
811.12	0.029
811.55	0.025
811.99	0.030
812.42	0.024
812.86	0.026
813.29	0.025
813.73	0.026
814.17	0.028
814.60	0.027
815.04	0.026
815.47	0.025
815.91	0.030
816.34	0.027
816.78	0.029
817.21	0.022
817.65	0.029
818.08	0.032
