SpectraSuite Data File
++++++++++++++++++++++++++++++++++++
Date: Tue Jul 11 16:30:32 CEST 2017
User: IPCE
Dark Spectrum Present: Yes
Reference Spectrum Present: Yes
Number of Sampled Component Spectra: 1
Spectrometers: HR+C0708
Integration Time (usec): 1000 (HR+C0708)
Spectra Averaged: 10 (HR+C0708)
Boxcar Smoothing: 0 (HR+C0708)
Correct for Electrical Dark: No (HR+C0708)
Strobe/Lamp Enabled: No (HR+C0708)
Correct for Detector Non-linearity: No (HR+C0708)
Correct for Stray Light: No (HR+C0708)
Number of Pixels in Processed Spectrum: 2048
>>>>>Begin Processed Spectral Data<<<<<
188.76	0.013
189.23	-0.014
189.70	0.088
190.17	0.244
190.64	0.602
191.12	0.249
191.59	0.284
192.06	0.383
192.53	0.135
193.01	1.785
193.48	-0.000
193.95	0.592
194.42	-0.000
194.90	0.441
195.37	0.059
195.84	-0.225
196.31	0.408
196.78	0.157
197.26	0.055
197.73	0.241
198.20	0.253
198.67	0.003
199.14	0.020
199.62	-0.014
200.09	0.278
200.56	0.347
201.03	0.233
201.50	0.214
201.97	0.148
202.45	0.218
202.92	0.206
203.39	0.288
203.86	0.450
204.33	0.222
204.80	0.329
205.28	0.302
205.75	0.301
206.22	0.245
206.69	0.387
207.16	0.182
207.63	0.171
208.11	0.282
208.58	0.255
209.05	0.179
209.52	0.358
209.99	0.277
210.46	0.190
210.93	0.278
211.41	0.347
211.88	0.100
212.35	0.238
212.82	0.103
213.29	0.251
213.76	0.280
214.23	0.213
214.70	0.257
215.18	0.321
215.65	0.281
216.12	0.309
216.59	0.257
217.06	0.452
217.53	0.289
218.00	0.241
218.47	0.467
218.94	0.374
219.41	0.290
219.89	0.418
220.36	0.311
220.83	0.454
221.30	0.327
221.77	0.392
222.24	0.554
222.71	0.495
223.18	0.313
223.65	0.397
224.12	0.556
224.59	0.620
225.06	0.539
225.54	0.490
226.01	0.583
226.48	0.570
226.95	0.629
227.42	0.718
227.89	0.753
228.36	0.738
228.83	0.780
229.30	0.874
229.77	0.931
230.24	1.004
230.71	1.106
231.18	1.055
231.65	1.104
232.12	1.470
232.59	1.328
233.06	1.271
233.53	1.322
234.00	1.430
234.47	1.410
234.94	1.491
235.41	1.472
235.88	1.603
236.35	1.515
236.82	1.631
237.29	1.698
237.76	1.685
238.23	1.753
238.70	1.800
239.17	1.813
239.64	1.906
240.11	1.837
240.58	1.897
241.05	2.007
241.52	1.919
241.99	1.979
242.46	1.939
242.93	2.068
243.40	2.068
243.87	2.112
244.34	2.136
244.81	2.085
245.28	2.050
245.75	2.121
246.22	2.188
246.69	2.115
247.16	2.201
247.63	2.200
248.10	2.143
248.57	2.091
249.04	2.097
249.51	2.117
249.98	2.147
250.45	2.178
250.92	2.062
251.39	2.041
251.85	1.942
252.32	1.884
252.79	1.769
253.26	1.715
253.73	1.620
254.20	1.510
254.67	1.446
255.14	1.365
255.61	1.306
256.08	1.273
256.55	1.195
257.02	1.152
257.49	1.123
257.95	1.082
258.42	1.037
258.89	1.001
259.36	0.971
259.83	0.948
260.30	0.920
260.77	0.897
261.24	0.878
261.71	0.857
262.17	0.832
262.64	0.814
263.11	0.794
263.58	0.781
264.05	0.764
264.52	0.747
264.99	0.729
265.46	0.720
265.92	0.707
266.39	0.693
266.86	0.679
267.33	0.669
267.80	0.663
268.27	0.650
268.74	0.642
269.20	0.631
269.67	0.620
270.14	0.612
270.61	0.604
271.08	0.592
271.55	0.589
272.01	0.581
272.48	0.568
272.95	0.563
273.42	0.559
273.89	0.548
274.36	0.544
274.82	0.539
275.29	0.536
275.76	0.533
276.23	0.523
276.70	0.516
277.16	0.516
277.63	0.511
278.10	0.505
278.57	0.502
279.04	0.498
279.50	0.492
279.97	0.493
280.44	0.488
280.91	0.482
281.38	0.483
281.84	0.481
282.31	0.477
282.78	0.477
283.25	0.474
283.72	0.473
284.18	0.469
284.65	0.468
285.12	0.468
285.59	0.467
286.05	0.467
286.52	0.468
286.99	0.463
287.46	0.462
287.92	0.462
288.39	0.462
288.86	0.458
289.33	0.463
289.79	0.459
290.26	0.455
290.73	0.456
291.20	0.450
291.66	0.451
292.13	0.444
292.60	0.443
293.07	0.440
293.53	0.433
294.00	0.430
294.47	0.423
294.93	0.419
295.40	0.411
295.87	0.404
296.34	0.402
296.80	0.393
297.27	0.387
297.74	0.382
298.20	0.374
298.67	0.371
299.14	0.361
299.60	0.350
300.07	0.349
300.54	0.343
301.01	0.333
301.47	0.327
301.94	0.322
302.41	0.317
302.87	0.309
303.34	0.301
303.81	0.297
304.27	0.289
304.74	0.288
305.21	0.281
305.67	0.273
306.14	0.266
306.61	0.264
307.07	0.260
307.54	0.254
308.01	0.249
308.47	0.244
308.94	0.240
309.40	0.238
309.87	0.238
310.34	0.232
310.80	0.232
311.27	0.226
311.74	0.225
312.20	0.221
312.67	0.222
313.13	0.218
313.60	0.215
314.07	0.214
314.53	0.211
315.00	0.211
315.47	0.210
315.93	0.207
316.40	0.207
316.86	0.204
317.33	0.206
317.80	0.200
318.26	0.197
318.73	0.199
319.19	0.194
319.66	0.195
320.13	0.193
320.59	0.193
321.06	0.189
321.52	0.191
321.99	0.192
322.45	0.189
322.92	0.187
323.39	0.182
323.85	0.185
324.32	0.185
324.78	0.182
325.25	0.180
325.71	0.177
326.18	0.177
326.64	0.174
327.11	0.175
327.58	0.174
328.04	0.173
328.51	0.172
328.97	0.173
329.44	0.172
329.90	0.169
330.37	0.168
330.83	0.166
331.30	0.167
331.76	0.161
332.23	0.162
332.69	0.158
333.16	0.158
333.62	0.158
334.09	0.153
334.56	0.152
335.02	0.150
335.49	0.148
335.95	0.147
336.42	0.147
336.88	0.143
337.35	0.142
337.81	0.146
338.28	0.139
338.74	0.142
339.20	0.140
339.67	0.139
340.13	0.137
340.60	0.137
341.06	0.133
341.53	0.134
341.99	0.134
342.46	0.130
342.92	0.130
343.39	0.130
343.85	0.126
344.32	0.129
344.78	0.125
345.25	0.126
345.71	0.129
346.17	0.127
346.64	0.122
347.10	0.122
347.57	0.121
348.03	0.124
348.50	0.120
348.96	0.118
349.43	0.122
349.89	0.117
350.35	0.124
350.82	0.121
351.28	0.117
351.75	0.118
352.21	0.122
352.67	0.114
353.14	0.115
353.60	0.110
354.07	0.107
354.53	0.112
355.00	0.111
355.46	0.106
355.92	0.107
356.39	0.108
356.85	0.106
357.31	0.107
357.78	0.106
358.24	0.100
358.71	0.103
359.17	0.103
359.63	0.101
360.10	0.099
360.56	0.100
361.03	0.095
361.49	0.095
361.95	0.095
362.42	0.090
362.88	0.092
363.34	0.091
363.81	0.090
364.27	0.087
364.73	0.089
365.20	0.085
365.66	0.085
366.12	0.083
366.59	0.081
367.05	0.085
367.51	0.081
367.98	0.077
368.44	0.082
368.90	0.078
369.37	0.081
369.83	0.077
370.29	0.077
370.76	0.081
371.22	0.077
371.68	0.077
372.15	0.076
372.61	0.078
373.07	0.077
373.54	0.076
374.00	0.074
374.46	0.076
374.92	0.074
375.39	0.076
375.85	0.077
376.31	0.075
376.78	0.075
377.24	0.072
377.70	0.074
378.16	0.072
378.63	0.072
379.09	0.073
379.55	0.072
380.01	0.073
380.48	0.073
380.94	0.074
381.40	0.070
381.87	0.070
382.33	0.071
382.79	0.073
383.25	0.073
383.72	0.071
384.18	0.069
384.64	0.068
385.10	0.069
385.56	0.068
386.03	0.068
386.49	0.070
386.95	0.069
387.41	0.068
387.88	0.070
388.34	0.070
388.80	0.067
389.26	0.068
389.72	0.068
390.19	0.068
390.65	0.069
391.11	0.069
391.57	0.067
392.04	0.067
392.50	0.069
392.96	0.068
393.42	0.066
393.88	0.068
394.34	0.068
394.81	0.068
395.27	0.062
395.73	0.064
396.19	0.065
396.65	0.067
397.12	0.066
397.58	0.063
398.04	0.067
398.50	0.064
398.96	0.065
399.42	0.064
399.89	0.064
400.35	0.061
400.81	0.066
401.27	0.068
401.73	0.063
402.19	0.063
402.65	0.063
403.12	0.062
403.58	0.062
404.04	0.061
404.50	0.065
404.96	0.061
405.42	0.062
405.88	0.059
406.34	0.061
406.81	0.060
407.27	0.060
407.73	0.060
408.19	0.058
408.65	0.058
409.11	0.063
409.57	0.059
410.03	0.060
410.49	0.061
410.96	0.057
411.42	0.058
411.88	0.057
412.34	0.057
412.80	0.059
413.26	0.058
413.72	0.057
414.18	0.059
414.64	0.055
415.10	0.057
415.56	0.057
416.02	0.055
416.48	0.053
416.95	0.055
417.41	0.057
417.87	0.056
418.33	0.054
418.79	0.057
419.25	0.058
419.71	0.054
420.17	0.055
420.63	0.054
421.09	0.054
421.55	0.057
422.01	0.054
422.47	0.054
422.93	0.055
423.39	0.055
423.85	0.053
424.31	0.053
424.77	0.052
425.23	0.054
425.69	0.056
426.15	0.054
426.61	0.055
427.07	0.052
427.53	0.055
427.99	0.055
428.45	0.056
428.91	0.053
429.37	0.055
429.83	0.053
430.29	0.055
430.75	0.053
431.21	0.053
431.67	0.055
432.13	0.050
432.59	0.053
433.05	0.051
433.51	0.053
433.97	0.056
434.43	0.052
434.89	0.050
435.35	0.050
435.81	0.050
436.27	0.052
436.73	0.051
437.19	0.051
437.65	0.051
438.11	0.052
438.57	0.054
439.03	0.050
439.48	0.052
439.94	0.051
440.40	0.050
440.86	0.051
441.32	0.049
441.78	0.049
442.24	0.048
442.70	0.047
443.16	0.051
443.62	0.050
444.08	0.049
444.54	0.054
444.99	0.053
445.45	0.052
445.91	0.050
446.37	0.052
446.83	0.049
447.29	0.052
447.75	0.050
448.21	0.050
448.67	0.050
449.12	0.047
449.58	0.047
450.04	0.049
450.50	0.046
450.96	0.044
451.42	0.050
451.88	0.050
452.34	0.048
452.79	0.048
453.25	0.051
453.71	0.046
454.17	0.049
454.63	0.051
455.09	0.049
455.55	0.047
456.00	0.048
456.46	0.049
456.92	0.050
457.38	0.051
457.84	0.048
458.30	0.049
458.75	0.048
459.21	0.051
459.67	0.050
460.13	0.050
460.59	0.049
461.04	0.048
461.50	0.048
461.96	0.048
462.42	0.052
462.88	0.046
463.33	0.047
463.79	0.051
464.25	0.047
464.71	0.049
465.17	0.050
465.62	0.050
466.08	0.048
466.54	0.048
467.00	0.050
467.46	0.049
467.91	0.050
468.37	0.049
468.83	0.050
469.29	0.048
469.74	0.050
470.20	0.050
470.66	0.048
471.12	0.053
471.57	0.050
472.03	0.049
472.49	0.050
472.95	0.049
473.40	0.050
473.86	0.050
474.32	0.047
474.78	0.049
475.23	0.049
475.69	0.050
476.15	0.051
476.60	0.049
477.06	0.049
477.52	0.049
477.98	0.049
478.43	0.051
478.89	0.049
479.35	0.050
479.80	0.050
480.26	0.050
480.72	0.051
481.18	0.051
481.63	0.051
482.09	0.050
482.55	0.050
483.00	0.048
483.46	0.050
483.92	0.050
484.37	0.052
484.83	0.049
485.29	0.051
485.74	0.050
486.20	0.049
486.66	0.051
487.11	0.050
487.57	0.050
488.03	0.050
488.48	0.050
488.94	0.052
489.40	0.052
489.85	0.052
490.31	0.048
490.77	0.051
491.22	0.050
491.68	0.049
492.13	0.050
492.59	0.051
493.05	0.050
493.50	0.049
493.96	0.047
494.42	0.050
494.87	0.050
495.33	0.051
495.78	0.048
496.24	0.049
496.70	0.052
497.15	0.051
497.61	0.050
498.06	0.052
498.52	0.050
498.98	0.050
499.43	0.050
499.89	0.050
500.34	0.051
500.80	0.050
501.25	0.049
501.71	0.049
502.17	0.050
502.62	0.050
503.08	0.047
503.53	0.050
503.99	0.050
504.44	0.051
504.90	0.049
505.36	0.047
505.81	0.048
506.27	0.049
506.72	0.051
507.18	0.049
507.63	0.050
508.09	0.049
508.54	0.049
509.00	0.049
509.45	0.050
509.91	0.049
510.36	0.050
510.82	0.050
511.27	0.049
511.73	0.050
512.19	0.047
512.64	0.049
513.10	0.050
513.55	0.049
514.01	0.048
514.46	0.048
514.92	0.049
515.37	0.049
515.83	0.045
516.28	0.049
516.73	0.047
517.19	0.047
517.64	0.047
518.10	0.047
518.55	0.048
519.01	0.047
519.46	0.048
519.92	0.047
520.37	0.049
520.83	0.051
521.28	0.049
521.74	0.049
522.19	0.047
522.65	0.049
523.10	0.049
523.55	0.047
524.01	0.049
524.46	0.047
524.92	0.049
525.37	0.050
525.83	0.052
526.28	0.048
526.73	0.050
527.19	0.050
527.64	0.051
528.10	0.048
528.55	0.049
529.01	0.051
529.46	0.051
529.91	0.047
530.37	0.048
530.82	0.048
531.28	0.052
531.73	0.048
532.18	0.051
532.64	0.051
533.09	0.051
533.54	0.050
534.00	0.047
534.45	0.051
534.91	0.050
535.36	0.053
535.81	0.048
536.27	0.053
536.72	0.050
537.17	0.053
537.63	0.052
538.08	0.053
538.54	0.052
538.99	0.051
539.44	0.055
539.90	0.053
540.35	0.052
540.80	0.053
541.26	0.053
541.71	0.052
542.16	0.052
542.62	0.054
543.07	0.054
543.52	0.054
543.98	0.056
544.43	0.054
544.88	0.054
545.34	0.056
545.79	0.057
546.24	0.056
546.69	0.053
547.15	0.052
547.60	0.060
548.05	0.059
548.51	0.058
548.96	0.057
549.41	0.059
549.86	0.059
550.32	0.058
550.77	0.058
551.22	0.059
551.68	0.059
552.13	0.059
552.58	0.061
553.03	0.061
553.49	0.063
553.94	0.061
554.39	0.064
554.84	0.064
555.30	0.062
555.75	0.063
556.20	0.064
556.65	0.064
557.11	0.064
557.56	0.064
558.01	0.064
558.46	0.066
558.92	0.068
559.37	0.066
559.82	0.069
560.27	0.068
560.72	0.066
561.18	0.069
561.63	0.070
562.08	0.071
562.53	0.069
562.99	0.069
563.44	0.071
563.89	0.072
564.34	0.073
564.79	0.073
565.25	0.075
565.70	0.074
566.15	0.074
566.60	0.074
567.05	0.076
567.50	0.077
567.96	0.079
568.41	0.080
568.86	0.078
569.31	0.079
569.76	0.080
570.21	0.078
570.67	0.080
571.12	0.082
571.57	0.080
572.02	0.084
572.47	0.087
572.92	0.084
573.37	0.084
573.83	0.086
574.28	0.088
574.73	0.086
575.18	0.089
575.63	0.089
576.08	0.088
576.53	0.089
576.98	0.090
577.44	0.091
577.89	0.091
578.34	0.092
578.79	0.096
579.24	0.094
579.69	0.097
580.14	0.098
580.59	0.098
581.04	0.098
581.49	0.102
581.95	0.102
582.40	0.100
582.85	0.102
583.30	0.103
583.75	0.103
584.20	0.107
584.65	0.106
585.10	0.109
585.55	0.109
586.00	0.109
586.45	0.114
586.90	0.113
587.35	0.113
587.80	0.116
588.25	0.117
588.71	0.116
589.16	0.119
589.61	0.121
590.06	0.124
590.51	0.124
590.96	0.125
591.41	0.126
591.86	0.130
592.31	0.131
592.76	0.131
593.21	0.133
593.66	0.135
594.11	0.136
594.56	0.138
595.01	0.138
595.46	0.139
595.91	0.141
596.36	0.144
596.81	0.146
597.26	0.147
597.71	0.150
598.16	0.150
598.61	0.152
599.06	0.153
599.51	0.154
599.96	0.155
600.41	0.158
600.86	0.160
601.31	0.160
601.76	0.161
602.21	0.164
602.65	0.163
603.10	0.166
603.55	0.168
604.00	0.169
604.45	0.169
604.90	0.171
605.35	0.174
605.80	0.173
606.25	0.174
606.70	0.179
607.15	0.178
607.60	0.180
608.05	0.180
608.50	0.180
608.95	0.183
609.39	0.184
609.84	0.184
610.29	0.184
610.74	0.187
611.19	0.187
611.64	0.187
612.09	0.189
612.54	0.189
612.99	0.192
613.44	0.191
613.88	0.195
614.33	0.193
614.78	0.193
615.23	0.194
615.68	0.197
616.13	0.196
616.58	0.196
617.03	0.196
617.47	0.198
617.92	0.199
618.37	0.200
618.82	0.198
619.27	0.199
619.72	0.200
620.17	0.200
620.61	0.201
621.06	0.203
621.51	0.203
621.96	0.203
622.41	0.204
622.86	0.202
623.30	0.205
623.75	0.205
624.20	0.207
624.65	0.208
625.10	0.209
625.54	0.209
625.99	0.211
626.44	0.210
626.89	0.211
627.34	0.213
627.78	0.213
628.23	0.217
628.68	0.216
629.13	0.219
629.58	0.215
630.02	0.220
630.47	0.219
630.92	0.222
631.37	0.222
631.81	0.224
632.26	0.226
632.71	0.228
633.16	0.228
633.61	0.230
634.05	0.231
634.50	0.232
634.95	0.234
635.40	0.235
635.84	0.239
636.29	0.241
636.74	0.240
637.18	0.243
637.63	0.245
638.08	0.246
638.53	0.248
638.97	0.249
639.42	0.253
639.87	0.256
640.32	0.259
640.76	0.260
641.21	0.262
641.66	0.265
642.10	0.268
642.55	0.269
643.00	0.272
643.44	0.273
643.89	0.276
644.34	0.280
644.79	0.280
645.23	0.284
645.68	0.287
646.13	0.291
646.57	0.289
647.02	0.293
647.47	0.293
647.91	0.297
648.36	0.300
648.81	0.306
649.25	0.305
649.70	0.307
650.15	0.312
650.59	0.310
651.04	0.314
651.48	0.315
651.93	0.317
652.38	0.319
652.82	0.322
653.27	0.322
653.72	0.329
654.16	0.327
654.61	0.329
655.06	0.333
655.50	0.334
655.95	0.332
656.39	0.335
656.84	0.336
657.29	0.338
657.73	0.339
658.18	0.340
658.62	0.341
659.07	0.341
659.52	0.344
659.96	0.347
660.41	0.346
660.85	0.341
661.30	0.345
661.74	0.348
662.19	0.349
662.64	0.345
663.08	0.348
663.53	0.347
663.97	0.346
664.42	0.346
664.86	0.347
665.31	0.343
665.75	0.346
666.20	0.345
666.65	0.344
667.09	0.344
667.54	0.341
667.98	0.340
668.43	0.337
668.87	0.336
669.32	0.333
669.76	0.331
670.21	0.327
670.65	0.325
671.10	0.325
671.54	0.317
671.99	0.316
672.43	0.309
672.88	0.304
673.32	0.303
673.77	0.294
674.21	0.293
674.66	0.287
675.10	0.283
675.55	0.276
675.99	0.272
676.44	0.267
676.88	0.258
677.33	0.254
677.77	0.245
678.22	0.240
678.66	0.235
679.11	0.226
679.55	0.221
679.99	0.216
680.44	0.207
680.88	0.203
681.33	0.197
681.77	0.193
682.22	0.185
682.66	0.178
683.11	0.174
683.55	0.168
683.99	0.161
684.44	0.157
684.88	0.152
685.33	0.146
685.77	0.142
686.21	0.137
686.66	0.131
687.10	0.128
687.55	0.124
687.99	0.121
688.44	0.113
688.88	0.109
689.32	0.105
689.77	0.101
690.21	0.098
690.65	0.093
691.10	0.090
691.54	0.087
691.99	0.085
692.43	0.079
692.87	0.079
693.32	0.074
693.76	0.074
694.20	0.071
694.65	0.071
695.09	0.065
695.53	0.067
695.98	0.063
696.42	0.059
696.86	0.058
697.31	0.058
697.75	0.056
698.19	0.052
698.64	0.051
699.08	0.050
699.52	0.047
699.97	0.047
700.41	0.047
700.85	0.047
701.30	0.043
701.74	0.041
702.18	0.042
702.63	0.040
703.07	0.042
703.51	0.041
703.96	0.040
704.40	0.040
704.84	0.038
705.28	0.037
705.73	0.037
706.17	0.036
706.61	0.037
707.06	0.032
707.50	0.033
707.94	0.034
708.38	0.031
708.83	0.034
709.27	0.031
709.71	0.033
710.15	0.031
710.60	0.032
711.04	0.029
711.48	0.029
711.92	0.031
712.37	0.030
712.81	0.031
713.25	0.028
713.69	0.029
714.13	0.025
714.58	0.027
715.02	0.029
715.46	0.026
715.90	0.026
716.35	0.029
716.79	0.028
717.23	0.027
717.67	0.027
718.11	0.024
718.56	0.026
719.00	0.024
719.44	0.026
719.88	0.026
720.32	0.029
720.76	0.024
721.21	0.029
721.65	0.029
722.09	0.029
722.53	0.029
722.97	0.026
723.41	0.026
723.86	0.026
724.30	0.026
724.74	0.026
725.18	0.028
725.62	0.023
726.06	0.028
726.50	0.025
726.95	0.027
727.39	0.028
727.83	0.028
728.27	0.025
728.71	0.024
729.15	0.027
729.59	0.030
730.03	0.029
730.48	0.026
730.92	0.027
731.36	0.029
731.80	0.028
732.24	0.029
732.68	0.029
733.12	0.031
733.56	0.030
734.00	0.032
734.44	0.031
734.89	0.030
735.33	0.031
735.77	0.031
736.21	0.031
736.65	0.030
737.09	0.029
737.53	0.031
737.97	0.033
738.41	0.031
738.85	0.029
739.29	0.030
739.73	0.031
740.17	0.029
740.61	0.031
741.05	0.033
741.49	0.029
741.93	0.031
742.37	0.030
742.81	0.032
743.26	0.030
743.70	0.031
744.14	0.030
744.58	0.030
745.02	0.033
745.46	0.029
745.90	0.033
746.34	0.033
746.78	0.032
747.22	0.031
747.66	0.032
748.10	0.030
748.54	0.029
748.98	0.030
749.42	0.032
749.86	0.030
750.29	0.031
750.73	0.032
751.17	0.028
751.61	0.031
752.05	0.030
752.49	0.030
752.93	0.032
753.37	0.031
753.81	0.032
754.25	0.029
754.69	0.029
755.13	0.031
755.57	0.029
756.01	0.030
756.45	0.028
756.89	0.030
757.33	0.030
757.77	0.028
758.21	0.032
758.64	0.034
759.08	0.032
759.52	0.031
759.96	0.032
760.40	0.028
760.84	0.029
761.28	0.030
761.72	0.028
762.16	0.029
762.60	0.029
763.03	0.030
763.47	0.028
763.91	0.027
764.35	0.028
764.79	0.033
765.23	0.030
765.67	0.029
766.11	0.031
766.54	0.031
766.98	0.029
767.42	0.028
767.86	0.030
768.30	0.031
768.74	0.029
769.17	0.031
769.61	0.029
770.05	0.028
770.49	0.028
770.93	0.031
771.37	0.026
771.80	0.028
772.24	0.029
772.68	0.028
773.12	0.028
773.56	0.029
774.00	0.030
774.43	0.030
774.87	0.028
775.31	0.032
775.75	0.031
776.19	0.029
776.62	0.033
777.06	0.027
777.50	0.030
777.94	0.031
778.37	0.030
778.81	0.030
779.25	0.031
779.69	0.027
780.13	0.030
780.56	0.032
781.00	0.033
781.44	0.032
781.88	0.031
782.31	0.032
782.75	0.031
783.19	0.031
783.63	0.032
784.06	0.029
784.50	0.031
784.94	0.031
785.37	0.028
785.81	0.030
786.25	0.026
786.69	0.031
787.12	0.028
787.56	0.030
788.00	0.029
788.43	0.027
788.87	0.028
789.31	0.029
789.75	0.033
790.18	0.030
790.62	0.029
791.06	0.029
791.49	0.031
791.93	0.028
792.37	0.023
792.80	0.029
793.24	0.029
793.68	0.027
794.11	0.030
794.55	0.028
794.99	0.028
795.42	0.029
795.86	0.029
796.30	0.029
796.73	0.028
797.17	0.029
797.61	0.026
798.04	0.025
798.48	0.026
798.91	0.029
799.35	0.029
799.79	0.027
800.22	0.028
800.66	0.023
801.10	0.028
801.53	0.029
801.97	0.028
802.40	0.027
802.84	0.031
803.28	0.028
803.71	0.028
804.15	0.030
804.58	0.027
805.02	0.025
805.46	0.026
805.89	0.030
806.33	0.026
806.76	0.028
807.20	0.030
807.63	0.032
808.07	0.030
808.51	0.026
808.94	0.031
809.38	0.031
809.81	0.027
810.25	0.029
810.68	0.034
811.12	0.031
811.55	0.027
811.99	0.028
812.42	0.030
812.86	0.028
813.29	0.028
813.73	0.029
814.17	0.029
814.60	0.026
815.04	0.030
815.47	0.030
815.91	0.029
816.34	0.027
816.78	0.030
817.21	0.028
817.65	0.029
818.08	0.032
