SpectraSuite Data File
++++++++++++++++++++++++++++++++++++
Date: Tue Jul 11 15:27:32 CEST 2017
User: IPCE
Dark Spectrum Present: Yes
Reference Spectrum Present: Yes
Number of Sampled Component Spectra: 1
Spectrometers: HR+C0708
Integration Time (usec): 1000 (HR+C0708)
Spectra Averaged: 10 (HR+C0708)
Boxcar Smoothing: 0 (HR+C0708)
Correct for Electrical Dark: No (HR+C0708)
Strobe/Lamp Enabled: No (HR+C0708)
Correct for Detector Non-linearity: No (HR+C0708)
Correct for Stray Light: No (HR+C0708)
Number of Pixels in Processed Spectrum: 2048
>>>>>Begin Processed Spectral Data<<<<<
188.76	0.413
189.23	-0.241
189.70	-0.466
190.17	0.213
190.64	0.271
191.12	0.186
191.59	0.251
192.06	0.354
192.53	0.486
193.01	0.387
193.48	-0.000
193.95	0.409
194.42	0.813
194.90	0.135
195.37	-0.003
195.84	0.203
196.31	0.869
196.78	0.298
197.26	1.338
197.73	0.855
198.20	0.304
198.67	0.207
199.14	0.101
199.62	0.260
200.09	-0.000
200.56	0.393
201.03	0.343
201.50	0.478
201.97	0.389
202.45	0.563
202.92	0.463
203.39	0.468
203.86	0.639
204.33	0.531
204.80	0.604
205.28	0.715
205.75	0.642
206.22	0.544
206.69	0.499
207.16	0.342
207.63	0.470
208.11	0.568
208.58	0.408
209.05	0.697
209.52	0.599
209.99	0.409
210.46	0.447
210.93	0.542
211.41	0.431
211.88	0.444
212.35	0.426
212.82	0.452
213.29	0.513
213.76	0.379
214.23	0.467
214.70	0.391
215.18	0.436
215.65	0.419
216.12	0.419
216.59	0.302
217.06	0.651
217.53	0.521
218.00	0.491
218.47	0.490
218.94	0.483
219.41	0.471
219.89	0.618
220.36	0.516
220.83	0.533
221.30	0.553
221.77	0.597
222.24	0.585
222.71	0.666
223.18	0.533
223.65	0.594
224.12	0.840
224.59	0.848
225.06	0.661
225.54	0.595
226.01	0.907
226.48	0.882
226.95	0.765
227.42	1.172
227.89	1.044
228.36	0.999
228.83	1.083
229.30	1.198
229.77	1.129
230.24	1.356
230.71	1.328
231.18	1.193
231.65	1.501
232.12	1.612
232.59	1.492
233.06	1.571
233.53	1.603
234.00	1.609
234.47	1.591
234.94	1.784
235.41	1.729
235.88	1.842
236.35	1.815
236.82	1.882
237.29	1.892
237.76	2.035
238.23	2.035
238.70	2.003
239.17	2.212
239.64	2.198
240.11	2.228
240.58	2.188
241.05	2.374
241.52	2.299
241.99	2.385
242.46	2.097
242.93	2.193
243.40	2.273
243.87	2.351
244.34	2.532
244.81	2.251
245.28	2.259
245.75	2.548
246.22	2.477
246.69	2.401
247.16	2.402
247.63	2.440
248.10	2.387
248.57	2.259
249.04	2.348
249.51	2.334
249.98	2.293
250.45	2.548
250.92	2.413
251.39	2.599
251.85	2.464
252.32	2.701
252.79	2.546
253.26	2.600
253.73	2.700
254.20	2.389
254.67	2.490
255.14	2.380
255.61	2.604
256.08	2.892
256.55	2.500
257.02	2.571
257.49	2.683
257.95	2.809
258.42	2.715
258.89	2.507
259.36	2.593
259.83	2.601
260.30	2.599
260.77	2.703
261.24	2.742
261.71	2.704
262.17	2.688
262.64	2.894
263.11	2.614
263.58	2.852
264.05	2.912
264.52	2.660
264.99	2.673
265.46	2.868
265.92	2.713
266.39	2.828
266.86	2.777
267.33	2.588
267.80	2.727
268.27	2.616
268.74	2.750
269.20	2.773
269.67	2.694
270.14	2.923
270.61	2.825
271.08	2.758
271.55	2.547
272.01	2.438
272.48	2.593
272.95	3.124
273.42	2.749
273.89	2.770
274.36	2.611
274.82	2.692
275.29	2.564
275.76	2.552
276.23	2.609
276.70	2.567
277.16	2.518
277.63	2.685
278.10	2.753
278.57	2.618
279.04	2.629
279.50	2.610
279.97	2.669
280.44	2.585
280.91	2.618
281.38	2.585
281.84	2.656
282.31	2.586
282.78	2.601
283.25	2.684
283.72	2.599
284.18	2.580
284.65	2.647
285.12	2.529
285.59	2.515
286.05	2.510
286.52	2.584
286.99	2.657
287.46	2.531
287.92	2.490
288.39	2.722
288.86	2.501
289.33	2.756
289.79	2.904
290.26	2.733
290.73	2.707
291.20	2.521
291.66	2.553
292.13	2.480
292.60	2.582
293.07	2.533
293.53	2.613
294.00	2.371
294.47	2.593
294.93	2.838
295.40	2.557
295.87	2.420
296.34	2.586
296.80	2.546
297.27	2.508
297.74	2.520
298.20	2.678
298.67	2.535
299.14	2.665
299.60	2.588
300.07	2.405
300.54	2.510
301.01	2.518
301.47	2.477
301.94	2.436
302.41	2.439
302.87	2.311
303.34	2.407
303.81	2.484
304.27	2.416
304.74	2.442
305.21	2.553
305.67	2.581
306.14	2.513
306.61	2.431
307.07	2.441
307.54	2.411
308.01	2.306
308.47	2.409
308.94	2.324
309.40	2.401
309.87	2.459
310.34	2.499
310.80	2.348
311.27	2.356
311.74	2.373
312.20	2.352
312.67	2.434
313.13	2.440
313.60	2.372
314.07	2.469
314.53	2.373
315.00	2.333
315.47	2.422
315.93	2.392
316.40	2.507
316.86	2.450
317.33	2.432
317.80	2.451
318.26	2.351
318.73	2.325
319.19	2.335
319.66	2.312
320.13	2.335
320.59	2.382
321.06	2.257
321.52	2.273
321.99	2.307
322.45	2.382
322.92	2.325
323.39	2.262
323.85	2.196
324.32	2.270
324.78	2.257
325.25	2.199
325.71	2.325
326.18	2.211
326.64	2.235
327.11	2.265
327.58	2.274
328.04	2.201
328.51	2.329
328.97	2.257
329.44	2.301
329.90	2.165
330.37	2.129
330.83	2.191
331.30	2.218
331.76	2.206
332.23	2.219
332.69	2.234
333.16	2.329
333.62	2.202
334.09	2.187
334.56	2.190
335.02	2.187
335.49	2.166
335.95	2.186
336.42	2.086
336.88	2.077
337.35	2.100
337.81	2.063
338.28	2.120
338.74	2.177
339.20	2.120
339.67	2.139
340.13	2.131
340.60	2.139
341.06	2.125
341.53	2.100
341.99	2.080
342.46	2.101
342.92	2.082
343.39	2.164
343.85	2.096
344.32	2.108
344.78	2.102
345.25	2.092
345.71	2.121
346.17	2.044
346.64	2.102
347.10	2.040
347.57	2.055
348.03	2.005
348.50	1.992
348.96	1.929
349.43	1.970
349.89	1.907
350.35	1.823
350.82	1.774
351.28	1.834
351.75	1.779
352.21	1.775
352.67	1.791
353.14	1.669
353.60	1.685
354.07	1.703
354.53	1.642
355.00	1.662
355.46	1.570
355.92	1.573
356.39	1.549
356.85	1.511
357.31	1.468
357.78	1.431
358.24	1.375
358.71	1.326
359.17	1.272
359.63	1.203
360.10	1.146
360.56	1.071
361.03	1.002
361.49	0.935
361.95	0.852
362.42	0.779
362.88	0.711
363.34	0.639
363.81	0.583
364.27	0.527
364.73	0.475
365.20	0.433
365.66	0.386
366.12	0.347
366.59	0.315
367.05	0.288
367.51	0.261
367.98	0.238
368.44	0.225
368.90	0.209
369.37	0.198
369.83	0.187
370.29	0.179
370.76	0.171
371.22	0.166
371.68	0.159
372.15	0.151
372.61	0.151
373.07	0.147
373.54	0.144
374.00	0.140
374.46	0.139
374.92	0.132
375.39	0.134
375.85	0.133
376.31	0.131
376.78	0.127
377.24	0.125
377.70	0.128
378.16	0.125
378.63	0.123
379.09	0.124
379.55	0.124
380.01	0.119
380.48	0.120
380.94	0.122
381.40	0.118
381.87	0.115
382.33	0.117
382.79	0.116
383.25	0.117
383.72	0.118
384.18	0.114
384.64	0.113
385.10	0.111
385.56	0.113
386.03	0.113
386.49	0.111
386.95	0.108
387.41	0.109
387.88	0.109
388.34	0.108
388.80	0.107
389.26	0.107
389.72	0.105
390.19	0.108
390.65	0.105
391.11	0.106
391.57	0.104
392.04	0.103
392.50	0.104
392.96	0.106
393.42	0.105
393.88	0.107
394.34	0.103
394.81	0.105
395.27	0.099
395.73	0.099
396.19	0.102
396.65	0.101
397.12	0.098
397.58	0.098
398.04	0.098
398.50	0.098
398.96	0.098
399.42	0.095
399.89	0.097
400.35	0.096
400.81	0.096
401.27	0.099
401.73	0.093
402.19	0.094
402.65	0.094
403.12	0.093
403.58	0.090
404.04	0.090
404.50	0.092
404.96	0.092
405.42	0.089
405.88	0.088
406.34	0.089
406.81	0.088
407.27	0.089
407.73	0.089
408.19	0.084
408.65	0.084
409.11	0.089
409.57	0.087
410.03	0.087
410.49	0.085
410.96	0.083
411.42	0.084
411.88	0.084
412.34	0.082
412.80	0.083
413.26	0.083
413.72	0.081
414.18	0.081
414.64	0.079
415.10	0.080
415.56	0.081
416.02	0.077
416.48	0.077
416.95	0.077
417.41	0.080
417.87	0.078
418.33	0.076
418.79	0.078
419.25	0.079
419.71	0.077
420.17	0.078
420.63	0.079
421.09	0.078
421.55	0.079
422.01	0.073
422.47	0.077
422.93	0.076
423.39	0.077
423.85	0.076
424.31	0.073
424.77	0.074
425.23	0.076
425.69	0.078
426.15	0.076
426.61	0.076
427.07	0.075
427.53	0.074
427.99	0.076
428.45	0.076
428.91	0.074
429.37	0.076
429.83	0.073
430.29	0.076
430.75	0.075
431.21	0.073
431.67	0.077
432.13	0.070
432.59	0.071
433.05	0.071
433.51	0.073
433.97	0.075
434.43	0.069
434.89	0.071
435.35	0.071
435.81	0.067
436.27	0.068
436.73	0.067
437.19	0.070
437.65	0.067
438.11	0.071
438.57	0.070
439.03	0.068
439.48	0.069
439.94	0.067
440.40	0.067
440.86	0.069
441.32	0.067
441.78	0.069
442.24	0.066
442.70	0.065
443.16	0.068
443.62	0.065
444.08	0.068
444.54	0.070
444.99	0.068
445.45	0.067
445.91	0.069
446.37	0.067
446.83	0.066
447.29	0.066
447.75	0.067
448.21	0.066
448.67	0.068
449.12	0.065
449.58	0.064
450.04	0.063
450.50	0.065
450.96	0.062
451.42	0.066
451.88	0.067
452.34	0.065
452.79	0.063
453.25	0.065
453.71	0.061
454.17	0.061
454.63	0.067
455.09	0.064
455.55	0.065
456.00	0.063
456.46	0.064
456.92	0.064
457.38	0.066
457.84	0.063
458.30	0.064
458.75	0.062
459.21	0.063
459.67	0.064
460.13	0.065
460.59	0.066
461.04	0.061
461.50	0.064
461.96	0.062
462.42	0.066
462.88	0.061
463.33	0.063
463.79	0.064
464.25	0.062
464.71	0.064
465.17	0.062
465.62	0.063
466.08	0.062
466.54	0.064
467.00	0.063
467.46	0.064
467.91	0.063
468.37	0.063
468.83	0.066
469.29	0.062
469.74	0.063
470.20	0.063
470.66	0.064
471.12	0.064
471.57	0.064
472.03	0.063
472.49	0.063
472.95	0.063
473.40	0.063
473.86	0.063
474.32	0.063
474.78	0.063
475.23	0.062
475.69	0.061
476.15	0.065
476.60	0.064
477.06	0.061
477.52	0.064
477.98	0.064
478.43	0.064
478.89	0.067
479.35	0.063
479.80	0.063
480.26	0.063
480.72	0.062
481.18	0.061
481.63	0.062
482.09	0.062
482.55	0.062
483.00	0.064
483.46	0.063
483.92	0.063
484.37	0.064
484.83	0.065
485.29	0.067
485.74	0.066
486.20	0.063
486.66	0.062
487.11	0.063
487.57	0.064
488.03	0.065
488.48	0.064
488.94	0.064
489.40	0.064
489.85	0.063
490.31	0.062
490.77	0.064
491.22	0.061
491.68	0.063
492.13	0.065
492.59	0.063
493.05	0.063
493.50	0.061
493.96	0.061
494.42	0.063
494.87	0.063
495.33	0.064
495.78	0.061
496.24	0.060
496.70	0.064
497.15	0.063
497.61	0.062
498.06	0.063
498.52	0.063
498.98	0.063
499.43	0.062
499.89	0.062
500.34	0.060
500.80	0.063
501.25	0.061
501.71	0.062
502.17	0.062
502.62	0.062
503.08	0.058
503.53	0.062
503.99	0.062
504.44	0.062
504.90	0.059
505.36	0.061
505.81	0.060
506.27	0.060
506.72	0.061
507.18	0.060
507.63	0.060
508.09	0.061
508.54	0.061
509.00	0.061
509.45	0.059
509.91	0.059
510.36	0.061
510.82	0.059
511.27	0.059
511.73	0.058
512.19	0.057
512.64	0.060
513.10	0.061
513.55	0.060
514.01	0.058
514.46	0.058
514.92	0.058
515.37	0.059
515.83	0.057
516.28	0.060
516.73	0.059
517.19	0.058
517.64	0.059
518.10	0.060
518.55	0.059
519.01	0.056
519.46	0.059
519.92	0.058
520.37	0.058
520.83	0.061
521.28	0.061
521.74	0.058
522.19	0.058
522.65	0.058
523.10	0.059
523.55	0.059
524.01	0.059
524.46	0.059
524.92	0.059
525.37	0.058
525.83	0.059
526.28	0.059
526.73	0.059
527.19	0.059
527.64	0.062
528.10	0.057
528.55	0.059
529.01	0.059
529.46	0.061
529.91	0.058
530.37	0.057
530.82	0.061
531.28	0.060
531.73	0.060
532.18	0.061
532.64	0.061
533.09	0.060
533.54	0.059
534.00	0.058
534.45	0.062
534.91	0.059
535.36	0.062
535.81	0.061
536.27	0.063
536.72	0.060
537.17	0.063
537.63	0.063
538.08	0.064
538.54	0.062
538.99	0.063
539.44	0.066
539.90	0.063
540.35	0.063
540.80	0.062
541.26	0.064
541.71	0.064
542.16	0.065
542.62	0.064
543.07	0.067
543.52	0.066
543.98	0.068
544.43	0.066
544.88	0.067
545.34	0.068
545.79	0.069
546.24	0.069
546.69	0.067
547.15	0.068
547.60	0.072
548.05	0.070
548.51	0.070
548.96	0.072
549.41	0.071
549.86	0.073
550.32	0.073
550.77	0.073
551.22	0.075
551.68	0.074
552.13	0.073
552.58	0.074
553.03	0.074
553.49	0.076
553.94	0.075
554.39	0.077
554.84	0.078
555.30	0.077
555.75	0.078
556.20	0.080
556.65	0.080
557.11	0.081
557.56	0.081
558.01	0.083
558.46	0.084
558.92	0.084
559.37	0.085
559.82	0.085
560.27	0.085
560.72	0.086
561.18	0.087
561.63	0.089
562.08	0.090
562.53	0.088
562.99	0.091
563.44	0.089
563.89	0.090
564.34	0.092
564.79	0.093
565.25	0.093
565.70	0.093
566.15	0.094
566.60	0.095
567.05	0.095
567.50	0.096
567.96	0.099
568.41	0.100
568.86	0.099
569.31	0.102
569.76	0.103
570.21	0.100
570.67	0.099
571.12	0.105
571.57	0.105
572.02	0.107
572.47	0.107
572.92	0.106
573.37	0.107
573.83	0.108
574.28	0.111
574.73	0.111
575.18	0.112
575.63	0.114
576.08	0.112
576.53	0.114
576.98	0.115
577.44	0.118
577.89	0.115
578.34	0.119
578.79	0.122
579.24	0.122
579.69	0.122
580.14	0.125
580.59	0.126
581.04	0.129
581.49	0.130
581.95	0.132
582.40	0.132
582.85	0.132
583.30	0.136
583.75	0.138
584.20	0.139
584.65	0.139
585.10	0.142
585.55	0.143
586.00	0.146
586.45	0.149
586.90	0.148
587.35	0.150
587.80	0.153
588.25	0.154
588.71	0.154
589.16	0.159
589.61	0.160
590.06	0.165
590.51	0.165
590.96	0.168
591.41	0.170
591.86	0.172
592.31	0.174
592.76	0.175
593.21	0.179
593.66	0.181
594.11	0.184
594.56	0.186
595.01	0.187
595.46	0.189
595.91	0.190
596.36	0.195
596.81	0.197
597.26	0.200
597.71	0.201
598.16	0.204
598.61	0.207
599.06	0.208
599.51	0.210
599.96	0.215
600.41	0.215
600.86	0.221
601.31	0.222
601.76	0.223
602.21	0.225
602.65	0.228
603.10	0.229
603.55	0.233
604.00	0.236
604.45	0.237
604.90	0.239
605.35	0.241
605.80	0.242
606.25	0.243
606.70	0.247
607.15	0.249
607.60	0.250
608.05	0.253
608.50	0.255
608.95	0.258
609.39	0.258
609.84	0.260
610.29	0.261
610.74	0.262
611.19	0.264
611.64	0.267
612.09	0.267
612.54	0.268
612.99	0.270
613.44	0.269
613.88	0.274
614.33	0.271
614.78	0.273
615.23	0.273
615.68	0.275
616.13	0.278
616.58	0.277
617.03	0.276
617.47	0.278
617.92	0.280
618.37	0.280
618.82	0.278
619.27	0.280
619.72	0.279
620.17	0.281
620.61	0.280
621.06	0.283
621.51	0.284
621.96	0.283
622.41	0.287
622.86	0.282
623.30	0.285
623.75	0.285
624.20	0.288
624.65	0.290
625.10	0.289
625.54	0.291
625.99	0.290
626.44	0.292
626.89	0.292
627.34	0.295
627.78	0.295
628.23	0.298
628.68	0.299
629.13	0.301
629.58	0.302
630.02	0.304
630.47	0.305
630.92	0.307
631.37	0.307
631.81	0.310
632.26	0.313
632.71	0.313
633.16	0.317
633.61	0.319
634.05	0.322
634.50	0.324
634.95	0.324
635.40	0.328
635.84	0.331
636.29	0.333
636.74	0.336
637.18	0.339
637.63	0.340
638.08	0.344
638.53	0.347
638.97	0.352
639.42	0.359
639.87	0.361
640.32	0.364
640.76	0.367
641.21	0.370
641.66	0.374
642.10	0.378
642.55	0.380
643.00	0.384
643.44	0.386
643.89	0.393
644.34	0.399
644.79	0.400
645.23	0.405
645.68	0.410
646.13	0.412
646.57	0.415
647.02	0.419
647.47	0.424
647.91	0.426
648.36	0.433
648.81	0.437
649.25	0.441
649.70	0.443
650.15	0.450
650.59	0.451
651.04	0.456
651.48	0.458
651.93	0.465
652.38	0.467
652.82	0.472
653.27	0.476
653.72	0.479
654.16	0.482
654.61	0.486
655.06	0.492
655.50	0.494
655.95	0.494
656.39	0.500
656.84	0.502
657.29	0.503
657.73	0.507
658.18	0.511
658.62	0.515
659.07	0.518
659.52	0.522
659.96	0.521
660.41	0.527
660.85	0.525
661.30	0.529
661.74	0.533
662.19	0.538
662.64	0.531
663.08	0.536
663.53	0.541
663.97	0.539
664.42	0.540
664.86	0.539
665.31	0.540
665.75	0.542
666.20	0.538
666.65	0.543
667.09	0.539
667.54	0.538
667.98	0.537
668.43	0.535
668.87	0.531
669.32	0.528
669.76	0.523
670.21	0.518
670.65	0.516
671.10	0.513
671.54	0.508
671.99	0.501
672.43	0.494
672.88	0.485
673.32	0.480
673.77	0.473
674.21	0.465
674.66	0.457
675.10	0.449
675.55	0.441
675.99	0.434
676.44	0.425
676.88	0.410
677.33	0.400
677.77	0.394
678.22	0.384
678.66	0.374
679.11	0.361
679.55	0.354
679.99	0.344
680.44	0.333
680.88	0.326
681.33	0.314
681.77	0.304
682.22	0.292
682.66	0.282
683.11	0.274
683.55	0.267
683.99	0.256
684.44	0.248
684.88	0.239
685.33	0.226
685.77	0.218
686.21	0.213
686.66	0.204
687.10	0.196
687.55	0.187
687.99	0.182
688.44	0.175
688.88	0.168
689.32	0.161
689.77	0.155
690.21	0.148
690.65	0.143
691.10	0.136
691.54	0.133
691.99	0.126
692.43	0.121
692.87	0.117
693.32	0.112
693.76	0.109
694.20	0.105
694.65	0.100
695.09	0.098
695.53	0.095
695.98	0.090
696.42	0.083
696.86	0.083
697.31	0.080
697.75	0.077
698.19	0.075
698.64	0.073
699.08	0.068
699.52	0.066
699.97	0.065
700.41	0.066
700.85	0.062
701.30	0.059
701.74	0.054
702.18	0.057
702.63	0.054
703.07	0.055
703.51	0.052
703.96	0.050
704.40	0.051
704.84	0.046
705.28	0.047
705.73	0.043
706.17	0.044
706.61	0.044
707.06	0.044
707.50	0.040
707.94	0.042
708.38	0.039
708.83	0.040
709.27	0.037
709.71	0.039
710.15	0.037
710.60	0.038
711.04	0.035
711.48	0.034
711.92	0.035
712.37	0.035
712.81	0.036
713.25	0.033
713.69	0.032
714.13	0.031
714.58	0.033
715.02	0.032
715.46	0.030
715.90	0.031
716.35	0.030
716.79	0.033
717.23	0.032
717.67	0.030
718.11	0.028
718.56	0.028
719.00	0.029
719.44	0.030
719.88	0.031
720.32	0.030
720.76	0.029
721.21	0.031
721.65	0.029
722.09	0.029
722.53	0.031
722.97	0.032
723.41	0.029
723.86	0.028
724.30	0.030
724.74	0.028
725.18	0.031
725.62	0.028
726.06	0.030
726.50	0.027
726.95	0.029
727.39	0.030
727.83	0.031
728.27	0.026
728.71	0.028
729.15	0.029
729.59	0.030
730.03	0.030
730.48	0.029
730.92	0.027
731.36	0.029
731.80	0.031
732.24	0.030
732.68	0.031
733.12	0.030
733.56	0.030
734.00	0.034
734.44	0.034
734.89	0.031
735.33	0.034
735.77	0.032
736.21	0.032
736.65	0.033
737.09	0.032
737.53	0.032
737.97	0.034
738.41	0.032
738.85	0.030
739.29	0.032
739.73	0.030
740.17	0.030
740.61	0.035
741.05	0.034
741.49	0.031
741.93	0.032
742.37	0.029
742.81	0.031
743.26	0.032
743.70	0.031
744.14	0.033
744.58	0.033
745.02	0.033
745.46	0.031
745.90	0.032
746.34	0.032
746.78	0.033
747.22	0.033
747.66	0.030
748.10	0.032
748.54	0.031
748.98	0.030
749.42	0.032
749.86	0.033
750.29	0.033
750.73	0.031
751.17	0.032
751.61	0.032
752.05	0.033
752.49	0.030
752.93	0.033
753.37	0.033
753.81	0.031
754.25	0.030
754.69	0.031
755.13	0.032
755.57	0.032
756.01	0.032
756.45	0.030
756.89	0.029
757.33	0.035
757.77	0.033
758.21	0.033
758.64	0.032
759.08	0.034
759.52	0.032
759.96	0.033
760.40	0.031
760.84	0.032
761.28	0.033
761.72	0.031
762.16	0.031
762.60	0.030
763.03	0.032
763.47	0.029
763.91	0.028
764.35	0.028
764.79	0.034
765.23	0.030
765.67	0.029
766.11	0.030
766.54	0.030
766.98	0.031
767.42	0.031
767.86	0.032
768.30	0.032
768.74	0.030
769.17	0.032
769.61	0.032
770.05	0.029
770.49	0.030
770.93	0.031
771.37	0.030
771.80	0.033
772.24	0.033
772.68	0.030
773.12	0.028
773.56	0.032
774.00	0.031
774.43	0.032
774.87	0.032
775.31	0.031
775.75	0.031
776.19	0.029
776.62	0.034
777.06	0.027
777.50	0.032
777.94	0.030
778.37	0.031
778.81	0.031
779.25	0.031
779.69	0.030
780.13	0.030
780.56	0.030
781.00	0.034
781.44	0.033
781.88	0.031
782.31	0.032
782.75	0.032
783.19	0.032
783.63	0.033
784.06	0.028
784.50	0.033
784.94	0.032
785.37	0.031
785.81	0.030
786.25	0.027
786.69	0.031
787.12	0.032
787.56	0.031
788.00	0.030
788.43	0.032
788.87	0.028
789.31	0.028
789.75	0.033
790.18	0.030
790.62	0.034
791.06	0.031
791.49	0.034
791.93	0.031
792.37	0.028
792.80	0.030
793.24	0.032
793.68	0.032
794.11	0.031
794.55	0.031
794.99	0.032
795.42	0.032
795.86	0.033
796.30	0.031
796.73	0.030
797.17	0.031
797.61	0.024
798.04	0.028
798.48	0.028
798.91	0.029
799.35	0.028
799.79	0.031
800.22	0.029
800.66	0.027
801.10	0.030
801.53	0.029
801.97	0.029
802.40	0.031
802.84	0.034
803.28	0.030
803.71	0.028
804.15	0.030
804.58	0.027
805.02	0.027
805.46	0.029
805.89	0.029
806.33	0.031
806.76	0.028
807.20	0.030
807.63	0.033
808.07	0.030
808.51	0.026
808.94	0.027
809.38	0.029
809.81	0.028
810.25	0.032
810.68	0.032
811.12	0.029
811.55	0.030
811.99	0.032
812.42	0.033
812.86	0.028
813.29	0.028
813.73	0.032
814.17	0.028
814.60	0.027
815.04	0.031
815.47	0.030
815.91	0.030
816.34	0.032
816.78	0.030
817.21	0.025
817.65	0.028
818.08	0.033
