SpectraSuite Data File
++++++++++++++++++++++++++++++++++++
Date: Tue Jul 11 16:27:32 CEST 2017
User: IPCE
Dark Spectrum Present: Yes
Reference Spectrum Present: Yes
Number of Sampled Component Spectra: 1
Spectrometers: HR+C0708
Integration Time (usec): 1000 (HR+C0708)
Spectra Averaged: 10 (HR+C0708)
Boxcar Smoothing: 0 (HR+C0708)
Correct for Electrical Dark: No (HR+C0708)
Strobe/Lamp Enabled: No (HR+C0708)
Correct for Detector Non-linearity: No (HR+C0708)
Correct for Stray Light: No (HR+C0708)
Number of Pixels in Processed Spectrum: 2048
>>>>>Begin Processed Spectral Data<<<<<
188.76	0.314
189.23	-0.152
189.70	0.148
190.17	0.014
190.64	0.748
191.12	0.265
191.59	0.056
192.06	0.590
192.53	0.164
193.01	-0.000
193.48	-0.561
193.95	0.206
194.42	0.324
194.90	0.259
195.37	0.028
195.84	0.056
196.31	0.845
196.78	0.206
197.26	0.274
197.73	0.457
198.20	0.170
198.67	-0.051
199.14	0.101
199.62	0.287
200.09	0.203
200.56	0.325
201.03	0.115
201.50	0.269
201.97	0.259
202.45	0.438
202.92	0.230
203.39	0.241
203.86	0.197
204.33	0.285
204.80	0.275
205.28	0.258
205.75	0.405
206.22	0.282
206.69	0.267
207.16	0.162
207.63	0.288
208.11	0.287
208.58	0.224
209.05	0.343
209.52	0.453
209.99	0.482
210.46	0.264
210.93	0.245
211.41	0.252
211.88	0.236
212.35	0.307
212.82	0.230
213.29	0.221
213.76	0.298
214.23	0.220
214.70	0.159
215.18	0.256
215.65	0.216
216.12	0.311
216.59	0.269
217.06	0.432
217.53	0.247
218.00	0.288
218.47	0.440
218.94	0.390
219.41	0.335
219.89	0.365
220.36	0.314
220.83	0.295
221.30	0.358
221.77	0.317
222.24	0.349
222.71	0.534
223.18	0.393
223.65	0.371
224.12	0.406
224.59	0.462
225.06	0.454
225.54	0.441
226.01	0.520
226.48	0.733
226.95	0.643
227.42	0.716
227.89	0.778
228.36	0.785
228.83	0.843
229.30	0.799
229.77	0.862
230.24	1.019
230.71	1.062
231.18	1.020
231.65	1.266
232.12	1.346
232.59	1.293
233.06	1.276
233.53	1.425
234.00	1.366
234.47	1.379
234.94	1.521
235.41	1.516
235.88	1.664
236.35	1.588
236.82	1.656
237.29	1.683
237.76	1.770
238.23	1.779
238.70	1.836
239.17	1.835
239.64	1.851
240.11	1.918
240.58	1.942
241.05	1.937
241.52	1.860
241.99	2.067
242.46	1.908
242.93	2.016
243.40	2.095
243.87	2.105
244.34	2.130
244.81	2.093
245.28	2.020
245.75	2.217
246.22	2.102
246.69	2.058
247.16	2.248
247.63	2.139
248.10	2.218
248.57	2.144
249.04	2.159
249.51	2.255
249.98	2.215
250.45	2.287
250.92	2.126
251.39	2.023
251.85	1.947
252.32	1.904
252.79	1.759
253.26	1.730
253.73	1.628
254.20	1.507
254.67	1.436
255.14	1.381
255.61	1.318
256.08	1.273
256.55	1.206
257.02	1.161
257.49	1.122
257.95	1.084
258.42	1.035
258.89	1.002
259.36	0.976
259.83	0.949
260.30	0.921
260.77	0.904
261.24	0.880
261.71	0.862
262.17	0.837
262.64	0.820
263.11	0.800
263.58	0.788
264.05	0.770
264.52	0.755
264.99	0.742
265.46	0.728
265.92	0.713
266.39	0.701
266.86	0.688
267.33	0.678
267.80	0.670
268.27	0.654
268.74	0.644
269.20	0.638
269.67	0.628
270.14	0.615
270.61	0.608
271.08	0.600
271.55	0.590
272.01	0.585
272.48	0.574
272.95	0.570
273.42	0.565
273.89	0.556
274.36	0.547
274.82	0.541
275.29	0.538
275.76	0.531
276.23	0.528
276.70	0.521
277.16	0.520
277.63	0.516
278.10	0.506
278.57	0.507
279.04	0.500
279.50	0.500
279.97	0.496
280.44	0.492
280.91	0.488
281.38	0.488
281.84	0.485
282.31	0.486
282.78	0.483
283.25	0.477
283.72	0.479
284.18	0.476
284.65	0.474
285.12	0.473
285.59	0.471
286.05	0.473
286.52	0.475
286.99	0.468
287.46	0.472
287.92	0.468
288.39	0.467
288.86	0.469
289.33	0.469
289.79	0.464
290.26	0.460
290.73	0.463
291.20	0.456
291.66	0.458
292.13	0.451
292.60	0.451
293.07	0.446
293.53	0.441
294.00	0.435
294.47	0.430
294.93	0.424
295.40	0.416
295.87	0.412
296.34	0.408
296.80	0.400
297.27	0.391
297.74	0.387
298.20	0.382
298.67	0.375
299.14	0.367
299.60	0.362
300.07	0.353
300.54	0.348
301.01	0.339
301.47	0.333
301.94	0.326
302.41	0.318
302.87	0.313
303.34	0.308
303.81	0.301
304.27	0.293
304.74	0.289
305.21	0.285
305.67	0.277
306.14	0.272
306.61	0.271
307.07	0.265
307.54	0.259
308.01	0.257
308.47	0.252
308.94	0.247
309.40	0.243
309.87	0.240
310.34	0.237
310.80	0.233
311.27	0.228
311.74	0.227
312.20	0.225
312.67	0.224
313.13	0.224
313.60	0.220
314.07	0.216
314.53	0.213
315.00	0.215
315.47	0.215
315.93	0.211
316.40	0.211
316.86	0.208
317.33	0.208
317.80	0.202
318.26	0.202
318.73	0.202
319.19	0.200
319.66	0.201
320.13	0.197
320.59	0.196
321.06	0.197
321.52	0.194
321.99	0.193
322.45	0.191
322.92	0.190
323.39	0.188
323.85	0.189
324.32	0.187
324.78	0.183
325.25	0.180
325.71	0.183
326.18	0.180
326.64	0.178
327.11	0.179
327.58	0.175
328.04	0.176
328.51	0.175
328.97	0.175
329.44	0.175
329.90	0.171
330.37	0.170
330.83	0.168
331.30	0.166
331.76	0.165
332.23	0.163
332.69	0.162
333.16	0.161
333.62	0.160
334.09	0.157
334.56	0.155
335.02	0.154
335.49	0.154
335.95	0.153
336.42	0.149
336.88	0.146
337.35	0.145
337.81	0.146
338.28	0.142
338.74	0.145
339.20	0.142
339.67	0.142
340.13	0.139
340.60	0.142
341.06	0.136
341.53	0.136
341.99	0.136
342.46	0.134
342.92	0.133
343.39	0.134
343.85	0.129
344.32	0.130
344.78	0.129
345.25	0.129
345.71	0.131
346.17	0.127
346.64	0.130
347.10	0.129
347.57	0.126
348.03	0.124
348.50	0.123
348.96	0.118
349.43	0.124
349.89	0.121
350.35	0.122
350.82	0.120
351.28	0.122
351.75	0.121
352.21	0.123
352.67	0.122
353.14	0.118
353.60	0.113
354.07	0.111
354.53	0.115
355.00	0.114
355.46	0.111
355.92	0.109
356.39	0.109
356.85	0.108
357.31	0.107
357.78	0.111
358.24	0.104
358.71	0.104
359.17	0.103
359.63	0.100
360.10	0.101
360.56	0.099
361.03	0.095
361.49	0.098
361.95	0.097
362.42	0.091
362.88	0.092
363.34	0.090
363.81	0.091
364.27	0.090
364.73	0.090
365.20	0.085
365.66	0.085
366.12	0.083
366.59	0.084
367.05	0.083
367.51	0.081
367.98	0.079
368.44	0.079
368.90	0.080
369.37	0.078
369.83	0.076
370.29	0.078
370.76	0.080
371.22	0.077
371.68	0.077
372.15	0.077
372.61	0.077
373.07	0.076
373.54	0.076
374.00	0.076
374.46	0.078
374.92	0.073
375.39	0.073
375.85	0.074
376.31	0.072
376.78	0.074
377.24	0.073
377.70	0.074
378.16	0.073
378.63	0.072
379.09	0.073
379.55	0.073
380.01	0.073
380.48	0.073
380.94	0.073
381.40	0.070
381.87	0.069
382.33	0.072
382.79	0.072
383.25	0.070
383.72	0.073
384.18	0.070
384.64	0.069
385.10	0.070
385.56	0.069
386.03	0.069
386.49	0.067
386.95	0.067
387.41	0.069
387.88	0.069
388.34	0.067
388.80	0.067
389.26	0.068
389.72	0.068
390.19	0.069
390.65	0.069
391.11	0.067
391.57	0.069
392.04	0.068
392.50	0.065
392.96	0.065
393.42	0.066
393.88	0.069
394.34	0.068
394.81	0.066
395.27	0.063
395.73	0.063
396.19	0.068
396.65	0.067
397.12	0.065
397.58	0.065
398.04	0.064
398.50	0.064
398.96	0.064
399.42	0.062
399.89	0.063
400.35	0.063
400.81	0.065
401.27	0.068
401.73	0.060
402.19	0.062
402.65	0.063
403.12	0.061
403.58	0.062
404.04	0.061
404.50	0.063
404.96	0.061
405.42	0.059
405.88	0.059
406.34	0.060
406.81	0.062
407.27	0.061
407.73	0.059
408.19	0.057
408.65	0.060
409.11	0.062
409.57	0.059
410.03	0.059
410.49	0.058
410.96	0.055
411.42	0.058
411.88	0.059
412.34	0.057
412.80	0.057
413.26	0.058
413.72	0.057
414.18	0.061
414.64	0.054
415.10	0.056
415.56	0.055
416.02	0.055
416.48	0.053
416.95	0.054
417.41	0.058
417.87	0.057
418.33	0.055
418.79	0.055
419.25	0.057
419.71	0.056
420.17	0.054
420.63	0.053
421.09	0.056
421.55	0.055
422.01	0.053
422.47	0.057
422.93	0.055
423.39	0.054
423.85	0.057
424.31	0.054
424.77	0.054
425.23	0.054
425.69	0.055
426.15	0.055
426.61	0.056
427.07	0.054
427.53	0.053
427.99	0.054
428.45	0.052
428.91	0.051
429.37	0.055
429.83	0.053
430.29	0.052
430.75	0.052
431.21	0.052
431.67	0.056
432.13	0.050
432.59	0.051
433.05	0.053
433.51	0.053
433.97	0.055
434.43	0.052
434.89	0.052
435.35	0.052
435.81	0.052
436.27	0.051
436.73	0.051
437.19	0.052
437.65	0.050
438.11	0.053
438.57	0.055
439.03	0.049
439.48	0.052
439.94	0.050
440.40	0.051
440.86	0.051
441.32	0.049
441.78	0.049
442.24	0.050
442.70	0.048
443.16	0.051
443.62	0.050
444.08	0.050
444.54	0.052
444.99	0.053
445.45	0.051
445.91	0.050
446.37	0.049
446.83	0.046
447.29	0.051
447.75	0.048
448.21	0.049
448.67	0.049
449.12	0.049
449.58	0.047
450.04	0.049
450.50	0.047
450.96	0.046
451.42	0.049
451.88	0.053
452.34	0.049
452.79	0.049
453.25	0.048
453.71	0.049
454.17	0.050
454.63	0.052
455.09	0.049
455.55	0.049
456.00	0.046
456.46	0.047
456.92	0.051
457.38	0.054
457.84	0.049
458.30	0.050
458.75	0.046
459.21	0.050
459.67	0.049
460.13	0.050
460.59	0.050
461.04	0.047
461.50	0.050
461.96	0.049
462.42	0.049
462.88	0.049
463.33	0.048
463.79	0.051
464.25	0.048
464.71	0.050
465.17	0.050
465.62	0.048
466.08	0.048
466.54	0.049
467.00	0.048
467.46	0.050
467.91	0.049
468.37	0.051
468.83	0.051
469.29	0.050
469.74	0.051
470.20	0.049
470.66	0.049
471.12	0.050
471.57	0.050
472.03	0.050
472.49	0.049
472.95	0.049
473.40	0.047
473.86	0.048
474.32	0.050
474.78	0.049
475.23	0.047
475.69	0.050
476.15	0.052
476.60	0.050
477.06	0.049
477.52	0.049
477.98	0.049
478.43	0.050
478.89	0.052
479.35	0.048
479.80	0.051
480.26	0.048
480.72	0.051
481.18	0.052
481.63	0.051
482.09	0.051
482.55	0.049
483.00	0.047
483.46	0.048
483.92	0.050
484.37	0.052
484.83	0.051
485.29	0.052
485.74	0.051
486.20	0.050
486.66	0.050
487.11	0.051
487.57	0.051
488.03	0.052
488.48	0.048
488.94	0.051
489.40	0.051
489.85	0.049
490.31	0.049
490.77	0.051
491.22	0.047
491.68	0.050
492.13	0.051
492.59	0.053
493.05	0.051
493.50	0.049
493.96	0.049
494.42	0.050
494.87	0.050
495.33	0.049
495.78	0.051
496.24	0.050
496.70	0.052
497.15	0.051
497.61	0.049
498.06	0.052
498.52	0.049
498.98	0.052
499.43	0.049
499.89	0.049
500.34	0.050
500.80	0.050
501.25	0.050
501.71	0.049
502.17	0.050
502.62	0.049
503.08	0.049
503.53	0.050
503.99	0.051
504.44	0.050
504.90	0.048
505.36	0.049
505.81	0.047
506.27	0.049
506.72	0.049
507.18	0.049
507.63	0.049
508.09	0.049
508.54	0.049
509.00	0.050
509.45	0.051
509.91	0.051
510.36	0.050
510.82	0.051
511.27	0.049
511.73	0.050
512.19	0.047
512.64	0.051
513.10	0.050
513.55	0.048
514.01	0.048
514.46	0.047
514.92	0.049
515.37	0.048
515.83	0.046
516.28	0.048
516.73	0.048
517.19	0.049
517.64	0.048
518.10	0.049
518.55	0.051
519.01	0.047
519.46	0.048
519.92	0.047
520.37	0.050
520.83	0.050
521.28	0.049
521.74	0.048
522.19	0.049
522.65	0.049
523.10	0.047
523.55	0.046
524.01	0.050
524.46	0.047
524.92	0.050
525.37	0.048
525.83	0.050
526.28	0.047
526.73	0.049
527.19	0.053
527.64	0.053
528.10	0.050
528.55	0.050
529.01	0.049
529.46	0.052
529.91	0.047
530.37	0.049
530.82	0.050
531.28	0.052
531.73	0.049
532.18	0.049
532.64	0.049
533.09	0.050
533.54	0.049
534.00	0.050
534.45	0.052
534.91	0.050
535.36	0.051
535.81	0.050
536.27	0.052
536.72	0.050
537.17	0.052
537.63	0.053
538.08	0.052
538.54	0.051
538.99	0.051
539.44	0.054
539.90	0.053
540.35	0.053
540.80	0.051
541.26	0.053
541.71	0.053
542.16	0.053
542.62	0.054
543.07	0.053
543.52	0.053
543.98	0.055
544.43	0.055
544.88	0.054
545.34	0.057
545.79	0.056
546.24	0.056
546.69	0.055
547.15	0.054
547.60	0.060
548.05	0.056
548.51	0.057
548.96	0.057
549.41	0.059
549.86	0.059
550.32	0.059
550.77	0.059
551.22	0.061
551.68	0.059
552.13	0.059
552.58	0.061
553.03	0.060
553.49	0.062
553.94	0.061
554.39	0.061
554.84	0.063
555.30	0.063
555.75	0.064
556.20	0.066
556.65	0.064
557.11	0.066
557.56	0.065
558.01	0.066
558.46	0.067
558.92	0.066
559.37	0.069
559.82	0.069
560.27	0.070
560.72	0.069
561.18	0.069
561.63	0.070
562.08	0.070
562.53	0.070
562.99	0.070
563.44	0.070
563.89	0.072
564.34	0.073
564.79	0.072
565.25	0.074
565.70	0.073
566.15	0.075
566.60	0.076
567.05	0.078
567.50	0.079
567.96	0.080
568.41	0.079
568.86	0.078
569.31	0.080
569.76	0.081
570.21	0.079
570.67	0.081
571.12	0.081
571.57	0.082
572.02	0.084
572.47	0.085
572.92	0.085
573.37	0.084
573.83	0.087
574.28	0.086
574.73	0.088
575.18	0.088
575.63	0.091
576.08	0.089
576.53	0.090
576.98	0.091
577.44	0.093
577.89	0.091
578.34	0.093
578.79	0.097
579.24	0.095
579.69	0.097
580.14	0.100
580.59	0.098
581.04	0.098
581.49	0.102
581.95	0.102
582.40	0.102
582.85	0.103
583.30	0.106
583.75	0.106
584.20	0.108
584.65	0.106
585.10	0.110
585.55	0.110
586.00	0.112
586.45	0.113
586.90	0.115
587.35	0.115
587.80	0.117
588.25	0.118
588.71	0.119
589.16	0.120
589.61	0.122
590.06	0.125
590.51	0.126
590.96	0.125
591.41	0.130
591.86	0.131
592.31	0.132
592.76	0.132
593.21	0.134
593.66	0.134
594.11	0.137
594.56	0.139
595.01	0.142
595.46	0.141
595.91	0.141
596.36	0.144
596.81	0.149
597.26	0.150
597.71	0.149
598.16	0.151
598.61	0.154
599.06	0.154
599.51	0.156
599.96	0.157
600.41	0.159
600.86	0.163
601.31	0.162
601.76	0.162
602.21	0.165
602.65	0.167
603.10	0.167
603.55	0.169
604.00	0.173
604.45	0.171
604.90	0.173
605.35	0.176
605.80	0.176
606.25	0.176
606.70	0.179
607.15	0.181
607.60	0.182
608.05	0.182
608.50	0.185
608.95	0.185
609.39	0.187
609.84	0.189
610.29	0.186
610.74	0.191
611.19	0.190
611.64	0.191
612.09	0.193
612.54	0.194
612.99	0.196
613.44	0.193
613.88	0.196
614.33	0.196
614.78	0.196
615.23	0.196
615.68	0.199
616.13	0.197
616.58	0.198
617.03	0.199
617.47	0.201
617.92	0.203
618.37	0.202
618.82	0.200
619.27	0.202
619.72	0.203
620.17	0.204
620.61	0.204
621.06	0.207
621.51	0.206
621.96	0.205
622.41	0.208
622.86	0.207
623.30	0.209
623.75	0.208
624.20	0.211
624.65	0.213
625.10	0.211
625.54	0.212
625.99	0.214
626.44	0.212
626.89	0.213
627.34	0.217
627.78	0.217
628.23	0.219
628.68	0.217
629.13	0.220
629.58	0.219
630.02	0.222
630.47	0.223
630.92	0.226
631.37	0.226
631.81	0.227
632.26	0.228
632.71	0.231
633.16	0.234
633.61	0.232
634.05	0.234
634.50	0.237
634.95	0.236
635.40	0.239
635.84	0.243
636.29	0.245
636.74	0.244
637.18	0.246
637.63	0.250
638.08	0.249
638.53	0.252
638.97	0.255
639.42	0.258
639.87	0.258
640.32	0.263
640.76	0.265
641.21	0.266
641.66	0.270
642.10	0.273
642.55	0.273
643.00	0.275
643.44	0.278
643.89	0.279
644.34	0.284
644.79	0.285
645.23	0.288
645.68	0.291
646.13	0.293
646.57	0.294
647.02	0.296
647.47	0.300
647.91	0.301
648.36	0.304
648.81	0.307
649.25	0.311
649.70	0.312
650.15	0.314
650.59	0.316
651.04	0.317
651.48	0.319
651.93	0.323
652.38	0.326
652.82	0.328
653.27	0.329
653.72	0.331
654.16	0.333
654.61	0.335
655.06	0.336
655.50	0.337
655.95	0.336
656.39	0.338
656.84	0.341
657.29	0.342
657.73	0.343
658.18	0.346
658.62	0.346
659.07	0.349
659.52	0.350
659.96	0.350
660.41	0.348
660.85	0.347
661.30	0.351
661.74	0.353
662.19	0.354
662.64	0.352
663.08	0.353
663.53	0.355
663.97	0.355
664.42	0.353
664.86	0.353
665.31	0.352
665.75	0.353
666.20	0.349
666.65	0.350
667.09	0.346
667.54	0.348
667.98	0.345
668.43	0.341
668.87	0.341
669.32	0.339
669.76	0.336
670.21	0.334
670.65	0.329
671.10	0.327
671.54	0.323
671.99	0.318
672.43	0.315
672.88	0.309
673.32	0.306
673.77	0.300
674.21	0.298
674.66	0.292
675.10	0.287
675.55	0.281
675.99	0.274
676.44	0.272
676.88	0.263
677.33	0.258
677.77	0.248
678.22	0.246
678.66	0.239
679.11	0.232
679.55	0.226
679.99	0.222
680.44	0.213
680.88	0.208
681.33	0.201
681.77	0.195
682.22	0.189
682.66	0.182
683.11	0.176
683.55	0.170
683.99	0.164
684.44	0.160
684.88	0.153
685.33	0.148
685.77	0.143
686.21	0.137
686.66	0.132
687.10	0.127
687.55	0.124
687.99	0.122
688.44	0.115
688.88	0.111
689.32	0.109
689.77	0.102
690.21	0.099
690.65	0.096
691.10	0.089
691.54	0.088
691.99	0.086
692.43	0.082
692.87	0.080
693.32	0.075
693.76	0.075
694.20	0.072
694.65	0.070
695.09	0.068
695.53	0.067
695.98	0.064
696.42	0.060
696.86	0.059
697.31	0.058
697.75	0.056
698.19	0.053
698.64	0.053
699.08	0.051
699.52	0.050
699.97	0.050
700.41	0.050
700.85	0.046
701.30	0.045
701.74	0.041
702.18	0.044
702.63	0.041
703.07	0.042
703.51	0.040
703.96	0.038
704.40	0.041
704.84	0.036
705.28	0.038
705.73	0.035
706.17	0.035
706.61	0.036
707.06	0.034
707.50	0.035
707.94	0.034
708.38	0.031
708.83	0.032
709.27	0.029
709.71	0.032
710.15	0.030
710.60	0.032
711.04	0.031
711.48	0.029
711.92	0.030
712.37	0.029
712.81	0.031
713.25	0.028
713.69	0.028
714.13	0.028
714.58	0.029
715.02	0.027
715.46	0.027
715.90	0.028
716.35	0.026
716.79	0.027
717.23	0.027
717.67	0.026
718.11	0.026
718.56	0.025
719.00	0.026
719.44	0.026
719.88	0.029
720.32	0.028
720.76	0.026
721.21	0.029
721.65	0.028
722.09	0.026
722.53	0.028
722.97	0.028
723.41	0.026
723.86	0.025
724.30	0.025
724.74	0.026
725.18	0.029
725.62	0.026
726.06	0.029
726.50	0.027
726.95	0.027
727.39	0.027
727.83	0.027
728.27	0.027
728.71	0.026
729.15	0.026
729.59	0.029
730.03	0.029
730.48	0.027
730.92	0.029
731.36	0.029
731.80	0.027
732.24	0.028
732.68	0.030
733.12	0.029
733.56	0.030
734.00	0.029
734.44	0.030
734.89	0.028
735.33	0.031
735.77	0.029
736.21	0.031
736.65	0.033
737.09	0.029
737.53	0.031
737.97	0.033
738.41	0.030
738.85	0.029
739.29	0.029
739.73	0.030
740.17	0.032
740.61	0.034
741.05	0.032
741.49	0.029
741.93	0.030
742.37	0.031
742.81	0.032
743.26	0.031
743.70	0.029
744.14	0.030
744.58	0.030
745.02	0.032
745.46	0.030
745.90	0.032
746.34	0.030
746.78	0.033
747.22	0.031
747.66	0.030
748.10	0.030
748.54	0.032
748.98	0.030
749.42	0.031
749.86	0.033
750.29	0.034
750.73	0.031
751.17	0.029
751.61	0.031
752.05	0.029
752.49	0.030
752.93	0.031
753.37	0.030
753.81	0.032
754.25	0.031
754.69	0.031
755.13	0.031
755.57	0.030
756.01	0.031
756.45	0.027
756.89	0.031
757.33	0.033
757.77	0.032
758.21	0.031
758.64	0.032
759.08	0.031
759.52	0.032
759.96	0.030
760.40	0.029
760.84	0.027
761.28	0.032
761.72	0.029
762.16	0.029
762.60	0.029
763.03	0.030
763.47	0.029
763.91	0.028
764.35	0.026
764.79	0.032
765.23	0.029
765.67	0.029
766.11	0.029
766.54	0.031
766.98	0.029
767.42	0.029
767.86	0.032
768.30	0.031
768.74	0.028
769.17	0.033
769.61	0.031
770.05	0.030
770.49	0.028
770.93	0.031
771.37	0.030
771.80	0.031
772.24	0.033
772.68	0.029
773.12	0.027
773.56	0.029
774.00	0.029
774.43	0.030
774.87	0.029
775.31	0.032
775.75	0.029
776.19	0.030
776.62	0.031
777.06	0.029
777.50	0.031
777.94	0.029
778.37	0.027
778.81	0.031
779.25	0.030
779.69	0.028
780.13	0.030
780.56	0.031
781.00	0.036
781.44	0.033
781.88	0.030
782.31	0.032
782.75	0.031
783.19	0.030
783.63	0.032
784.06	0.027
784.50	0.030
784.94	0.030
785.37	0.029
785.81	0.028
786.25	0.028
786.69	0.029
787.12	0.032
787.56	0.031
788.00	0.024
788.43	0.029
788.87	0.028
789.31	0.029
789.75	0.030
790.18	0.028
790.62	0.030
791.06	0.028
791.49	0.029
791.93	0.027
792.37	0.028
792.80	0.028
793.24	0.031
793.68	0.029
794.11	0.031
794.55	0.027
794.99	0.033
795.42	0.030
795.86	0.033
796.30	0.030
796.73	0.028
797.17	0.035
797.61	0.027
798.04	0.028
798.48	0.027
798.91	0.028
799.35	0.030
799.79	0.030
800.22	0.024
800.66	0.027
801.10	0.029
801.53	0.029
801.97	0.027
802.40	0.029
802.84	0.030
803.28	0.026
803.71	0.025
804.15	0.029
804.58	0.027
805.02	0.026
805.46	0.028
805.89	0.029
806.33	0.029
806.76	0.026
807.20	0.030
807.63	0.031
808.07	0.028
808.51	0.027
808.94	0.029
809.38	0.028
809.81	0.024
810.25	0.028
810.68	0.029
811.12	0.027
811.55	0.028
811.99	0.029
812.42	0.028
812.86	0.030
813.29	0.028
813.73	0.031
814.17	0.030
814.60	0.028
815.04	0.027
815.47	0.030
815.91	0.029
816.34	0.031
816.78	0.030
817.21	0.026
817.65	0.030
818.08	0.029
