SpectraSuite Data File
++++++++++++++++++++++++++++++++++++
Date: Tue Jul 11 15:57:32 CEST 2017
User: IPCE
Dark Spectrum Present: Yes
Reference Spectrum Present: Yes
Number of Sampled Component Spectra: 1
Spectrometers: HR+C0708
Integration Time (usec): 1000 (HR+C0708)
Spectra Averaged: 10 (HR+C0708)
Boxcar Smoothing: 0 (HR+C0708)
Correct for Electrical Dark: No (HR+C0708)
Strobe/Lamp Enabled: No (HR+C0708)
Correct for Detector Non-linearity: No (HR+C0708)
Correct for Stray Light: No (HR+C0708)
Number of Pixels in Processed Spectrum: 2048
>>>>>Begin Processed Spectral Data<<<<<
188.76	-0.071
189.23	-0.167
189.70	0.677
190.17	1.014
190.64	0.032
191.12	0.696
191.59	0.056
192.06	0.254
192.53	0.139
193.01	0.639
193.48	-0.000
193.95	0.071
194.42	-0.141
194.90	0.240
195.37	0.320
195.84	0.194
196.31	0.490
196.78	0.345
197.26	0.297
197.73	-0.039
198.20	-0.061
198.67	0.180
199.14	-0.092
199.62	0.398
200.09	0.334
200.56	0.434
201.03	0.111
201.50	0.321
201.97	0.437
202.45	0.391
202.92	0.205
203.39	0.437
203.86	0.737
204.33	0.232
204.80	0.270
205.28	0.715
205.75	0.329
206.22	0.185
206.69	0.443
207.16	0.352
207.63	0.273
208.11	0.348
208.58	0.262
209.05	0.349
209.52	0.210
209.99	0.350
210.46	0.299
210.93	0.291
211.41	0.166
211.88	0.245
212.35	0.241
212.82	0.261
213.29	0.174
213.76	0.325
214.23	0.341
214.70	0.296
215.18	0.353
215.65	0.419
216.12	0.350
216.59	0.269
217.06	0.455
217.53	0.311
218.00	0.249
218.47	0.413
218.94	0.283
219.41	0.436
219.89	0.302
220.36	0.459
220.83	0.392
221.30	0.341
221.77	0.426
222.24	0.477
222.71	0.624
223.18	0.376
223.65	0.426
224.12	0.437
224.59	0.447
225.06	0.513
225.54	0.570
226.01	0.632
226.48	0.598
226.95	0.533
227.42	0.825
227.89	0.722
228.36	0.749
228.83	0.809
229.30	0.856
229.77	0.982
230.24	1.100
230.71	1.257
231.18	1.043
231.65	1.194
232.12	1.457
232.59	1.407
233.06	1.497
233.53	1.326
234.00	1.655
234.47	1.582
234.94	1.539
235.41	1.497
235.88	1.714
236.35	1.609
236.82	1.741
237.29	1.742
237.76	1.830
238.23	1.781
238.70	1.773
239.17	2.002
239.64	1.930
240.11	1.898
240.58	1.939
241.05	2.022
241.52	2.003
241.99	1.946
242.46	1.997
242.93	2.152
243.40	2.054
243.87	2.109
244.34	2.207
244.81	2.118
245.28	2.058
245.75	2.223
246.22	2.281
246.69	2.280
247.16	2.117
247.63	2.174
248.10	2.330
248.57	2.086
249.04	2.094
249.51	2.239
249.98	2.130
250.45	2.200
250.92	2.206
251.39	2.118
251.85	2.010
252.32	1.978
252.79	1.845
253.26	1.816
253.73	1.738
254.20	1.624
254.67	1.578
255.14	1.488
255.61	1.424
256.08	1.401
256.55	1.344
257.02	1.295
257.49	1.250
257.95	1.206
258.42	1.172
258.89	1.141
259.36	1.112
259.83	1.079
260.30	1.059
260.77	1.030
261.24	1.005
261.71	1.001
262.17	0.967
262.64	0.949
263.11	0.931
263.58	0.920
264.05	0.896
264.52	0.884
264.99	0.866
265.46	0.854
265.92	0.838
266.39	0.831
266.86	0.813
267.33	0.799
267.80	0.796
268.27	0.778
268.74	0.772
269.20	0.761
269.67	0.751
270.14	0.742
270.61	0.733
271.08	0.723
271.55	0.719
272.01	0.708
272.48	0.698
272.95	0.696
273.42	0.684
273.89	0.677
274.36	0.676
274.82	0.670
275.29	0.664
275.76	0.655
276.23	0.654
276.70	0.646
277.16	0.645
277.63	0.640
278.10	0.634
278.57	0.633
279.04	0.633
279.50	0.628
279.97	0.626
280.44	0.624
280.91	0.622
281.38	0.615
281.84	0.612
282.31	0.614
282.78	0.617
283.25	0.613
283.72	0.613
284.18	0.609
284.65	0.605
285.12	0.607
285.59	0.607
286.05	0.609
286.52	0.607
286.99	0.606
287.46	0.611
287.92	0.603
288.39	0.608
288.86	0.604
289.33	0.607
289.79	0.602
290.26	0.602
290.73	0.602
291.20	0.597
291.66	0.600
292.13	0.593
292.60	0.591
293.07	0.585
293.53	0.581
294.00	0.578
294.47	0.564
294.93	0.563
295.40	0.554
295.87	0.552
296.34	0.542
296.80	0.538
297.27	0.530
297.74	0.520
298.20	0.509
298.67	0.504
299.14	0.499
299.60	0.485
300.07	0.481
300.54	0.474
301.01	0.465
301.47	0.456
301.94	0.449
302.41	0.440
302.87	0.432
303.34	0.425
303.81	0.421
304.27	0.412
304.74	0.404
305.21	0.401
305.67	0.395
306.14	0.384
306.61	0.378
307.07	0.378
307.54	0.369
308.01	0.360
308.47	0.357
308.94	0.354
309.40	0.348
309.87	0.347
310.34	0.342
310.80	0.342
311.27	0.335
311.74	0.332
312.20	0.329
312.67	0.328
313.13	0.324
313.60	0.323
314.07	0.320
314.53	0.314
315.00	0.315
315.47	0.313
315.93	0.308
316.40	0.311
316.86	0.308
317.33	0.304
317.80	0.302
318.26	0.300
318.73	0.298
319.19	0.297
319.66	0.295
320.13	0.293
320.59	0.290
321.06	0.290
321.52	0.286
321.99	0.287
322.45	0.285
322.92	0.283
323.39	0.277
323.85	0.280
324.32	0.280
324.78	0.275
325.25	0.274
325.71	0.274
326.18	0.270
326.64	0.268
327.11	0.268
327.58	0.270
328.04	0.265
328.51	0.262
328.97	0.263
329.44	0.260
329.90	0.255
330.37	0.255
330.83	0.258
331.30	0.251
331.76	0.245
332.23	0.247
332.69	0.245
333.16	0.245
333.62	0.242
334.09	0.238
334.56	0.239
335.02	0.235
335.49	0.233
335.95	0.232
336.42	0.229
336.88	0.224
337.35	0.222
337.81	0.225
338.28	0.222
338.74	0.222
339.20	0.220
339.67	0.221
340.13	0.218
340.60	0.216
341.06	0.213
341.53	0.210
341.99	0.212
342.46	0.211
342.92	0.211
343.39	0.210
343.85	0.207
344.32	0.204
344.78	0.208
345.25	0.204
345.71	0.207
346.17	0.203
346.64	0.202
347.10	0.203
347.57	0.204
348.03	0.201
348.50	0.194
348.96	0.191
349.43	0.196
349.89	0.192
350.35	0.191
350.82	0.191
351.28	0.188
351.75	0.187
352.21	0.186
352.67	0.181
353.14	0.180
353.60	0.174
354.07	0.176
354.53	0.173
355.00	0.176
355.46	0.168
355.92	0.167
356.39	0.167
356.85	0.157
357.31	0.160
357.78	0.158
358.24	0.152
358.71	0.151
359.17	0.143
359.63	0.141
360.10	0.138
360.56	0.133
361.03	0.127
361.49	0.127
361.95	0.117
362.42	0.115
362.88	0.111
363.34	0.105
363.81	0.102
364.27	0.100
364.73	0.094
365.20	0.091
365.66	0.089
366.12	0.084
366.59	0.083
367.05	0.082
367.51	0.078
367.98	0.076
368.44	0.078
368.90	0.075
369.37	0.076
369.83	0.072
370.29	0.071
370.76	0.074
371.22	0.071
371.68	0.068
372.15	0.069
372.61	0.069
373.07	0.069
373.54	0.070
374.00	0.066
374.46	0.068
374.92	0.064
375.39	0.065
375.85	0.065
376.31	0.065
376.78	0.065
377.24	0.064
377.70	0.066
378.16	0.065
378.63	0.061
379.09	0.062
379.55	0.064
380.01	0.063
380.48	0.063
380.94	0.065
381.40	0.062
381.87	0.061
382.33	0.062
382.79	0.062
383.25	0.061
383.72	0.060
384.18	0.061
384.64	0.061
385.10	0.060
385.56	0.059
386.03	0.060
386.49	0.060
386.95	0.058
387.41	0.057
387.88	0.061
388.34	0.061
388.80	0.057
389.26	0.058
389.72	0.058
390.19	0.061
390.65	0.060
391.11	0.060
391.57	0.059
392.04	0.058
392.50	0.057
392.96	0.057
393.42	0.058
393.88	0.060
394.34	0.059
394.81	0.057
395.27	0.054
395.73	0.052
396.19	0.057
396.65	0.057
397.12	0.056
397.58	0.055
398.04	0.057
398.50	0.055
398.96	0.056
399.42	0.054
399.89	0.055
400.35	0.054
400.81	0.053
401.27	0.057
401.73	0.053
402.19	0.054
402.65	0.052
403.12	0.053
403.58	0.052
404.04	0.051
404.50	0.054
404.96	0.054
405.42	0.051
405.88	0.051
406.34	0.053
406.81	0.052
407.27	0.050
407.73	0.050
408.19	0.049
408.65	0.049
409.11	0.050
409.57	0.051
410.03	0.053
410.49	0.046
410.96	0.046
411.42	0.049
411.88	0.048
412.34	0.047
412.80	0.049
413.26	0.048
413.72	0.047
414.18	0.049
414.64	0.046
415.10	0.046
415.56	0.045
416.02	0.044
416.48	0.044
416.95	0.046
417.41	0.046
417.87	0.042
418.33	0.044
418.79	0.047
419.25	0.046
419.71	0.044
420.17	0.044
420.63	0.045
421.09	0.046
421.55	0.045
422.01	0.042
422.47	0.045
422.93	0.046
423.39	0.045
423.85	0.046
424.31	0.043
424.77	0.044
425.23	0.046
425.69	0.044
426.15	0.046
426.61	0.045
427.07	0.043
427.53	0.046
427.99	0.045
428.45	0.045
428.91	0.043
429.37	0.043
429.83	0.043
430.29	0.045
430.75	0.043
431.21	0.043
431.67	0.045
432.13	0.042
432.59	0.043
433.05	0.042
433.51	0.045
433.97	0.043
434.43	0.043
434.89	0.043
435.35	0.045
435.81	0.041
436.27	0.040
436.73	0.040
437.19	0.042
437.65	0.040
438.11	0.045
438.57	0.044
439.03	0.040
439.48	0.042
439.94	0.040
440.40	0.041
440.86	0.044
441.32	0.038
441.78	0.044
442.24	0.038
442.70	0.041
443.16	0.042
443.62	0.041
444.08	0.040
444.54	0.043
444.99	0.042
445.45	0.040
445.91	0.040
446.37	0.042
446.83	0.042
447.29	0.039
447.75	0.041
448.21	0.041
448.67	0.042
449.12	0.039
449.58	0.039
450.04	0.041
450.50	0.038
450.96	0.039
451.42	0.039
451.88	0.043
452.34	0.040
452.79	0.040
453.25	0.042
453.71	0.039
454.17	0.042
454.63	0.042
455.09	0.040
455.55	0.039
456.00	0.038
456.46	0.040
456.92	0.040
457.38	0.042
457.84	0.039
458.30	0.042
458.75	0.041
459.21	0.042
459.67	0.041
460.13	0.043
460.59	0.042
461.04	0.040
461.50	0.040
461.96	0.040
462.42	0.044
462.88	0.038
463.33	0.041
463.79	0.042
464.25	0.038
464.71	0.042
465.17	0.042
465.62	0.041
466.08	0.042
466.54	0.041
467.00	0.043
467.46	0.041
467.91	0.042
468.37	0.041
468.83	0.042
469.29	0.041
469.74	0.042
470.20	0.043
470.66	0.042
471.12	0.044
471.57	0.043
472.03	0.043
472.49	0.043
472.95	0.041
473.40	0.042
473.86	0.041
474.32	0.042
474.78	0.040
475.23	0.043
475.69	0.041
476.15	0.045
476.60	0.041
477.06	0.041
477.52	0.041
477.98	0.043
478.43	0.042
478.89	0.045
479.35	0.043
479.80	0.042
480.26	0.040
480.72	0.042
481.18	0.042
481.63	0.044
482.09	0.044
482.55	0.043
483.00	0.042
483.46	0.044
483.92	0.043
484.37	0.045
484.83	0.043
485.29	0.044
485.74	0.046
486.20	0.043
486.66	0.042
487.11	0.045
487.57	0.045
488.03	0.045
488.48	0.043
488.94	0.045
489.40	0.045
489.85	0.043
490.31	0.042
490.77	0.046
491.22	0.041
491.68	0.044
492.13	0.044
492.59	0.046
493.05	0.043
493.50	0.043
493.96	0.043
494.42	0.044
494.87	0.044
495.33	0.044
495.78	0.043
496.24	0.044
496.70	0.046
497.15	0.045
497.61	0.044
498.06	0.046
498.52	0.043
498.98	0.045
499.43	0.044
499.89	0.044
500.34	0.043
500.80	0.046
501.25	0.045
501.71	0.044
502.17	0.044
502.62	0.044
503.08	0.043
503.53	0.044
503.99	0.044
504.44	0.044
504.90	0.042
505.36	0.042
505.81	0.043
506.27	0.044
506.72	0.043
507.18	0.044
507.63	0.042
508.09	0.044
508.54	0.042
509.00	0.044
509.45	0.044
509.91	0.044
510.36	0.044
510.82	0.044
511.27	0.041
511.73	0.042
512.19	0.040
512.64	0.046
513.10	0.043
513.55	0.041
514.01	0.042
514.46	0.041
514.92	0.043
515.37	0.041
515.83	0.042
516.28	0.044
516.73	0.042
517.19	0.041
517.64	0.042
518.10	0.044
518.55	0.043
519.01	0.041
519.46	0.041
519.92	0.043
520.37	0.045
520.83	0.043
521.28	0.044
521.74	0.043
522.19	0.042
522.65	0.042
523.10	0.042
523.55	0.042
524.01	0.043
524.46	0.046
524.92	0.044
525.37	0.043
525.83	0.044
526.28	0.044
526.73	0.045
527.19	0.046
527.64	0.045
528.10	0.044
528.55	0.044
529.01	0.043
529.46	0.045
529.91	0.045
530.37	0.046
530.82	0.045
531.28	0.045
531.73	0.043
532.18	0.046
532.64	0.044
533.09	0.045
533.54	0.045
534.00	0.046
534.45	0.048
534.91	0.044
535.36	0.047
535.81	0.044
536.27	0.049
536.72	0.045
537.17	0.048
537.63	0.046
538.08	0.049
538.54	0.048
538.99	0.049
539.44	0.050
539.90	0.049
540.35	0.048
540.80	0.049
541.26	0.050
541.71	0.049
542.16	0.049
542.62	0.051
543.07	0.050
543.52	0.050
543.98	0.052
544.43	0.052
544.88	0.051
545.34	0.053
545.79	0.056
546.24	0.053
546.69	0.052
547.15	0.051
547.60	0.056
548.05	0.055
548.51	0.053
548.96	0.056
549.41	0.058
549.86	0.059
550.32	0.056
550.77	0.057
551.22	0.059
551.68	0.058
552.13	0.058
552.58	0.060
553.03	0.058
553.49	0.061
553.94	0.061
554.39	0.062
554.84	0.063
555.30	0.062
555.75	0.061
556.20	0.063
556.65	0.064
557.11	0.066
557.56	0.066
558.01	0.065
558.46	0.067
558.92	0.068
559.37	0.068
559.82	0.069
560.27	0.069
560.72	0.069
561.18	0.069
561.63	0.071
562.08	0.073
562.53	0.070
562.99	0.073
563.44	0.073
563.89	0.075
564.34	0.074
564.79	0.075
565.25	0.077
565.70	0.075
566.15	0.077
566.60	0.078
567.05	0.079
567.50	0.080
567.96	0.082
568.41	0.083
568.86	0.080
569.31	0.084
569.76	0.085
570.21	0.084
570.67	0.081
571.12	0.085
571.57	0.088
572.02	0.088
572.47	0.087
572.92	0.089
573.37	0.089
573.83	0.092
574.28	0.093
574.73	0.093
575.18	0.094
575.63	0.095
576.08	0.094
576.53	0.096
576.98	0.098
577.44	0.097
577.89	0.098
578.34	0.099
578.79	0.102
579.24	0.102
579.69	0.105
580.14	0.107
580.59	0.104
581.04	0.106
581.49	0.108
581.95	0.110
582.40	0.110
582.85	0.110
583.30	0.113
583.75	0.114
584.20	0.115
584.65	0.116
585.10	0.118
585.55	0.121
586.00	0.122
586.45	0.124
586.90	0.125
587.35	0.126
587.80	0.130
588.25	0.129
588.71	0.130
589.16	0.131
589.61	0.138
590.06	0.136
590.51	0.138
590.96	0.140
591.41	0.142
591.86	0.145
592.31	0.148
592.76	0.149
593.21	0.151
593.66	0.151
594.11	0.155
594.56	0.155
595.01	0.157
595.46	0.158
595.91	0.159
596.36	0.165
596.81	0.164
597.26	0.166
597.71	0.171
598.16	0.171
598.61	0.174
599.06	0.175
599.51	0.176
599.96	0.178
600.41	0.180
600.86	0.183
601.31	0.185
601.76	0.189
602.21	0.186
602.65	0.193
603.10	0.192
603.55	0.195
604.00	0.197
604.45	0.196
604.90	0.199
605.35	0.204
605.80	0.201
606.25	0.202
606.70	0.205
607.15	0.207
607.60	0.208
608.05	0.210
608.50	0.212
608.95	0.215
609.39	0.216
609.84	0.217
610.29	0.216
610.74	0.219
611.19	0.219
611.64	0.221
612.09	0.224
612.54	0.224
612.99	0.225
613.44	0.225
613.88	0.227
614.33	0.227
614.78	0.227
615.23	0.229
615.68	0.228
616.13	0.231
616.58	0.229
617.03	0.230
617.47	0.234
617.92	0.234
618.37	0.234
618.82	0.235
619.27	0.236
619.72	0.237
620.17	0.236
620.61	0.236
621.06	0.239
621.51	0.239
621.96	0.238
622.41	0.241
622.86	0.238
623.30	0.240
623.75	0.243
624.20	0.245
624.65	0.245
625.10	0.245
625.54	0.247
625.99	0.247
626.44	0.248
626.89	0.247
627.34	0.249
627.78	0.251
628.23	0.254
628.68	0.254
629.13	0.255
629.58	0.254
630.02	0.256
630.47	0.260
630.92	0.261
631.37	0.262
631.81	0.265
632.26	0.266
632.71	0.266
633.16	0.269
633.61	0.270
634.05	0.273
634.50	0.275
634.95	0.277
635.40	0.280
635.84	0.282
636.29	0.282
636.74	0.286
637.18	0.291
637.63	0.291
638.08	0.291
638.53	0.295
638.97	0.297
639.42	0.300
639.87	0.304
640.32	0.305
640.76	0.311
641.21	0.311
641.66	0.315
642.10	0.318
642.55	0.321
643.00	0.323
643.44	0.325
643.89	0.330
644.34	0.332
644.79	0.337
645.23	0.337
645.68	0.343
646.13	0.346
646.57	0.350
647.02	0.352
647.47	0.353
647.91	0.355
648.36	0.363
648.81	0.364
649.25	0.367
649.70	0.370
650.15	0.374
650.59	0.375
651.04	0.379
651.48	0.380
651.93	0.384
652.38	0.385
652.82	0.391
653.27	0.395
653.72	0.394
654.16	0.398
654.61	0.400
655.06	0.405
655.50	0.406
655.95	0.405
656.39	0.408
656.84	0.410
657.29	0.410
657.73	0.415
658.18	0.416
658.62	0.416
659.07	0.420
659.52	0.421
659.96	0.424
660.41	0.422
660.85	0.423
661.30	0.426
661.74	0.428
662.19	0.430
662.64	0.429
663.08	0.432
663.53	0.431
663.97	0.430
664.42	0.429
664.86	0.432
665.31	0.428
665.75	0.429
666.20	0.427
666.65	0.429
667.09	0.425
667.54	0.423
667.98	0.423
668.43	0.420
668.87	0.420
669.32	0.416
669.76	0.412
670.21	0.407
670.65	0.406
671.10	0.402
671.54	0.396
671.99	0.394
672.43	0.386
672.88	0.384
673.32	0.377
673.77	0.368
674.21	0.367
674.66	0.359
675.10	0.351
675.55	0.346
675.99	0.339
676.44	0.332
676.88	0.323
677.33	0.314
677.77	0.307
678.22	0.299
678.66	0.292
679.11	0.283
679.55	0.276
679.99	0.268
680.44	0.261
680.88	0.253
681.33	0.244
681.77	0.237
682.22	0.228
682.66	0.223
683.11	0.214
683.55	0.206
683.99	0.200
684.44	0.191
684.88	0.185
685.33	0.176
685.77	0.170
686.21	0.165
686.66	0.158
687.10	0.150
687.55	0.146
687.99	0.144
688.44	0.136
688.88	0.130
689.32	0.125
689.77	0.120
690.21	0.113
690.65	0.110
691.10	0.105
691.54	0.101
691.99	0.099
692.43	0.092
692.87	0.090
693.32	0.086
693.76	0.083
694.20	0.081
694.65	0.078
695.09	0.075
695.53	0.073
695.98	0.070
696.42	0.064
696.86	0.062
697.31	0.062
697.75	0.059
698.19	0.058
698.64	0.057
699.08	0.055
699.52	0.051
699.97	0.052
700.41	0.051
700.85	0.048
701.30	0.046
701.74	0.042
702.18	0.045
702.63	0.041
703.07	0.043
703.51	0.040
703.96	0.040
704.40	0.039
704.84	0.036
705.28	0.037
705.73	0.033
706.17	0.035
706.61	0.033
707.06	0.032
707.50	0.033
707.94	0.032
708.38	0.030
708.83	0.030
709.27	0.029
709.71	0.029
710.15	0.027
710.60	0.029
711.04	0.027
711.48	0.027
711.92	0.027
712.37	0.026
712.81	0.027
713.25	0.025
713.69	0.027
714.13	0.024
714.58	0.024
715.02	0.022
715.46	0.023
715.90	0.026
716.35	0.023
716.79	0.025
717.23	0.023
717.67	0.024
718.11	0.021
718.56	0.021
719.00	0.021
719.44	0.021
719.88	0.025
720.32	0.023
720.76	0.021
721.21	0.025
721.65	0.023
722.09	0.023
722.53	0.025
722.97	0.024
723.41	0.023
723.86	0.023
724.30	0.023
724.74	0.023
725.18	0.025
725.62	0.021
726.06	0.023
726.50	0.023
726.95	0.023
727.39	0.022
727.83	0.022
728.27	0.021
728.71	0.021
729.15	0.023
729.59	0.025
730.03	0.025
730.48	0.023
730.92	0.023
731.36	0.022
731.80	0.024
732.24	0.025
732.68	0.027
733.12	0.026
733.56	0.026
734.00	0.026
734.44	0.026
734.89	0.024
735.33	0.028
735.77	0.028
736.21	0.025
736.65	0.028
737.09	0.026
737.53	0.023
737.97	0.027
738.41	0.025
738.85	0.027
739.29	0.025
739.73	0.027
740.17	0.026
740.61	0.029
741.05	0.027
741.49	0.027
741.93	0.028
742.37	0.027
742.81	0.026
743.26	0.027
743.70	0.026
744.14	0.025
744.58	0.026
745.02	0.027
745.46	0.023
745.90	0.026
746.34	0.026
746.78	0.029
747.22	0.027
747.66	0.028
748.10	0.026
748.54	0.026
748.98	0.025
749.42	0.029
749.86	0.028
750.29	0.028
750.73	0.026
751.17	0.025
751.61	0.027
752.05	0.024
752.49	0.025
752.93	0.026
753.37	0.027
753.81	0.026
754.25	0.026
754.69	0.027
755.13	0.027
755.57	0.025
756.01	0.023
756.45	0.025
756.89	0.026
757.33	0.029
757.77	0.025
758.21	0.026
758.64	0.029
759.08	0.027
759.52	0.029
759.96	0.027
760.40	0.025
760.84	0.025
761.28	0.027
761.72	0.026
762.16	0.025
762.60	0.025
763.03	0.026
763.47	0.024
763.91	0.024
764.35	0.023
764.79	0.027
765.23	0.025
765.67	0.025
766.11	0.027
766.54	0.026
766.98	0.027
767.42	0.026
767.86	0.028
768.30	0.029
768.74	0.026
769.17	0.028
769.61	0.026
770.05	0.025
770.49	0.026
770.93	0.024
771.37	0.023
771.80	0.026
772.24	0.026
772.68	0.023
773.12	0.026
773.56	0.024
774.00	0.024
774.43	0.026
774.87	0.023
775.31	0.027
775.75	0.026
776.19	0.025
776.62	0.026
777.06	0.026
777.50	0.024
777.94	0.027
778.37	0.022
778.81	0.029
779.25	0.028
779.69	0.027
780.13	0.027
780.56	0.024
781.00	0.028
781.44	0.029
781.88	0.027
782.31	0.026
782.75	0.028
783.19	0.026
783.63	0.030
784.06	0.026
784.50	0.026
784.94	0.028
785.37	0.027
785.81	0.025
786.25	0.025
786.69	0.027
787.12	0.025
787.56	0.027
788.00	0.023
788.43	0.024
788.87	0.026
789.31	0.024
789.75	0.028
790.18	0.024
790.62	0.025
791.06	0.029
791.49	0.024
791.93	0.024
792.37	0.023
792.80	0.022
793.24	0.028
793.68	0.027
794.11	0.027
794.55	0.024
794.99	0.027
795.42	0.024
795.86	0.028
796.30	0.026
796.73	0.024
797.17	0.027
797.61	0.023
798.04	0.019
798.48	0.022
798.91	0.025
799.35	0.026
799.79	0.027
800.22	0.023
800.66	0.024
801.10	0.027
801.53	0.024
801.97	0.024
802.40	0.024
802.84	0.027
803.28	0.023
803.71	0.023
804.15	0.026
804.58	0.021
805.02	0.023
805.46	0.025
805.89	0.026
806.33	0.027
806.76	0.026
807.20	0.022
807.63	0.026
808.07	0.029
808.51	0.025
808.94	0.027
809.38	0.027
809.81	0.025
810.25	0.023
810.68	0.027
811.12	0.027
811.55	0.026
811.99	0.025
812.42	0.026
812.86	0.027
813.29	0.023
813.73	0.023
814.17	0.023
814.60	0.025
815.04	0.027
815.47	0.026
815.91	0.027
816.34	0.026
816.78	0.023
817.21	0.022
817.65	0.029
818.08	0.028
