SpectraSuite Data File
++++++++++++++++++++++++++++++++++++
Date: Tue Jul 11 16:26:32 CEST 2017
User: IPCE
Dark Spectrum Present: Yes
Reference Spectrum Present: Yes
Number of Sampled Component Spectra: 1
Spectrometers: HR+C0708
Integration Time (usec): 1000 (HR+C0708)
Spectra Averaged: 10 (HR+C0708)
Boxcar Smoothing: 0 (HR+C0708)
Correct for Electrical Dark: No (HR+C0708)
Strobe/Lamp Enabled: No (HR+C0708)
Correct for Detector Non-linearity: No (HR+C0708)
Correct for Stray Light: No (HR+C0708)
Number of Pixels in Processed Spectrum: 2048
>>>>>Begin Processed Spectral Data<<<<<
188.76	0.022
189.23	0.139
189.70	-0.110
190.17	-0.111
190.64	-0.015
191.12	0.276
191.59	0.176
192.06	0.113
192.53	0.304
193.01	0.387
193.48	-0.281
193.95	0.125
194.42	0.006
194.90	0.318
195.37	-0.003
195.84	-0.252
196.31	0.605
196.78	0.217
197.26	0.365
197.73	0.213
198.20	0.124
198.67	0.023
199.14	-0.046
199.62	-0.018
200.09	0.740
200.56	0.251
201.03	0.255
201.50	0.260
201.97	0.138
202.45	0.425
202.92	0.301
203.39	0.337
203.86	0.309
204.33	0.270
204.80	0.421
205.28	0.438
205.75	0.217
206.22	0.397
206.69	0.338
207.16	0.233
207.63	0.134
208.11	0.272
208.58	0.187
209.05	0.311
209.52	0.468
209.99	0.347
210.46	0.204
210.93	0.326
211.41	0.333
211.88	0.234
212.35	0.285
212.82	0.181
213.29	0.237
213.76	0.287
214.23	0.224
214.70	0.261
215.18	0.256
215.65	0.276
216.12	0.235
216.59	0.248
217.06	0.410
217.53	0.273
218.00	0.451
218.47	0.287
218.94	0.302
219.41	0.252
219.89	0.329
220.36	0.396
220.83	0.452
221.30	0.314
221.77	0.452
222.24	0.456
222.71	0.412
223.18	0.378
223.65	0.370
224.12	0.409
224.59	0.582
225.06	0.673
225.54	0.578
226.01	0.623
226.48	0.555
226.95	0.474
227.42	0.669
227.89	0.664
228.36	0.690
228.83	0.772
229.30	0.899
229.77	0.910
230.24	1.025
230.71	1.227
231.18	1.100
231.65	1.165
232.12	1.336
232.59	1.259
233.06	1.328
233.53	1.438
234.00	1.507
234.47	1.612
234.94	1.558
235.41	1.567
235.88	1.627
236.35	1.462
236.82	1.553
237.29	1.774
237.76	1.744
238.23	1.703
238.70	1.797
239.17	1.801
239.64	1.831
240.11	1.936
240.58	1.920
241.05	2.126
241.52	1.993
241.99	2.018
242.46	1.945
242.93	2.045
243.40	2.068
243.87	2.160
244.34	2.171
244.81	2.112
245.28	2.041
245.75	2.099
246.22	2.142
246.69	2.038
247.16	2.224
247.63	2.172
248.10	2.118
248.57	2.166
249.04	2.158
249.51	2.271
249.98	2.070
250.45	2.198
250.92	2.076
251.39	2.006
251.85	1.944
252.32	1.908
252.79	1.775
253.26	1.721
253.73	1.611
254.20	1.509
254.67	1.459
255.14	1.379
255.61	1.306
256.08	1.272
256.55	1.207
257.02	1.160
257.49	1.121
257.95	1.086
258.42	1.045
258.89	1.008
259.36	0.976
259.83	0.951
260.30	0.925
260.77	0.903
261.24	0.879
261.71	0.856
262.17	0.840
262.64	0.820
263.11	0.799
263.58	0.786
264.05	0.769
264.52	0.759
264.99	0.743
265.46	0.726
265.92	0.712
266.39	0.705
266.86	0.686
267.33	0.675
267.80	0.672
268.27	0.657
268.74	0.647
269.20	0.638
269.67	0.632
270.14	0.616
270.61	0.610
271.08	0.599
271.55	0.592
272.01	0.584
272.48	0.577
272.95	0.574
273.42	0.563
273.89	0.558
274.36	0.547
274.82	0.542
275.29	0.543
275.76	0.535
276.23	0.529
276.70	0.526
277.16	0.520
277.63	0.516
278.10	0.512
278.57	0.507
279.04	0.505
279.50	0.500
279.97	0.499
280.44	0.492
280.91	0.493
281.38	0.489
281.84	0.489
282.31	0.488
282.78	0.484
283.25	0.479
283.72	0.483
284.18	0.480
284.65	0.478
285.12	0.475
285.59	0.474
286.05	0.472
286.52	0.474
286.99	0.470
287.46	0.472
287.92	0.471
288.39	0.468
288.86	0.470
289.33	0.470
289.79	0.465
290.26	0.464
290.73	0.465
291.20	0.458
291.66	0.459
292.13	0.453
292.60	0.451
293.07	0.449
293.53	0.443
294.00	0.436
294.47	0.430
294.93	0.427
295.40	0.421
295.87	0.415
296.34	0.408
296.80	0.403
297.27	0.394
297.74	0.389
298.20	0.382
298.67	0.378
299.14	0.369
299.60	0.361
300.07	0.354
300.54	0.351
301.01	0.342
301.47	0.336
301.94	0.329
302.41	0.325
302.87	0.317
303.34	0.307
303.81	0.301
304.27	0.296
304.74	0.293
305.21	0.287
305.67	0.280
306.14	0.273
306.61	0.269
307.07	0.265
307.54	0.259
308.01	0.253
308.47	0.256
308.94	0.249
309.40	0.245
309.87	0.243
310.34	0.237
310.80	0.238
311.27	0.233
311.74	0.231
312.20	0.227
312.67	0.226
313.13	0.225
313.60	0.221
314.07	0.221
314.53	0.216
315.00	0.215
315.47	0.214
315.93	0.210
316.40	0.214
316.86	0.210
317.33	0.210
317.80	0.204
318.26	0.204
318.73	0.204
319.19	0.202
319.66	0.201
320.13	0.200
320.59	0.198
321.06	0.195
321.52	0.195
321.99	0.194
322.45	0.194
322.92	0.191
323.39	0.188
323.85	0.189
324.32	0.188
324.78	0.185
325.25	0.182
325.71	0.182
326.18	0.179
326.64	0.180
327.11	0.180
327.58	0.182
328.04	0.177
328.51	0.173
328.97	0.177
329.44	0.175
329.90	0.172
330.37	0.171
330.83	0.170
331.30	0.168
331.76	0.166
332.23	0.165
332.69	0.165
333.16	0.163
333.62	0.161
334.09	0.159
334.56	0.159
335.02	0.156
335.49	0.152
335.95	0.149
336.42	0.150
336.88	0.146
337.35	0.143
337.81	0.146
338.28	0.143
338.74	0.147
339.20	0.143
339.67	0.143
340.13	0.141
340.60	0.141
341.06	0.137
341.53	0.137
341.99	0.139
342.46	0.134
342.92	0.134
343.39	0.134
343.85	0.133
344.32	0.132
344.78	0.128
345.25	0.129
345.71	0.131
346.17	0.130
346.64	0.129
347.10	0.127
347.57	0.128
348.03	0.127
348.50	0.123
348.96	0.120
349.43	0.126
349.89	0.124
350.35	0.124
350.82	0.121
351.28	0.121
351.75	0.119
352.21	0.123
352.67	0.116
353.14	0.116
353.60	0.114
354.07	0.112
354.53	0.113
355.00	0.117
355.46	0.111
355.92	0.111
356.39	0.110
356.85	0.110
357.31	0.105
357.78	0.108
358.24	0.105
358.71	0.103
359.17	0.102
359.63	0.103
360.10	0.102
360.56	0.100
361.03	0.096
361.49	0.099
361.95	0.096
362.42	0.093
362.88	0.091
363.34	0.090
363.81	0.091
364.27	0.088
364.73	0.086
365.20	0.085
365.66	0.087
366.12	0.083
366.59	0.081
367.05	0.084
367.51	0.083
367.98	0.079
368.44	0.079
368.90	0.080
369.37	0.081
369.83	0.078
370.29	0.078
370.76	0.078
371.22	0.078
371.68	0.077
372.15	0.076
372.61	0.074
373.07	0.076
373.54	0.077
374.00	0.076
374.46	0.075
374.92	0.073
375.39	0.075
375.85	0.075
376.31	0.072
376.78	0.074
377.24	0.074
377.70	0.073
378.16	0.074
378.63	0.072
379.09	0.073
379.55	0.073
380.01	0.071
380.48	0.074
380.94	0.074
381.40	0.072
381.87	0.069
382.33	0.071
382.79	0.072
383.25	0.070
383.72	0.071
384.18	0.071
384.64	0.071
385.10	0.067
385.56	0.069
386.03	0.068
386.49	0.068
386.95	0.068
387.41	0.067
387.88	0.069
388.34	0.071
388.80	0.069
389.26	0.068
389.72	0.068
390.19	0.069
390.65	0.067
391.11	0.068
391.57	0.068
392.04	0.070
392.50	0.064
392.96	0.068
393.42	0.068
393.88	0.070
394.34	0.067
394.81	0.068
395.27	0.064
395.73	0.064
396.19	0.067
396.65	0.065
397.12	0.065
397.58	0.062
398.04	0.066
398.50	0.065
398.96	0.064
399.42	0.063
399.89	0.064
400.35	0.064
400.81	0.066
401.27	0.067
401.73	0.063
402.19	0.062
402.65	0.062
403.12	0.062
403.58	0.061
404.04	0.061
404.50	0.061
404.96	0.061
405.42	0.061
405.88	0.061
406.34	0.061
406.81	0.062
407.27	0.060
407.73	0.058
408.19	0.057
408.65	0.060
409.11	0.061
409.57	0.060
410.03	0.062
410.49	0.058
410.96	0.058
411.42	0.060
411.88	0.059
412.34	0.056
412.80	0.059
413.26	0.058
413.72	0.057
414.18	0.058
414.64	0.056
415.10	0.057
415.56	0.059
416.02	0.056
416.48	0.055
416.95	0.055
417.41	0.056
417.87	0.054
418.33	0.055
418.79	0.058
419.25	0.059
419.71	0.054
420.17	0.055
420.63	0.053
421.09	0.056
421.55	0.056
422.01	0.052
422.47	0.054
422.93	0.054
423.39	0.053
423.85	0.055
424.31	0.055
424.77	0.053
425.23	0.052
425.69	0.053
426.15	0.053
426.61	0.053
427.07	0.053
427.53	0.054
427.99	0.054
428.45	0.055
428.91	0.052
429.37	0.055
429.83	0.053
430.29	0.054
430.75	0.052
431.21	0.054
431.67	0.057
432.13	0.054
432.59	0.054
433.05	0.050
433.51	0.051
433.97	0.054
434.43	0.052
434.89	0.051
435.35	0.052
435.81	0.051
436.27	0.050
436.73	0.050
437.19	0.050
437.65	0.053
438.11	0.051
438.57	0.054
439.03	0.049
439.48	0.050
439.94	0.052
440.40	0.048
440.86	0.052
441.32	0.050
441.78	0.050
442.24	0.050
442.70	0.049
443.16	0.050
443.62	0.047
444.08	0.051
444.54	0.053
444.99	0.049
445.45	0.050
445.91	0.049
446.37	0.050
446.83	0.048
447.29	0.051
447.75	0.051
448.21	0.051
448.67	0.050
449.12	0.049
449.58	0.045
450.04	0.047
450.50	0.046
450.96	0.045
451.42	0.048
451.88	0.052
452.34	0.049
452.79	0.046
453.25	0.049
453.71	0.046
454.17	0.049
454.63	0.051
455.09	0.049
455.55	0.048
456.00	0.046
456.46	0.048
456.92	0.050
457.38	0.050
457.84	0.046
458.30	0.049
458.75	0.049
459.21	0.049
459.67	0.049
460.13	0.049
460.59	0.050
461.04	0.048
461.50	0.050
461.96	0.047
462.42	0.050
462.88	0.049
463.33	0.048
463.79	0.050
464.25	0.048
464.71	0.050
465.17	0.049
465.62	0.048
466.08	0.049
466.54	0.048
467.00	0.049
467.46	0.049
467.91	0.050
468.37	0.049
468.83	0.049
469.29	0.048
469.74	0.050
470.20	0.048
470.66	0.049
471.12	0.049
471.57	0.049
472.03	0.050
472.49	0.048
472.95	0.049
473.40	0.050
473.86	0.049
474.32	0.048
474.78	0.049
475.23	0.049
475.69	0.048
476.15	0.051
476.60	0.049
477.06	0.048
477.52	0.048
477.98	0.050
478.43	0.052
478.89	0.052
479.35	0.048
479.80	0.049
480.26	0.050
480.72	0.050
481.18	0.051
481.63	0.050
482.09	0.049
482.55	0.049
483.00	0.050
483.46	0.050
483.92	0.049
484.37	0.051
484.83	0.049
485.29	0.051
485.74	0.050
486.20	0.048
486.66	0.050
487.11	0.049
487.57	0.051
488.03	0.051
488.48	0.050
488.94	0.051
489.40	0.050
489.85	0.050
490.31	0.048
490.77	0.053
491.22	0.049
491.68	0.052
492.13	0.051
492.59	0.049
493.05	0.050
493.50	0.048
493.96	0.049
494.42	0.051
494.87	0.050
495.33	0.050
495.78	0.050
496.24	0.050
496.70	0.049
497.15	0.051
497.61	0.051
498.06	0.050
498.52	0.051
498.98	0.050
499.43	0.049
499.89	0.051
500.34	0.049
500.80	0.051
501.25	0.051
501.71	0.052
502.17	0.051
502.62	0.050
503.08	0.048
503.53	0.050
503.99	0.049
504.44	0.048
504.90	0.047
505.36	0.049
505.81	0.048
506.27	0.050
506.72	0.050
507.18	0.049
507.63	0.048
508.09	0.049
508.54	0.049
509.00	0.050
509.45	0.050
509.91	0.051
510.36	0.048
510.82	0.052
511.27	0.049
511.73	0.050
512.19	0.048
512.64	0.050
513.10	0.049
513.55	0.048
514.01	0.047
514.46	0.047
514.92	0.048
515.37	0.050
515.83	0.048
516.28	0.049
516.73	0.047
517.19	0.048
517.64	0.048
518.10	0.047
518.55	0.050
519.01	0.046
519.46	0.047
519.92	0.049
520.37	0.048
520.83	0.050
521.28	0.049
521.74	0.048
522.19	0.047
522.65	0.048
523.10	0.049
523.55	0.048
524.01	0.048
524.46	0.050
524.92	0.048
525.37	0.049
525.83	0.050
526.28	0.048
526.73	0.050
527.19	0.050
527.64	0.051
528.10	0.049
528.55	0.048
529.01	0.050
529.46	0.051
529.91	0.050
530.37	0.048
530.82	0.050
531.28	0.049
531.73	0.049
532.18	0.051
532.64	0.050
533.09	0.050
533.54	0.050
534.00	0.048
534.45	0.051
534.91	0.051
535.36	0.050
535.81	0.051
536.27	0.053
536.72	0.049
537.17	0.052
537.63	0.052
538.08	0.052
538.54	0.051
538.99	0.051
539.44	0.055
539.90	0.055
540.35	0.052
540.80	0.052
541.26	0.052
541.71	0.053
542.16	0.054
542.62	0.054
543.07	0.054
543.52	0.053
543.98	0.054
544.43	0.056
544.88	0.056
545.34	0.055
545.79	0.057
546.24	0.056
546.69	0.054
547.15	0.055
547.60	0.059
548.05	0.057
548.51	0.057
548.96	0.057
549.41	0.060
549.86	0.059
550.32	0.060
550.77	0.061
551.22	0.062
551.68	0.061
552.13	0.060
552.58	0.062
553.03	0.061
553.49	0.062
553.94	0.060
554.39	0.062
554.84	0.064
555.30	0.063
555.75	0.064
556.20	0.065
556.65	0.066
557.11	0.066
557.56	0.066
558.01	0.065
558.46	0.066
558.92	0.068
559.37	0.067
559.82	0.070
560.27	0.069
560.72	0.068
561.18	0.068
561.63	0.071
562.08	0.072
562.53	0.070
562.99	0.071
563.44	0.072
563.89	0.073
564.34	0.074
564.79	0.074
565.25	0.075
565.70	0.074
566.15	0.077
566.60	0.077
567.05	0.077
567.50	0.079
567.96	0.078
568.41	0.079
568.86	0.078
569.31	0.080
569.76	0.082
570.21	0.081
570.67	0.080
571.12	0.082
571.57	0.083
572.02	0.084
572.47	0.084
572.92	0.085
573.37	0.085
573.83	0.087
574.28	0.087
574.73	0.085
575.18	0.088
575.63	0.092
576.08	0.090
576.53	0.091
576.98	0.091
577.44	0.092
577.89	0.091
578.34	0.094
578.79	0.096
579.24	0.096
579.69	0.097
580.14	0.097
580.59	0.098
581.04	0.101
581.49	0.102
581.95	0.102
582.40	0.101
582.85	0.102
583.30	0.107
583.75	0.107
584.20	0.107
584.65	0.107
585.10	0.109
585.55	0.109
586.00	0.112
586.45	0.115
586.90	0.117
587.35	0.116
587.80	0.117
588.25	0.118
588.71	0.118
589.16	0.122
589.61	0.124
590.06	0.125
590.51	0.126
590.96	0.126
591.41	0.129
591.86	0.131
592.31	0.133
592.76	0.133
593.21	0.136
593.66	0.138
594.11	0.139
594.56	0.140
595.01	0.142
595.46	0.143
595.91	0.143
596.36	0.146
596.81	0.147
597.26	0.149
597.71	0.149
598.16	0.153
598.61	0.155
599.06	0.155
599.51	0.156
599.96	0.158
600.41	0.160
600.86	0.162
601.31	0.162
601.76	0.164
602.21	0.166
602.65	0.168
603.10	0.169
603.55	0.170
604.00	0.174
604.45	0.173
604.90	0.174
605.35	0.178
605.80	0.178
606.25	0.178
606.70	0.180
607.15	0.182
607.60	0.183
608.05	0.183
608.50	0.184
608.95	0.187
609.39	0.189
609.84	0.190
610.29	0.189
610.74	0.193
611.19	0.190
611.64	0.192
612.09	0.194
612.54	0.194
612.99	0.196
613.44	0.195
613.88	0.197
614.33	0.197
614.78	0.197
615.23	0.198
615.68	0.200
616.13	0.201
616.58	0.199
617.03	0.200
617.47	0.200
617.92	0.204
618.37	0.204
618.82	0.202
619.27	0.205
619.72	0.202
620.17	0.205
620.61	0.204
621.06	0.207
621.51	0.205
621.96	0.206
622.41	0.210
622.86	0.206
623.30	0.211
623.75	0.210
624.20	0.212
624.65	0.212
625.10	0.211
625.54	0.212
625.99	0.214
626.44	0.214
626.89	0.217
627.34	0.218
627.78	0.220
628.23	0.220
628.68	0.220
629.13	0.221
629.58	0.219
630.02	0.224
630.47	0.225
630.92	0.226
631.37	0.228
631.81	0.228
632.26	0.228
632.71	0.232
633.16	0.233
633.61	0.235
634.05	0.235
634.50	0.237
634.95	0.239
635.40	0.241
635.84	0.244
636.29	0.245
636.74	0.246
637.18	0.248
637.63	0.251
638.08	0.251
638.53	0.254
638.97	0.255
639.42	0.257
639.87	0.260
640.32	0.264
640.76	0.265
641.21	0.267
641.66	0.271
642.10	0.275
642.55	0.273
643.00	0.276
643.44	0.279
643.89	0.282
644.34	0.287
644.79	0.286
645.23	0.290
645.68	0.290
646.13	0.295
646.57	0.297
647.02	0.298
647.47	0.300
647.91	0.304
648.36	0.307
648.81	0.310
649.25	0.311
649.70	0.314
650.15	0.316
650.59	0.316
651.04	0.322
651.48	0.320
651.93	0.326
652.38	0.326
652.82	0.330
653.27	0.331
653.72	0.333
654.16	0.335
654.61	0.335
655.06	0.338
655.50	0.340
655.95	0.339
656.39	0.341
656.84	0.343
657.29	0.342
657.73	0.346
658.18	0.348
658.62	0.349
659.07	0.350
659.52	0.351
659.96	0.353
660.41	0.354
660.85	0.351
661.30	0.353
661.74	0.356
662.19	0.355
662.64	0.354
663.08	0.355
663.53	0.358
663.97	0.356
664.42	0.356
664.86	0.354
665.31	0.353
665.75	0.355
666.20	0.351
666.65	0.350
667.09	0.349
667.54	0.350
667.98	0.349
668.43	0.346
668.87	0.341
669.32	0.338
669.76	0.338
670.21	0.337
670.65	0.331
671.10	0.330
671.54	0.324
671.99	0.322
672.43	0.317
672.88	0.313
673.32	0.308
673.77	0.302
674.21	0.300
674.66	0.295
675.10	0.288
675.55	0.284
675.99	0.281
676.44	0.273
676.88	0.264
677.33	0.257
677.77	0.251
678.22	0.247
678.66	0.240
679.11	0.233
679.55	0.229
679.99	0.221
680.44	0.214
680.88	0.209
681.33	0.204
681.77	0.197
682.22	0.189
682.66	0.183
683.11	0.176
683.55	0.173
683.99	0.167
684.44	0.160
684.88	0.155
685.33	0.150
685.77	0.144
686.21	0.140
686.66	0.135
687.10	0.129
687.55	0.125
687.99	0.122
688.44	0.116
688.88	0.112
689.32	0.108
689.77	0.104
690.21	0.100
690.65	0.096
691.10	0.092
691.54	0.090
691.99	0.085
692.43	0.082
692.87	0.079
693.32	0.077
693.76	0.077
694.20	0.072
694.65	0.070
695.09	0.068
695.53	0.066
695.98	0.065
696.42	0.059
696.86	0.059
697.31	0.058
697.75	0.057
698.19	0.053
698.64	0.052
699.08	0.052
699.52	0.049
699.97	0.048
700.41	0.049
700.85	0.044
701.30	0.045
701.74	0.041
702.18	0.044
702.63	0.042
703.07	0.042
703.51	0.041
703.96	0.038
704.40	0.039
704.84	0.038
705.28	0.038
705.73	0.034
706.17	0.035
706.61	0.036
707.06	0.036
707.50	0.034
707.94	0.035
708.38	0.032
708.83	0.033
709.27	0.029
709.71	0.031
710.15	0.029
710.60	0.031
711.04	0.030
711.48	0.029
711.92	0.031
712.37	0.029
712.81	0.029
713.25	0.029
713.69	0.029
714.13	0.027
714.58	0.027
715.02	0.027
715.46	0.026
715.90	0.025
716.35	0.027
716.79	0.029
717.23	0.026
717.67	0.027
718.11	0.026
718.56	0.026
719.00	0.025
719.44	0.027
719.88	0.029
720.32	0.027
720.76	0.025
721.21	0.028
721.65	0.028
722.09	0.028
722.53	0.027
722.97	0.028
723.41	0.027
723.86	0.027
724.30	0.026
724.74	0.025
725.18	0.029
725.62	0.025
726.06	0.029
726.50	0.026
726.95	0.028
727.39	0.029
727.83	0.028
728.27	0.023
728.71	0.027
729.15	0.028
729.59	0.028
730.03	0.029
730.48	0.027
730.92	0.026
731.36	0.025
731.80	0.028
732.24	0.029
732.68	0.029
733.12	0.029
733.56	0.030
734.00	0.032
734.44	0.031
734.89	0.029
735.33	0.030
735.77	0.030
736.21	0.028
736.65	0.032
737.09	0.029
737.53	0.028
737.97	0.031
738.41	0.030
738.85	0.030
739.29	0.030
739.73	0.033
740.17	0.028
740.61	0.032
741.05	0.031
741.49	0.028
741.93	0.030
742.37	0.031
742.81	0.028
743.26	0.032
743.70	0.030
744.14	0.031
744.58	0.030
745.02	0.033
745.46	0.029
745.90	0.029
746.34	0.032
746.78	0.030
747.22	0.030
747.66	0.029
748.10	0.030
748.54	0.030
748.98	0.028
749.42	0.031
749.86	0.031
750.29	0.031
750.73	0.030
751.17	0.027
751.61	0.029
752.05	0.029
752.49	0.030
752.93	0.029
753.37	0.031
753.81	0.030
754.25	0.029
754.69	0.029
755.13	0.033
755.57	0.029
756.01	0.031
756.45	0.029
756.89	0.029
757.33	0.030
757.77	0.031
758.21	0.030
758.64	0.030
759.08	0.029
759.52	0.030
759.96	0.031
760.40	0.030
760.84	0.029
761.28	0.032
761.72	0.029
762.16	0.028
762.60	0.030
763.03	0.029
763.47	0.030
763.91	0.027
764.35	0.028
764.79	0.033
765.23	0.030
765.67	0.028
766.11	0.030
766.54	0.029
766.98	0.029
767.42	0.030
767.86	0.030
768.30	0.031
768.74	0.030
769.17	0.033
769.61	0.029
770.05	0.026
770.49	0.028
770.93	0.030
771.37	0.028
771.80	0.029
772.24	0.029
772.68	0.028
773.12	0.028
773.56	0.030
774.00	0.029
774.43	0.027
774.87	0.029
775.31	0.032
775.75	0.030
776.19	0.030
776.62	0.030
777.06	0.030
777.50	0.029
777.94	0.029
778.37	0.028
778.81	0.029
779.25	0.028
779.69	0.032
780.13	0.029
780.56	0.029
781.00	0.033
781.44	0.031
781.88	0.031
782.31	0.030
782.75	0.031
783.19	0.030
783.63	0.033
784.06	0.027
784.50	0.030
784.94	0.030
785.37	0.032
785.81	0.029
786.25	0.028
786.69	0.029
787.12	0.031
787.56	0.032
788.00	0.024
788.43	0.029
788.87	0.030
789.31	0.028
789.75	0.031
790.18	0.026
790.62	0.030
791.06	0.033
791.49	0.031
791.93	0.026
792.37	0.024
792.80	0.030
793.24	0.030
793.68	0.027
794.11	0.030
794.55	0.028
794.99	0.031
795.42	0.031
795.86	0.030
796.30	0.029
796.73	0.028
797.17	0.030
797.61	0.027
798.04	0.026
798.48	0.027
798.91	0.029
799.35	0.032
799.79	0.030
800.22	0.031
800.66	0.027
801.10	0.032
801.53	0.028
801.97	0.025
802.40	0.029
802.84	0.029
803.28	0.026
803.71	0.029
804.15	0.030
804.58	0.026
805.02	0.025
805.46	0.028
805.89	0.030
806.33	0.028
806.76	0.026
807.20	0.029
807.63	0.028
808.07	0.030
808.51	0.024
808.94	0.027
809.38	0.029
809.81	0.026
810.25	0.026
810.68	0.030
811.12	0.031
811.55	0.028
811.99	0.031
812.42	0.028
812.86	0.033
813.29	0.027
813.73	0.032
814.17	0.026
814.60	0.028
815.04	0.029
815.47	0.027
815.91	0.030
816.34	0.030
816.78	0.032
817.21	0.027
817.65	0.029
818.08	0.032
