SpectraSuite Data File
++++++++++++++++++++++++++++++++++++
Date: Tue Jul 11 16:14:32 CEST 2017
User: IPCE
Dark Spectrum Present: Yes
Reference Spectrum Present: Yes
Number of Sampled Component Spectra: 1
Spectrometers: HR+C0708
Integration Time (usec): 1000 (HR+C0708)
Spectra Averaged: 10 (HR+C0708)
Boxcar Smoothing: 0 (HR+C0708)
Correct for Electrical Dark: No (HR+C0708)
Strobe/Lamp Enabled: No (HR+C0708)
Correct for Detector Non-linearity: No (HR+C0708)
Correct for Stray Light: No (HR+C0708)
Number of Pixels in Processed Spectrum: 2048
>>>>>Begin Processed Spectral Data<<<<<
188.76	0.147
189.23	-0.253
189.70	0.200
190.17	0.244
190.64	-0.084
191.12	0.249
191.59	-0.017
192.06	-0.000
192.53	0.091
193.01	-0.154
193.48	-0.000
193.95	0.206
194.42	-0.205
194.90	0.099
195.37	0.208
195.84	-0.410
196.31	0.103
196.78	0.122
197.26	0.252
197.73	0.412
198.20	0.222
198.67	0.081
199.14	0.020
199.62	0.066
200.09	1.196
200.56	0.239
201.03	0.171
201.50	0.291
201.97	0.247
202.45	0.352
202.92	0.434
203.39	0.323
203.86	0.281
204.33	0.284
204.80	0.324
205.28	0.332
205.75	0.359
206.22	0.201
206.69	0.540
207.16	0.081
207.63	0.290
208.11	0.396
208.58	0.204
209.05	0.406
209.52	0.462
209.99	0.272
210.46	0.266
210.93	0.288
211.41	0.200
211.88	0.281
212.35	0.250
212.82	0.317
213.29	0.307
213.76	0.409
214.23	0.319
214.70	0.215
215.18	0.270
215.65	0.339
216.12	0.383
216.59	0.224
217.06	0.514
217.53	0.313
218.00	0.311
218.47	0.431
218.94	0.195
219.41	0.327
219.89	0.403
220.36	0.337
220.83	0.338
221.30	0.351
221.77	0.208
222.24	0.389
222.71	0.589
223.18	0.339
223.65	0.408
224.12	0.444
224.59	0.506
225.06	0.572
225.54	0.523
226.01	0.737
226.48	0.613
226.95	0.481
227.42	0.813
227.89	0.818
228.36	0.709
228.83	0.807
229.30	0.759
229.77	0.923
230.24	1.139
230.71	1.127
231.18	1.114
231.65	1.042
232.12	1.307
232.59	1.257
233.06	1.234
233.53	1.305
234.00	1.484
234.47	1.409
234.94	1.548
235.41	1.629
235.88	1.623
236.35	1.552
236.82	1.675
237.29	1.642
237.76	1.729
238.23	1.733
238.70	1.725
239.17	1.776
239.64	1.873
240.11	2.012
240.58	1.951
241.05	1.899
241.52	1.929
241.99	2.010
242.46	1.860
242.93	2.047
243.40	2.043
243.87	2.112
244.34	2.129
244.81	2.075
245.28	2.072
245.75	2.206
246.22	2.212
246.69	2.165
247.16	2.166
247.63	2.135
248.10	2.208
248.57	2.101
249.04	2.116
249.51	2.213
249.98	2.111
250.45	2.250
250.92	2.116
251.39	2.003
251.85	1.960
252.32	1.926
252.79	1.787
253.26	1.735
253.73	1.644
254.20	1.538
254.67	1.482
255.14	1.413
255.61	1.357
256.08	1.307
256.55	1.234
257.02	1.189
257.49	1.145
257.95	1.106
258.42	1.080
258.89	1.029
259.36	1.003
259.83	0.978
260.30	0.951
260.77	0.931
261.24	0.906
261.71	0.881
262.17	0.870
262.64	0.850
263.11	0.830
263.58	0.809
264.05	0.798
264.52	0.781
264.99	0.769
265.46	0.753
265.92	0.739
266.39	0.733
266.86	0.718
267.33	0.702
267.80	0.695
268.27	0.681
268.74	0.679
269.20	0.660
269.67	0.656
270.14	0.646
270.61	0.632
271.08	0.624
271.55	0.620
272.01	0.612
272.48	0.600
272.95	0.599
273.42	0.590
273.89	0.582
274.36	0.577
274.82	0.573
275.29	0.570
275.76	0.563
276.23	0.554
276.70	0.551
277.16	0.544
277.63	0.546
278.10	0.541
278.57	0.537
279.04	0.535
279.50	0.530
279.97	0.527
280.44	0.527
280.91	0.519
281.38	0.519
281.84	0.516
282.31	0.520
282.78	0.513
283.25	0.512
283.72	0.512
284.18	0.510
284.65	0.509
285.12	0.505
285.59	0.508
286.05	0.508
286.52	0.508
286.99	0.509
287.46	0.505
287.92	0.504
288.39	0.505
288.86	0.505
289.33	0.505
289.79	0.502
290.26	0.500
290.73	0.503
291.20	0.491
291.66	0.493
292.13	0.489
292.60	0.487
293.07	0.482
293.53	0.477
294.00	0.473
294.47	0.465
294.93	0.462
295.40	0.454
295.87	0.447
296.34	0.441
296.80	0.434
297.27	0.429
297.74	0.421
298.20	0.414
298.67	0.409
299.14	0.401
299.60	0.394
300.07	0.387
300.54	0.379
301.01	0.369
301.47	0.362
301.94	0.357
302.41	0.353
302.87	0.342
303.34	0.334
303.81	0.328
304.27	0.323
304.74	0.319
305.21	0.316
305.67	0.303
306.14	0.300
306.61	0.293
307.07	0.290
307.54	0.285
308.01	0.280
308.47	0.276
308.94	0.270
309.40	0.269
309.87	0.265
310.34	0.262
310.80	0.261
311.27	0.254
311.74	0.252
312.20	0.249
312.67	0.248
313.13	0.246
313.60	0.244
314.07	0.243
314.53	0.236
315.00	0.238
315.47	0.237
315.93	0.233
316.40	0.235
316.86	0.232
317.33	0.229
317.80	0.224
318.26	0.226
318.73	0.224
319.19	0.223
319.66	0.220
320.13	0.219
320.59	0.218
321.06	0.216
321.52	0.215
321.99	0.217
322.45	0.213
322.92	0.213
323.39	0.208
323.85	0.209
324.32	0.207
324.78	0.207
325.25	0.202
325.71	0.202
326.18	0.197
326.64	0.198
327.11	0.201
327.58	0.200
328.04	0.197
328.51	0.198
328.97	0.197
329.44	0.196
329.90	0.191
330.37	0.190
330.83	0.189
331.30	0.186
331.76	0.185
332.23	0.184
332.69	0.181
333.16	0.180
333.62	0.178
334.09	0.177
334.56	0.176
335.02	0.172
335.49	0.169
335.95	0.168
336.42	0.166
336.88	0.162
337.35	0.165
337.81	0.164
338.28	0.161
338.74	0.162
339.20	0.159
339.67	0.159
340.13	0.158
340.60	0.159
341.06	0.153
341.53	0.155
341.99	0.152
342.46	0.152
342.92	0.151
343.39	0.150
343.85	0.149
344.32	0.147
344.78	0.146
345.25	0.146
345.71	0.147
346.17	0.147
346.64	0.144
347.10	0.145
347.57	0.142
348.03	0.142
348.50	0.139
348.96	0.138
349.43	0.139
349.89	0.137
350.35	0.137
350.82	0.138
351.28	0.138
351.75	0.134
352.21	0.137
352.67	0.130
353.14	0.131
353.60	0.126
354.07	0.122
354.53	0.127
355.00	0.126
355.46	0.124
355.92	0.122
356.39	0.124
356.85	0.117
357.31	0.120
357.78	0.123
358.24	0.115
358.71	0.115
359.17	0.112
359.63	0.110
360.10	0.109
360.56	0.106
361.03	0.102
361.49	0.106
361.95	0.100
362.42	0.098
362.88	0.098
363.34	0.093
363.81	0.092
364.27	0.090
364.73	0.091
365.20	0.090
365.66	0.086
366.12	0.084
366.59	0.084
367.05	0.084
367.51	0.080
367.98	0.078
368.44	0.081
368.90	0.077
369.37	0.081
369.83	0.077
370.29	0.077
370.76	0.078
371.22	0.077
371.68	0.074
372.15	0.073
372.61	0.075
373.07	0.076
373.54	0.075
374.00	0.071
374.46	0.074
374.92	0.070
375.39	0.075
375.85	0.073
376.31	0.072
376.78	0.073
377.24	0.072
377.70	0.073
378.16	0.072
378.63	0.070
379.09	0.070
379.55	0.069
380.01	0.069
380.48	0.069
380.94	0.070
381.40	0.068
381.87	0.070
382.33	0.069
382.79	0.070
383.25	0.069
383.72	0.069
384.18	0.068
384.64	0.068
385.10	0.068
385.56	0.070
386.03	0.067
386.49	0.067
386.95	0.066
387.41	0.064
387.88	0.065
388.34	0.065
388.80	0.065
389.26	0.064
389.72	0.066
390.19	0.065
390.65	0.065
391.11	0.066
391.57	0.067
392.04	0.066
392.50	0.065
392.96	0.064
393.42	0.065
393.88	0.067
394.34	0.065
394.81	0.065
395.27	0.060
395.73	0.061
396.19	0.065
396.65	0.065
397.12	0.061
397.58	0.063
398.04	0.063
398.50	0.063
398.96	0.061
399.42	0.060
399.89	0.062
400.35	0.060
400.81	0.062
401.27	0.064
401.73	0.064
402.19	0.061
402.65	0.062
403.12	0.059
403.58	0.059
404.04	0.058
404.50	0.061
404.96	0.061
405.42	0.059
405.88	0.056
406.34	0.058
406.81	0.058
407.27	0.059
407.73	0.058
408.19	0.056
408.65	0.057
409.11	0.059
409.57	0.059
410.03	0.059
410.49	0.056
410.96	0.056
411.42	0.056
411.88	0.057
412.34	0.054
412.80	0.056
413.26	0.058
413.72	0.056
414.18	0.057
414.64	0.052
415.10	0.053
415.56	0.055
416.02	0.051
416.48	0.054
416.95	0.053
417.41	0.053
417.87	0.051
418.33	0.053
418.79	0.054
419.25	0.055
419.71	0.052
420.17	0.052
420.63	0.051
421.09	0.051
421.55	0.053
422.01	0.050
422.47	0.051
422.93	0.053
423.39	0.052
423.85	0.053
424.31	0.053
424.77	0.052
425.23	0.052
425.69	0.053
426.15	0.052
426.61	0.054
427.07	0.051
427.53	0.051
427.99	0.053
428.45	0.055
428.91	0.050
429.37	0.052
429.83	0.053
430.29	0.054
430.75	0.050
431.21	0.051
431.67	0.052
432.13	0.050
432.59	0.050
433.05	0.048
433.51	0.051
433.97	0.052
434.43	0.049
434.89	0.048
435.35	0.051
435.81	0.050
436.27	0.050
436.73	0.047
437.19	0.051
437.65	0.047
438.11	0.050
438.57	0.050
439.03	0.045
439.48	0.048
439.94	0.047
440.40	0.048
440.86	0.049
441.32	0.050
441.78	0.049
442.24	0.046
442.70	0.048
443.16	0.049
443.62	0.047
444.08	0.049
444.54	0.051
444.99	0.050
445.45	0.048
445.91	0.047
446.37	0.049
446.83	0.047
447.29	0.048
447.75	0.049
448.21	0.050
448.67	0.048
449.12	0.045
449.58	0.047
450.04	0.045
450.50	0.044
450.96	0.045
451.42	0.047
451.88	0.053
452.34	0.047
452.79	0.044
453.25	0.048
453.71	0.046
454.17	0.046
454.63	0.047
455.09	0.047
455.55	0.047
456.00	0.042
456.46	0.045
456.92	0.048
457.38	0.049
457.84	0.045
458.30	0.048
458.75	0.047
459.21	0.045
459.67	0.049
460.13	0.050
460.59	0.048
461.04	0.046
461.50	0.048
461.96	0.046
462.42	0.050
462.88	0.047
463.33	0.047
463.79	0.049
464.25	0.047
464.71	0.048
465.17	0.047
465.62	0.047
466.08	0.048
466.54	0.048
467.00	0.047
467.46	0.046
467.91	0.050
468.37	0.048
468.83	0.049
469.29	0.049
469.74	0.049
470.20	0.046
470.66	0.047
471.12	0.049
471.57	0.048
472.03	0.048
472.49	0.048
472.95	0.047
473.40	0.049
473.86	0.049
474.32	0.048
474.78	0.048
475.23	0.048
475.69	0.048
476.15	0.050
476.60	0.046
477.06	0.048
477.52	0.049
477.98	0.047
478.43	0.049
478.89	0.050
479.35	0.050
479.80	0.049
480.26	0.046
480.72	0.049
481.18	0.047
481.63	0.047
482.09	0.050
482.55	0.049
483.00	0.048
483.46	0.049
483.92	0.048
484.37	0.051
484.83	0.049
485.29	0.050
485.74	0.050
486.20	0.049
486.66	0.048
487.11	0.049
487.57	0.050
488.03	0.049
488.48	0.048
488.94	0.049
489.40	0.050
489.85	0.048
490.31	0.048
490.77	0.051
491.22	0.048
491.68	0.048
492.13	0.049
492.59	0.051
493.05	0.050
493.50	0.050
493.96	0.048
494.42	0.050
494.87	0.050
495.33	0.048
495.78	0.049
496.24	0.048
496.70	0.050
497.15	0.049
497.61	0.050
498.06	0.049
498.52	0.049
498.98	0.050
499.43	0.048
499.89	0.050
500.34	0.050
500.80	0.050
501.25	0.049
501.71	0.048
502.17	0.049
502.62	0.048
503.08	0.048
503.53	0.049
503.99	0.049
504.44	0.049
504.90	0.046
505.36	0.048
505.81	0.046
506.27	0.049
506.72	0.049
507.18	0.048
507.63	0.047
508.09	0.047
508.54	0.047
509.00	0.049
509.45	0.049
509.91	0.050
510.36	0.049
510.82	0.051
511.27	0.046
511.73	0.048
512.19	0.046
512.64	0.050
513.10	0.050
513.55	0.048
514.01	0.046
514.46	0.047
514.92	0.048
515.37	0.048
515.83	0.048
516.28	0.049
516.73	0.046
517.19	0.047
517.64	0.046
518.10	0.048
518.55	0.049
519.01	0.049
519.46	0.045
519.92	0.048
520.37	0.051
520.83	0.050
521.28	0.048
521.74	0.047
522.19	0.046
522.65	0.048
523.10	0.048
523.55	0.048
524.01	0.048
524.46	0.048
524.92	0.049
525.37	0.048
525.83	0.049
526.28	0.047
526.73	0.049
527.19	0.049
527.64	0.051
528.10	0.049
528.55	0.049
529.01	0.050
529.46	0.050
529.91	0.050
530.37	0.049
530.82	0.050
531.28	0.052
531.73	0.048
532.18	0.048
532.64	0.049
533.09	0.050
533.54	0.052
534.00	0.049
534.45	0.051
534.91	0.047
535.36	0.050
535.81	0.050
536.27	0.053
536.72	0.049
537.17	0.053
537.63	0.054
538.08	0.052
538.54	0.051
538.99	0.051
539.44	0.055
539.90	0.053
540.35	0.051
540.80	0.053
541.26	0.053
541.71	0.053
542.16	0.055
542.62	0.056
543.07	0.054
543.52	0.053
543.98	0.055
544.43	0.056
544.88	0.055
545.34	0.057
545.79	0.058
546.24	0.056
546.69	0.056
547.15	0.056
547.60	0.060
548.05	0.058
548.51	0.055
548.96	0.058
549.41	0.059
549.86	0.061
550.32	0.059
550.77	0.061
551.22	0.063
551.68	0.061
552.13	0.059
552.58	0.062
553.03	0.062
553.49	0.064
553.94	0.062
554.39	0.064
554.84	0.066
555.30	0.063
555.75	0.064
556.20	0.066
556.65	0.065
557.11	0.065
557.56	0.068
558.01	0.066
558.46	0.069
558.92	0.068
559.37	0.070
559.82	0.070
560.27	0.070
560.72	0.070
561.18	0.070
561.63	0.073
562.08	0.073
562.53	0.072
562.99	0.073
563.44	0.072
563.89	0.075
564.34	0.075
564.79	0.077
565.25	0.077
565.70	0.074
566.15	0.077
566.60	0.079
567.05	0.079
567.50	0.081
567.96	0.080
568.41	0.080
568.86	0.080
569.31	0.082
569.76	0.083
570.21	0.082
570.67	0.084
571.12	0.085
571.57	0.086
572.02	0.088
572.47	0.088
572.92	0.089
573.37	0.086
573.83	0.090
574.28	0.092
574.73	0.091
575.18	0.092
575.63	0.093
576.08	0.092
576.53	0.094
576.98	0.093
577.44	0.097
577.89	0.096
578.34	0.098
578.79	0.101
579.24	0.100
579.69	0.099
580.14	0.103
580.59	0.100
581.04	0.105
581.49	0.106
581.95	0.108
582.40	0.108
582.85	0.108
583.30	0.109
583.75	0.111
584.20	0.112
584.65	0.112
585.10	0.113
585.55	0.115
586.00	0.119
586.45	0.119
586.90	0.121
587.35	0.120
587.80	0.122
588.25	0.124
588.71	0.125
589.16	0.126
589.61	0.129
590.06	0.131
590.51	0.133
590.96	0.131
591.41	0.134
591.86	0.137
592.31	0.140
592.76	0.140
593.21	0.140
593.66	0.143
594.11	0.145
594.56	0.147
595.01	0.147
595.46	0.150
595.91	0.149
596.36	0.153
596.81	0.155
597.26	0.157
597.71	0.159
598.16	0.161
598.61	0.162
599.06	0.163
599.51	0.165
599.96	0.168
600.41	0.167
600.86	0.171
601.31	0.172
601.76	0.172
602.21	0.175
602.65	0.177
603.10	0.177
603.55	0.180
604.00	0.182
604.45	0.182
604.90	0.185
605.35	0.187
605.80	0.187
606.25	0.188
606.70	0.191
607.15	0.194
607.60	0.193
608.05	0.190
608.50	0.196
608.95	0.198
609.39	0.201
609.84	0.201
610.29	0.199
610.74	0.203
611.19	0.201
611.64	0.202
612.09	0.204
612.54	0.205
612.99	0.207
613.44	0.205
613.88	0.212
614.33	0.207
614.78	0.211
615.23	0.210
615.68	0.210
616.13	0.211
616.58	0.214
617.03	0.212
617.47	0.215
617.92	0.216
618.37	0.217
618.82	0.216
619.27	0.217
619.72	0.216
620.17	0.217
620.61	0.218
621.06	0.223
621.51	0.219
621.96	0.219
622.41	0.222
622.86	0.219
623.30	0.221
623.75	0.222
624.20	0.223
624.65	0.226
625.10	0.225
625.54	0.227
625.99	0.227
626.44	0.228
626.89	0.226
627.34	0.229
627.78	0.231
628.23	0.231
628.68	0.234
629.13	0.235
629.58	0.232
630.02	0.237
630.47	0.239
630.92	0.240
631.37	0.243
631.81	0.243
632.26	0.243
632.71	0.246
633.16	0.247
633.61	0.249
634.05	0.250
634.50	0.252
634.95	0.255
635.40	0.257
635.84	0.259
636.29	0.260
636.74	0.263
637.18	0.264
637.63	0.265
638.08	0.267
638.53	0.272
638.97	0.272
639.42	0.276
639.87	0.278
640.32	0.278
640.76	0.283
641.21	0.283
641.66	0.285
642.10	0.291
642.55	0.291
643.00	0.295
643.44	0.296
643.89	0.301
644.34	0.303
644.79	0.307
645.23	0.307
645.68	0.312
646.13	0.314
646.57	0.317
647.02	0.316
647.47	0.319
647.91	0.323
648.36	0.326
648.81	0.333
649.25	0.331
649.70	0.334
650.15	0.337
650.59	0.340
651.04	0.342
651.48	0.343
651.93	0.347
652.38	0.349
652.82	0.353
653.27	0.354
653.72	0.359
654.16	0.357
654.61	0.360
655.06	0.362
655.50	0.363
655.95	0.363
656.39	0.368
656.84	0.368
657.29	0.366
657.73	0.370
658.18	0.373
658.62	0.374
659.07	0.376
659.52	0.378
659.96	0.377
660.41	0.379
660.85	0.378
661.30	0.381
661.74	0.381
662.19	0.383
662.64	0.382
663.08	0.382
663.53	0.383
663.97	0.383
664.42	0.383
664.86	0.382
665.31	0.380
665.75	0.382
666.20	0.379
666.65	0.379
667.09	0.377
667.54	0.377
667.98	0.377
668.43	0.373
668.87	0.371
669.32	0.370
669.76	0.366
670.21	0.361
670.65	0.359
671.10	0.356
671.54	0.349
671.99	0.346
672.43	0.340
672.88	0.338
673.32	0.332
673.77	0.324
674.21	0.323
674.66	0.318
675.10	0.311
675.55	0.307
675.99	0.301
676.44	0.295
676.88	0.285
677.33	0.279
677.77	0.272
678.22	0.266
678.66	0.259
679.11	0.252
679.55	0.244
679.99	0.237
680.44	0.231
680.88	0.227
681.33	0.219
681.77	0.211
682.22	0.206
682.66	0.196
683.11	0.191
683.55	0.186
683.99	0.178
684.44	0.172
684.88	0.167
685.33	0.160
685.77	0.156
686.21	0.149
686.66	0.141
687.10	0.138
687.55	0.133
687.99	0.131
688.44	0.124
688.88	0.119
689.32	0.115
689.77	0.109
690.21	0.107
690.65	0.104
691.10	0.095
691.54	0.094
691.99	0.091
692.43	0.085
692.87	0.084
693.32	0.081
693.76	0.080
694.20	0.077
694.65	0.074
695.09	0.072
695.53	0.070
695.98	0.067
696.42	0.061
696.86	0.060
697.31	0.060
697.75	0.058
698.19	0.056
698.64	0.054
699.08	0.051
699.52	0.049
699.97	0.051
700.41	0.049
700.85	0.048
701.30	0.046
701.74	0.044
702.18	0.044
702.63	0.041
703.07	0.043
703.51	0.040
703.96	0.041
704.40	0.041
704.84	0.037
705.28	0.038
705.73	0.035
706.17	0.035
706.61	0.034
707.06	0.034
707.50	0.032
707.94	0.033
708.38	0.031
708.83	0.033
709.27	0.031
709.71	0.033
710.15	0.030
710.60	0.032
711.04	0.028
711.48	0.028
711.92	0.030
712.37	0.030
712.81	0.030
713.25	0.029
713.69	0.028
714.13	0.028
714.58	0.026
715.02	0.027
715.46	0.026
715.90	0.027
716.35	0.026
716.79	0.025
717.23	0.027
717.67	0.026
718.11	0.026
718.56	0.025
719.00	0.026
719.44	0.026
719.88	0.027
720.32	0.028
720.76	0.024
721.21	0.028
721.65	0.026
722.09	0.026
722.53	0.028
722.97	0.030
723.41	0.026
723.86	0.024
724.30	0.025
724.74	0.025
725.18	0.026
725.62	0.027
726.06	0.028
726.50	0.026
726.95	0.026
727.39	0.027
727.83	0.026
728.27	0.024
728.71	0.025
729.15	0.025
729.59	0.028
730.03	0.027
730.48	0.027
730.92	0.029
731.36	0.026
731.80	0.026
732.24	0.028
732.68	0.029
733.12	0.028
733.56	0.026
734.00	0.028
734.44	0.029
734.89	0.029
735.33	0.030
735.77	0.027
736.21	0.031
736.65	0.029
737.09	0.028
737.53	0.030
737.97	0.032
738.41	0.031
738.85	0.028
739.29	0.026
739.73	0.028
740.17	0.028
740.61	0.031
741.05	0.031
741.49	0.028
741.93	0.030
742.37	0.031
742.81	0.030
743.26	0.030
743.70	0.029
744.14	0.031
744.58	0.027
745.02	0.030
745.46	0.028
745.90	0.029
746.34	0.031
746.78	0.032
747.22	0.031
747.66	0.027
748.10	0.028
748.54	0.032
748.98	0.032
749.42	0.031
749.86	0.031
750.29	0.032
750.73	0.028
751.17	0.027
751.61	0.029
752.05	0.030
752.49	0.026
752.93	0.030
753.37	0.030
753.81	0.028
754.25	0.028
754.69	0.027
755.13	0.028
755.57	0.031
756.01	0.030
756.45	0.028
756.89	0.028
757.33	0.032
757.77	0.030
758.21	0.028
758.64	0.033
759.08	0.031
759.52	0.029
759.96	0.031
760.40	0.027
760.84	0.028
761.28	0.030
761.72	0.029
762.16	0.031
762.60	0.031
763.03	0.027
763.47	0.027
763.91	0.026
764.35	0.029
764.79	0.031
765.23	0.027
765.67	0.027
766.11	0.028
766.54	0.030
766.98	0.027
767.42	0.028
767.86	0.029
768.30	0.030
768.74	0.029
769.17	0.031
769.61	0.032
770.05	0.028
770.49	0.028
770.93	0.032
771.37	0.028
771.80	0.029
772.24	0.029
772.68	0.025
773.12	0.028
773.56	0.029
774.00	0.028
774.43	0.030
774.87	0.027
775.31	0.029
775.75	0.029
776.19	0.028
776.62	0.028
777.06	0.024
777.50	0.028
777.94	0.029
778.37	0.030
778.81	0.031
779.25	0.032
779.69	0.026
780.13	0.027
780.56	0.029
781.00	0.030
781.44	0.029
781.88	0.031
782.31	0.031
782.75	0.031
783.19	0.030
783.63	0.033
784.06	0.026
784.50	0.030
784.94	0.028
785.37	0.029
785.81	0.028
786.25	0.025
786.69	0.029
787.12	0.029
787.56	0.030
788.00	0.024
788.43	0.024
788.87	0.029
789.31	0.029
789.75	0.031
790.18	0.027
790.62	0.027
791.06	0.031
791.49	0.032
791.93	0.026
792.37	0.024
792.80	0.026
793.24	0.028
793.68	0.028
794.11	0.030
794.55	0.027
794.99	0.030
795.42	0.030
795.86	0.030
796.30	0.026
796.73	0.026
797.17	0.031
797.61	0.025
798.04	0.024
798.48	0.024
798.91	0.025
799.35	0.028
799.79	0.026
800.22	0.028
800.66	0.024
801.10	0.033
801.53	0.025
801.97	0.030
802.40	0.026
802.84	0.028
803.28	0.029
803.71	0.027
804.15	0.028
804.58	0.025
805.02	0.025
805.46	0.027
805.89	0.025
806.33	0.026
806.76	0.027
807.20	0.029
807.63	0.027
808.07	0.027
808.51	0.022
808.94	0.028
809.38	0.031
809.81	0.026
810.25	0.029
810.68	0.029
811.12	0.028
811.55	0.026
811.99	0.026
812.42	0.027
812.86	0.029
813.29	0.027
813.73	0.028
814.17	0.028
814.60	0.027
815.04	0.027
815.47	0.024
815.91	0.030
816.34	0.029
816.78	0.034
817.21	0.024
817.65	0.030
818.08	0.034
