SpectraSuite Data File
++++++++++++++++++++++++++++++++++++
Date: Tue Jul 11 16:00:02 CEST 2017
User: IPCE
Dark Spectrum Present: Yes
Reference Spectrum Present: Yes
Number of Sampled Component Spectra: 1
Spectrometers: HR+C0708
Integration Time (usec): 1000 (HR+C0708)
Spectra Averaged: 10 (HR+C0708)
Boxcar Smoothing: 0 (HR+C0708)
Correct for Electrical Dark: No (HR+C0708)
Strobe/Lamp Enabled: No (HR+C0708)
Correct for Detector Non-linearity: No (HR+C0708)
Correct for Stray Light: No (HR+C0708)
Number of Pixels in Processed Spectrum: 2048
>>>>>Begin Processed Spectral Data<<<<<
188.76	-0.103
189.23	-0.257
189.70	-0.271
190.17	0.093
190.64	-0.000
191.12	0.410
191.59	0.112
192.06	0.368
192.53	0.185
193.01	0.104
193.48	0.439
193.95	0.190
194.42	0.136
194.90	-0.030
195.37	0.052
195.84	0.232
196.31	-0.000
196.78	-0.028
197.26	0.560
197.73	-0.003
198.20	0.079
198.67	0.139
199.14	-0.010
199.62	1.000
200.09	0.286
200.56	0.313
201.03	0.259
201.50	0.379
201.97	0.163
202.45	0.397
202.92	0.303
203.39	0.314
203.86	0.250
204.33	0.338
204.80	0.334
205.28	0.313
205.75	0.189
206.22	0.277
206.69	0.374
207.16	0.187
207.63	0.273
208.11	0.303
208.58	0.200
209.05	0.319
209.52	0.569
209.99	0.459
210.46	0.197
210.93	0.276
211.41	0.312
211.88	0.347
212.35	0.327
212.82	0.252
213.29	0.393
213.76	0.297
214.23	0.329
214.70	0.256
215.18	0.309
215.65	0.205
216.12	0.374
216.59	0.201
217.06	0.378
217.53	0.315
218.00	0.330
218.47	0.477
218.94	0.202
219.41	0.430
219.89	0.397
220.36	0.325
220.83	0.390
221.30	0.425
221.77	0.397
222.24	0.253
222.71	0.534
223.18	0.431
223.65	0.575
224.12	0.441
224.59	0.617
225.06	0.568
225.54	0.505
226.01	0.519
226.48	0.717
226.95	0.631
227.42	0.685
227.89	0.778
228.36	0.841
228.83	0.921
229.30	0.802
229.77	1.006
230.24	1.112
230.71	1.044
231.18	1.053
231.65	1.278
232.12	1.422
232.59	1.244
233.06	1.389
233.53	1.398
234.00	1.497
234.47	1.419
234.94	1.496
235.41	1.555
235.88	1.529
236.35	1.526
236.82	1.733
237.29	1.768
237.76	1.857
238.23	1.848
238.70	1.975
239.17	1.899
239.64	1.888
240.11	1.950
240.58	1.980
241.05	2.044
241.52	1.959
241.99	2.015
242.46	1.925
242.93	2.057
243.40	2.122
243.87	2.172
244.34	2.105
244.81	2.093
245.28	2.095
245.75	2.202
246.22	2.242
246.69	2.125
247.16	2.220
247.63	2.179
248.10	2.201
248.57	2.192
249.04	2.156
249.51	2.251
249.98	2.096
250.45	2.275
250.92	2.173
251.39	2.087
251.85	2.033
252.32	1.945
252.79	1.821
253.26	1.800
253.73	1.718
254.20	1.603
254.67	1.501
255.14	1.460
255.61	1.401
256.08	1.353
256.55	1.294
257.02	1.246
257.49	1.211
257.95	1.164
258.42	1.130
258.89	1.094
259.36	1.070
259.83	1.035
260.30	1.011
260.77	0.993
261.24	0.966
261.71	0.939
262.17	0.924
262.64	0.908
263.11	0.884
263.58	0.870
264.05	0.855
264.52	0.841
264.99	0.822
265.46	0.811
265.92	0.795
266.39	0.788
266.86	0.772
267.33	0.755
267.80	0.752
268.27	0.739
268.74	0.728
269.20	0.722
269.67	0.710
270.14	0.699
270.61	0.693
271.08	0.684
271.55	0.674
272.01	0.668
272.48	0.662
272.95	0.652
273.42	0.642
273.89	0.643
274.36	0.633
274.82	0.630
275.29	0.627
275.76	0.620
276.23	0.613
276.70	0.608
277.16	0.609
277.63	0.599
278.10	0.601
278.57	0.594
279.04	0.589
279.50	0.593
279.97	0.587
280.44	0.584
280.91	0.581
281.38	0.581
281.84	0.578
282.31	0.579
282.78	0.573
283.25	0.574
283.72	0.573
284.18	0.574
284.65	0.573
285.12	0.566
285.59	0.568
286.05	0.568
286.52	0.570
286.99	0.567
287.46	0.569
287.92	0.566
288.39	0.569
288.86	0.567
289.33	0.571
289.79	0.563
290.26	0.560
290.73	0.566
291.20	0.561
291.66	0.563
292.13	0.556
292.60	0.551
293.07	0.544
293.53	0.542
294.00	0.539
294.47	0.533
294.93	0.525
295.40	0.517
295.87	0.513
296.34	0.504
296.80	0.498
297.27	0.489
297.74	0.484
298.20	0.475
298.67	0.472
299.14	0.459
299.60	0.453
300.07	0.444
300.54	0.436
301.01	0.429
301.47	0.421
301.94	0.414
302.41	0.405
302.87	0.396
303.34	0.389
303.81	0.383
304.27	0.378
304.74	0.372
305.21	0.366
305.67	0.357
306.14	0.351
306.61	0.347
307.07	0.341
307.54	0.337
308.01	0.328
308.47	0.327
308.94	0.319
309.40	0.317
309.87	0.312
310.34	0.309
310.80	0.307
311.27	0.304
311.74	0.299
312.20	0.296
312.67	0.297
313.13	0.290
313.60	0.290
314.07	0.285
314.53	0.281
315.00	0.284
315.47	0.280
315.93	0.275
316.40	0.280
316.86	0.276
317.33	0.275
317.80	0.269
318.26	0.266
318.73	0.269
319.19	0.265
319.66	0.266
320.13	0.263
320.59	0.260
321.06	0.256
321.52	0.257
321.99	0.258
322.45	0.253
322.92	0.250
323.39	0.249
323.85	0.251
324.32	0.249
324.78	0.246
325.25	0.242
325.71	0.241
326.18	0.238
326.64	0.239
327.11	0.238
327.58	0.240
328.04	0.236
328.51	0.234
328.97	0.231
329.44	0.230
329.90	0.232
330.37	0.226
330.83	0.227
331.30	0.224
331.76	0.222
332.23	0.219
332.69	0.215
333.16	0.218
333.62	0.215
334.09	0.211
334.56	0.211
335.02	0.205
335.49	0.203
335.95	0.205
336.42	0.202
336.88	0.198
337.35	0.198
337.81	0.197
338.28	0.195
338.74	0.194
339.20	0.191
339.67	0.195
340.13	0.191
340.60	0.191
341.06	0.188
341.53	0.185
341.99	0.186
342.46	0.185
342.92	0.183
343.39	0.181
343.85	0.180
344.32	0.179
344.78	0.182
345.25	0.178
345.71	0.181
346.17	0.178
346.64	0.178
347.10	0.177
347.57	0.174
348.03	0.173
348.50	0.171
348.96	0.167
349.43	0.169
349.89	0.166
350.35	0.168
350.82	0.167
351.28	0.166
351.75	0.166
352.21	0.162
352.67	0.155
353.14	0.159
353.60	0.155
354.07	0.151
354.53	0.154
355.00	0.151
355.46	0.146
355.92	0.145
356.39	0.144
356.85	0.140
357.31	0.137
357.78	0.137
358.24	0.129
358.71	0.133
359.17	0.127
359.63	0.124
360.10	0.123
360.56	0.118
361.03	0.114
361.49	0.114
361.95	0.109
362.42	0.103
362.88	0.102
363.34	0.098
363.81	0.095
364.27	0.091
364.73	0.089
365.20	0.084
365.66	0.083
366.12	0.082
366.59	0.078
367.05	0.077
367.51	0.075
367.98	0.073
368.44	0.073
368.90	0.073
369.37	0.072
369.83	0.069
370.29	0.068
370.76	0.069
371.22	0.067
371.68	0.069
372.15	0.065
372.61	0.069
373.07	0.066
373.54	0.066
374.00	0.064
374.46	0.066
374.92	0.064
375.39	0.065
375.85	0.065
376.31	0.063
376.78	0.065
377.24	0.061
377.70	0.062
378.16	0.064
378.63	0.061
379.09	0.059
379.55	0.061
380.01	0.062
380.48	0.061
380.94	0.063
381.40	0.061
381.87	0.060
382.33	0.061
382.79	0.060
383.25	0.059
383.72	0.060
384.18	0.060
384.64	0.057
385.10	0.059
385.56	0.060
386.03	0.058
386.49	0.058
386.95	0.058
387.41	0.058
387.88	0.059
388.34	0.059
388.80	0.058
389.26	0.058
389.72	0.057
390.19	0.058
390.65	0.057
391.11	0.058
391.57	0.058
392.04	0.056
392.50	0.054
392.96	0.058
393.42	0.058
393.88	0.061
394.34	0.060
394.81	0.056
395.27	0.055
395.73	0.053
396.19	0.057
396.65	0.058
397.12	0.054
397.58	0.053
398.04	0.054
398.50	0.055
398.96	0.054
399.42	0.052
399.89	0.054
400.35	0.052
400.81	0.054
401.27	0.057
401.73	0.053
402.19	0.052
402.65	0.053
403.12	0.051
403.58	0.052
404.04	0.050
404.50	0.051
404.96	0.052
405.42	0.051
405.88	0.051
406.34	0.051
406.81	0.050
407.27	0.051
407.73	0.050
408.19	0.047
408.65	0.049
409.11	0.050
409.57	0.050
410.03	0.050
410.49	0.050
410.96	0.047
411.42	0.049
411.88	0.049
412.34	0.046
412.80	0.045
413.26	0.049
413.72	0.045
414.18	0.048
414.64	0.042
415.10	0.047
415.56	0.047
416.02	0.044
416.48	0.043
416.95	0.046
417.41	0.047
417.87	0.044
418.33	0.047
418.79	0.049
419.25	0.047
419.71	0.043
420.17	0.045
420.63	0.046
421.09	0.044
421.55	0.045
422.01	0.042
422.47	0.043
422.93	0.046
423.39	0.045
423.85	0.045
424.31	0.044
424.77	0.040
425.23	0.045
425.69	0.046
426.15	0.046
426.61	0.042
427.07	0.044
427.53	0.045
427.99	0.045
428.45	0.044
428.91	0.042
429.37	0.043
429.83	0.041
430.29	0.044
430.75	0.041
431.21	0.043
431.67	0.044
432.13	0.043
432.59	0.041
433.05	0.044
433.51	0.044
433.97	0.046
434.43	0.042
434.89	0.040
435.35	0.042
435.81	0.039
436.27	0.042
436.73	0.041
437.19	0.041
437.65	0.042
438.11	0.043
438.57	0.043
439.03	0.040
439.48	0.040
439.94	0.042
440.40	0.042
440.86	0.043
441.32	0.042
441.78	0.043
442.24	0.042
442.70	0.042
443.16	0.042
443.62	0.042
444.08	0.043
444.54	0.044
444.99	0.040
445.45	0.042
445.91	0.040
446.37	0.042
446.83	0.043
447.29	0.043
447.75	0.041
448.21	0.044
448.67	0.041
449.12	0.040
449.58	0.037
450.04	0.040
450.50	0.039
450.96	0.037
451.42	0.040
451.88	0.040
452.34	0.041
452.79	0.039
453.25	0.042
453.71	0.038
454.17	0.038
454.63	0.040
455.09	0.042
455.55	0.041
456.00	0.039
456.46	0.040
456.92	0.041
457.38	0.043
457.84	0.039
458.30	0.042
458.75	0.042
459.21	0.041
459.67	0.041
460.13	0.042
460.59	0.044
461.04	0.038
461.50	0.040
461.96	0.039
462.42	0.042
462.88	0.039
463.33	0.041
463.79	0.041
464.25	0.039
464.71	0.041
465.17	0.040
465.62	0.041
466.08	0.040
466.54	0.041
467.00	0.042
467.46	0.042
467.91	0.043
468.37	0.041
468.83	0.041
469.29	0.041
469.74	0.042
470.20	0.041
470.66	0.042
471.12	0.043
471.57	0.043
472.03	0.043
472.49	0.042
472.95	0.041
473.40	0.042
473.86	0.040
474.32	0.042
474.78	0.041
475.23	0.042
475.69	0.043
476.15	0.044
476.60	0.042
477.06	0.043
477.52	0.043
477.98	0.043
478.43	0.043
478.89	0.043
479.35	0.042
479.80	0.044
480.26	0.041
480.72	0.044
481.18	0.042
481.63	0.043
482.09	0.043
482.55	0.042
483.00	0.042
483.46	0.043
483.92	0.043
484.37	0.046
484.83	0.044
485.29	0.044
485.74	0.044
486.20	0.044
486.66	0.045
487.11	0.044
487.57	0.044
488.03	0.045
488.48	0.041
488.94	0.044
489.40	0.044
489.85	0.043
490.31	0.041
490.77	0.044
491.22	0.043
491.68	0.044
492.13	0.043
492.59	0.045
493.05	0.044
493.50	0.045
493.96	0.041
494.42	0.045
494.87	0.043
495.33	0.042
495.78	0.043
496.24	0.041
496.70	0.043
497.15	0.044
497.61	0.044
498.06	0.044
498.52	0.044
498.98	0.044
499.43	0.045
499.89	0.042
500.34	0.043
500.80	0.045
501.25	0.045
501.71	0.044
502.17	0.043
502.62	0.042
503.08	0.040
503.53	0.043
503.99	0.045
504.44	0.044
504.90	0.042
505.36	0.042
505.81	0.044
506.27	0.043
506.72	0.043
507.18	0.044
507.63	0.043
508.09	0.042
508.54	0.045
509.00	0.043
509.45	0.045
509.91	0.044
510.36	0.043
510.82	0.044
511.27	0.042
511.73	0.043
512.19	0.042
512.64	0.042
513.10	0.044
513.55	0.044
514.01	0.042
514.46	0.043
514.92	0.042
515.37	0.042
515.83	0.041
516.28	0.046
516.73	0.042
517.19	0.042
517.64	0.043
518.10	0.043
518.55	0.045
519.01	0.043
519.46	0.041
519.92	0.044
520.37	0.045
520.83	0.046
521.28	0.042
521.74	0.042
522.19	0.043
522.65	0.043
523.10	0.045
523.55	0.043
524.01	0.042
524.46	0.045
524.92	0.043
525.37	0.042
525.83	0.045
526.28	0.040
526.73	0.045
527.19	0.044
527.64	0.046
528.10	0.044
528.55	0.044
529.01	0.044
529.46	0.045
529.91	0.044
530.37	0.043
530.82	0.045
531.28	0.047
531.73	0.044
532.18	0.047
532.64	0.042
533.09	0.045
533.54	0.045
534.00	0.043
534.45	0.047
534.91	0.045
535.36	0.047
535.81	0.044
536.27	0.048
536.72	0.043
537.17	0.047
537.63	0.049
538.08	0.047
538.54	0.047
538.99	0.045
539.44	0.050
539.90	0.048
540.35	0.049
540.80	0.048
541.26	0.048
541.71	0.052
542.16	0.049
542.62	0.050
543.07	0.051
543.52	0.050
543.98	0.052
544.43	0.052
544.88	0.051
545.34	0.054
545.79	0.053
546.24	0.054
546.69	0.052
547.15	0.052
547.60	0.056
548.05	0.054
548.51	0.054
548.96	0.057
549.41	0.056
549.86	0.056
550.32	0.057
550.77	0.057
551.22	0.059
551.68	0.059
552.13	0.058
552.58	0.060
553.03	0.058
553.49	0.061
553.94	0.058
554.39	0.061
554.84	0.062
555.30	0.061
555.75	0.062
556.20	0.063
556.65	0.063
557.11	0.064
557.56	0.067
558.01	0.063
558.46	0.065
558.92	0.067
559.37	0.068
559.82	0.070
560.27	0.067
560.72	0.068
561.18	0.068
561.63	0.072
562.08	0.072
562.53	0.070
562.99	0.071
563.44	0.071
563.89	0.073
564.34	0.074
564.79	0.074
565.25	0.076
565.70	0.076
566.15	0.076
566.60	0.076
567.05	0.080
567.50	0.079
567.96	0.080
568.41	0.082
568.86	0.079
569.31	0.083
569.76	0.085
570.21	0.082
570.67	0.081
571.12	0.084
571.57	0.087
572.02	0.087
572.47	0.088
572.92	0.088
573.37	0.089
573.83	0.091
574.28	0.093
574.73	0.091
575.18	0.094
575.63	0.093
576.08	0.093
576.53	0.096
576.98	0.097
577.44	0.097
577.89	0.097
578.34	0.099
578.79	0.104
579.24	0.100
579.69	0.104
580.14	0.104
580.59	0.104
581.04	0.107
581.49	0.108
581.95	0.110
582.40	0.110
582.85	0.110
583.30	0.112
583.75	0.113
584.20	0.116
584.65	0.115
585.10	0.117
585.55	0.117
586.00	0.121
586.45	0.123
586.90	0.124
587.35	0.125
587.80	0.128
588.25	0.129
588.71	0.129
589.16	0.132
589.61	0.134
590.06	0.137
590.51	0.138
590.96	0.139
591.41	0.141
591.86	0.141
592.31	0.145
592.76	0.146
593.21	0.147
593.66	0.149
594.11	0.152
594.56	0.154
595.01	0.156
595.46	0.158
595.91	0.159
596.36	0.163
596.81	0.166
597.26	0.165
597.71	0.169
598.16	0.169
598.61	0.173
599.06	0.174
599.51	0.172
599.96	0.177
600.41	0.177
600.86	0.181
601.31	0.183
601.76	0.185
602.21	0.186
602.65	0.189
603.10	0.189
603.55	0.191
604.00	0.192
604.45	0.194
604.90	0.197
605.35	0.199
605.80	0.199
606.25	0.199
606.70	0.204
607.15	0.204
607.60	0.206
608.05	0.208
608.50	0.211
608.95	0.213
609.39	0.211
609.84	0.214
610.29	0.212
610.74	0.218
611.19	0.216
611.64	0.219
612.09	0.219
612.54	0.220
612.99	0.222
613.44	0.222
613.88	0.225
614.33	0.223
614.78	0.225
615.23	0.224
615.68	0.226
616.13	0.226
616.58	0.226
617.03	0.228
617.47	0.229
617.92	0.231
618.37	0.231
618.82	0.232
619.27	0.232
619.72	0.233
620.17	0.231
620.61	0.232
621.06	0.236
621.51	0.236
621.96	0.234
622.41	0.239
622.86	0.237
623.30	0.238
623.75	0.239
624.20	0.241
624.65	0.243
625.10	0.239
625.54	0.243
625.99	0.244
626.44	0.244
626.89	0.244
627.34	0.247
627.78	0.247
628.23	0.248
628.68	0.250
629.13	0.252
629.58	0.249
630.02	0.254
630.47	0.253
630.92	0.256
631.37	0.259
631.81	0.261
632.26	0.263
632.71	0.264
633.16	0.267
633.61	0.267
634.05	0.268
634.50	0.272
634.95	0.274
635.40	0.274
635.84	0.277
636.29	0.280
636.74	0.282
637.18	0.283
637.63	0.285
638.08	0.286
638.53	0.291
638.97	0.293
639.42	0.297
639.87	0.299
640.32	0.304
640.76	0.307
641.21	0.308
641.66	0.311
642.10	0.314
642.55	0.317
643.00	0.320
643.44	0.324
643.89	0.325
644.34	0.330
644.79	0.333
645.23	0.335
645.68	0.339
646.13	0.340
646.57	0.345
647.02	0.346
647.47	0.348
647.91	0.352
648.36	0.358
648.81	0.363
649.25	0.361
649.70	0.366
650.15	0.369
650.59	0.370
651.04	0.374
651.48	0.374
651.93	0.379
652.38	0.382
652.82	0.387
653.27	0.387
653.72	0.389
654.16	0.391
654.61	0.395
655.06	0.397
655.50	0.398
655.95	0.399
656.39	0.401
656.84	0.403
657.29	0.405
657.73	0.407
658.18	0.412
658.62	0.411
659.07	0.412
659.52	0.417
659.96	0.417
660.41	0.417
660.85	0.413
661.30	0.417
661.74	0.422
662.19	0.420
662.64	0.422
663.08	0.424
663.53	0.424
663.97	0.424
664.42	0.424
664.86	0.422
665.31	0.422
665.75	0.421
666.20	0.419
666.65	0.418
667.09	0.419
667.54	0.416
667.98	0.415
668.43	0.414
668.87	0.412
669.32	0.408
669.76	0.406
670.21	0.403
670.65	0.397
671.10	0.395
671.54	0.388
671.99	0.387
672.43	0.379
672.88	0.374
673.32	0.368
673.77	0.361
674.21	0.357
674.66	0.353
675.10	0.346
675.55	0.341
675.99	0.333
676.44	0.326
676.88	0.316
677.33	0.308
677.77	0.299
678.22	0.295
678.66	0.289
679.11	0.277
679.55	0.273
679.99	0.264
680.44	0.256
680.88	0.247
681.33	0.241
681.77	0.234
682.22	0.223
682.66	0.217
683.11	0.211
683.55	0.204
683.99	0.198
684.44	0.189
684.88	0.181
685.33	0.175
685.77	0.166
686.21	0.163
686.66	0.156
687.10	0.149
687.55	0.143
687.99	0.141
688.44	0.134
688.88	0.128
689.32	0.123
689.77	0.116
690.21	0.114
690.65	0.109
691.10	0.102
691.54	0.101
691.99	0.095
692.43	0.092
692.87	0.088
693.32	0.085
693.76	0.083
694.20	0.079
694.65	0.076
695.09	0.073
695.53	0.072
695.98	0.071
696.42	0.065
696.86	0.063
697.31	0.061
697.75	0.059
698.19	0.055
698.64	0.054
699.08	0.055
699.52	0.050
699.97	0.050
700.41	0.050
700.85	0.047
701.30	0.045
701.74	0.041
702.18	0.043
702.63	0.041
703.07	0.040
703.51	0.038
703.96	0.039
704.40	0.040
704.84	0.037
705.28	0.036
705.73	0.034
706.17	0.033
706.61	0.036
707.06	0.033
707.50	0.031
707.94	0.031
708.38	0.030
708.83	0.030
709.27	0.027
709.71	0.031
710.15	0.028
710.60	0.030
711.04	0.028
711.48	0.028
711.92	0.028
712.37	0.026
712.81	0.026
713.25	0.026
713.69	0.025
714.13	0.026
714.58	0.024
715.02	0.025
715.46	0.022
715.90	0.026
716.35	0.023
716.79	0.023
717.23	0.025
717.67	0.024
718.11	0.021
718.56	0.023
719.00	0.024
719.44	0.023
719.88	0.026
720.32	0.024
720.76	0.022
721.21	0.026
721.65	0.024
722.09	0.023
722.53	0.024
722.97	0.024
723.41	0.023
723.86	0.022
724.30	0.022
724.74	0.023
725.18	0.025
725.62	0.023
726.06	0.022
726.50	0.023
726.95	0.024
727.39	0.024
727.83	0.022
728.27	0.022
728.71	0.020
729.15	0.024
729.59	0.026
730.03	0.026
730.48	0.022
730.92	0.025
731.36	0.022
731.80	0.026
732.24	0.023
732.68	0.026
733.12	0.025
733.56	0.025
734.00	0.028
734.44	0.028
734.89	0.024
735.33	0.026
735.77	0.025
736.21	0.028
736.65	0.028
737.09	0.026
737.53	0.027
737.97	0.026
738.41	0.026
738.85	0.026
739.29	0.026
739.73	0.027
740.17	0.027
740.61	0.029
741.05	0.027
741.49	0.026
741.93	0.027
742.37	0.026
742.81	0.027
743.26	0.024
743.70	0.026
744.14	0.026
744.58	0.027
745.02	0.028
745.46	0.023
745.90	0.025
746.34	0.026
746.78	0.027
747.22	0.027
747.66	0.026
748.10	0.028
748.54	0.027
748.98	0.026
749.42	0.027
749.86	0.028
750.29	0.027
750.73	0.026
751.17	0.024
751.61	0.028
752.05	0.026
752.49	0.026
752.93	0.024
753.37	0.026
753.81	0.026
754.25	0.026
754.69	0.027
755.13	0.028
755.57	0.027
756.01	0.025
756.45	0.024
756.89	0.028
757.33	0.029
757.77	0.025
758.21	0.027
758.64	0.027
759.08	0.026
759.52	0.026
759.96	0.026
760.40	0.026
760.84	0.024
761.28	0.028
761.72	0.024
762.16	0.026
762.60	0.023
763.03	0.024
763.47	0.023
763.91	0.022
764.35	0.025
764.79	0.028
765.23	0.025
765.67	0.026
766.11	0.027
766.54	0.030
766.98	0.024
767.42	0.027
767.86	0.027
768.30	0.028
768.74	0.025
769.17	0.029
769.61	0.027
770.05	0.026
770.49	0.026
770.93	0.025
771.37	0.025
771.80	0.024
772.24	0.027
772.68	0.025
773.12	0.025
773.56	0.024
774.00	0.027
774.43	0.027
774.87	0.025
775.31	0.027
775.75	0.027
776.19	0.024
776.62	0.027
777.06	0.025
777.50	0.026
777.94	0.025
778.37	0.024
778.81	0.026
779.25	0.026
779.69	0.025
780.13	0.025
780.56	0.025
781.00	0.030
781.44	0.029
781.88	0.026
782.31	0.027
782.75	0.025
783.19	0.027
783.63	0.029
784.06	0.023
784.50	0.027
784.94	0.027
785.37	0.026
785.81	0.029
786.25	0.024
786.69	0.027
787.12	0.026
787.56	0.028
788.00	0.023
788.43	0.026
788.87	0.026
789.31	0.026
789.75	0.028
790.18	0.023
790.62	0.029
791.06	0.028
791.49	0.028
791.93	0.023
792.37	0.020
792.80	0.024
793.24	0.025
793.68	0.026
794.11	0.027
794.55	0.024
794.99	0.025
795.42	0.025
795.86	0.028
796.30	0.027
796.73	0.026
797.17	0.028
797.61	0.022
798.04	0.023
798.48	0.023
798.91	0.022
799.35	0.023
799.79	0.025
800.22	0.023
800.66	0.021
801.10	0.026
801.53	0.026
801.97	0.024
802.40	0.027
802.84	0.027
803.28	0.026
803.71	0.024
804.15	0.030
804.58	0.023
805.02	0.021
805.46	0.023
805.89	0.024
806.33	0.024
806.76	0.024
807.20	0.025
807.63	0.025
808.07	0.026
808.51	0.022
808.94	0.026
809.38	0.028
809.81	0.023
810.25	0.026
810.68	0.029
811.12	0.024
811.55	0.023
811.99	0.029
812.42	0.025
812.86	0.025
813.29	0.024
813.73	0.026
814.17	0.029
814.60	0.025
815.04	0.023
815.47	0.026
815.91	0.027
816.34	0.026
816.78	0.026
817.21	0.023
817.65	0.026
