SpectraSuite Data File
++++++++++++++++++++++++++++++++++++
Date: Tue Jul 11 13:46:59 CEST 2017
User: IPCE
Dark Spectrum Present: Yes
Reference Spectrum Present: Yes
Number of Sampled Component Spectra: 1
Spectrometers: HR+C0708
Integration Time (usec): 1000 (HR+C0708)
Spectra Averaged: 10 (HR+C0708)
Boxcar Smoothing: 0 (HR+C0708)
Correct for Electrical Dark: No (HR+C0708)
Strobe/Lamp Enabled: No (HR+C0708)
Correct for Detector Non-linearity: No (HR+C0708)
Correct for Stray Light: No (HR+C0708)
Number of Pixels in Processed Spectrum: 2048
>>>>>Begin Processed Spectral Data<<<<<
188.76	0.418
189.23	0.279
189.70	0.390
190.17	0.987
190.64	0.408
191.12	0.163
191.59	0.469
192.06	0.221
192.53	0.544
193.01	0.262
193.48	0.732
193.95	0.287
194.42	-0.004
194.90	0.444
195.37	0.336
195.84	0.199
196.31	1.260
196.78	0.626
197.26	0.862
197.73	0.061
198.20	-0.209
198.67	-0.000
199.14	-0.000
199.62	-0.554
200.09	0.356
200.56	0.249
201.03	0.375
201.50	0.296
201.97	0.542
202.45	0.472
202.92	0.745
203.39	0.443
203.86	0.578
204.33	0.446
204.80	0.458
205.28	0.790
205.75	0.322
206.22	0.391
206.69	0.411
207.16	0.387
207.63	0.488
208.11	0.597
208.58	0.459
209.05	0.790
209.52	0.424
209.99	0.434
210.46	0.519
210.93	0.416
211.41	0.562
211.88	0.500
212.35	0.341
212.82	0.540
213.29	0.668
213.76	0.458
214.23	0.539
214.70	0.715
215.18	0.600
215.65	0.661
216.12	0.748
216.59	0.460
217.06	0.677
217.53	0.484
218.00	0.526
218.47	0.774
218.94	0.668
219.41	0.652
219.89	0.860
220.36	0.703
220.83	1.060
221.30	0.613
221.77	0.641
222.24	0.618
222.71	0.498
223.18	0.608
223.65	0.866
224.12	0.641
224.59	0.734
225.06	0.583
225.54	0.759
226.01	0.971
226.48	0.730
226.95	0.790
227.42	1.046
227.89	0.940
228.36	1.136
228.83	1.100
229.30	1.235
229.77	1.193
230.24	1.382
230.71	1.764
231.18	1.283
231.65	1.314
232.12	1.417
232.59	1.606
233.06	1.516
233.53	1.632
234.00	1.454
234.47	1.772
234.94	1.818
235.41	1.822
235.88	1.822
236.35	1.902
236.82	2.027
237.29	1.836
237.76	2.168
238.23	2.157
238.70	2.017
239.17	2.131
239.64	2.337
240.11	2.145
240.58	2.050
241.05	2.132
241.52	2.524
241.99	2.123
242.46	2.306
242.93	2.365
243.40	2.346
243.87	2.437
244.34	2.457
244.81	2.312
245.28	2.458
245.75	2.356
246.22	2.286
246.69	2.349
247.16	2.563
247.63	2.557
248.10	3.011
248.57	2.341
249.04	2.377
249.51	2.339
249.98	2.758
250.45	2.485
250.92	2.428
251.39	2.409
251.85	2.477
252.32	2.482
252.79	2.362
253.26	2.696
253.73	2.895
254.20	2.427
254.67	2.723
255.14	2.430
255.61	2.534
256.08	2.735
256.55	2.526
257.02	2.634
257.49	2.565
257.95	2.540
258.42	2.683
258.89	2.628
259.36	2.570
259.83	2.654
260.30	2.707
260.77	2.714
261.24	2.507
261.71	2.593
262.17	2.683
262.64	2.592
263.11	2.830
263.58	2.657
264.05	2.718
264.52	2.697
264.99	2.753
265.46	2.736
265.92	2.741
266.39	2.554
266.86	2.558
267.33	2.560
267.80	2.740
268.27	2.680
268.74	3.028
269.20	2.694
269.67	2.477
270.14	2.776
270.61	2.594
271.08	2.719
271.55	2.621
272.01	2.531
272.48	2.752
272.95	2.645
273.42	2.537
273.89	2.541
274.36	2.615
274.82	2.656
275.29	2.705
275.76	2.486
276.23	2.442
276.70	2.550
277.16	2.597
277.63	2.745
278.10	2.693
278.57	2.686
279.04	2.594
279.50	2.481
279.97	2.417
280.44	2.757
280.91	2.539
281.38	2.586
281.84	2.537
282.31	2.525
282.78	2.742
283.25	2.662
283.72	2.452
284.18	2.514
284.65	2.613
285.12	2.593
285.59	2.552
286.05	2.490
286.52	2.579
286.99	2.634
287.46	2.536
287.92	2.541
288.39	2.548
288.86	2.677
289.33	2.428
289.79	2.544
290.26	2.518
290.73	2.541
291.20	2.599
291.66	2.630
292.13	2.457
292.60	2.495
293.07	2.557
293.53	2.586
294.00	2.515
294.47	2.545
294.93	2.574
295.40	2.465
295.87	2.533
296.34	2.646
296.80	2.519
297.27	2.474
297.74	2.389
298.20	2.522
298.67	2.487
299.14	2.422
299.60	2.505
300.07	2.443
300.54	2.389
301.01	2.590
301.47	2.451
301.94	2.347
302.41	2.424
302.87	2.370
303.34	2.430
303.81	2.436
304.27	2.365
304.74	2.420
305.21	2.355
305.67	2.390
306.14	2.448
306.61	2.418
307.07	2.321
307.54	2.422
308.01	2.525
308.47	2.386
308.94	2.339
309.40	2.317
309.87	2.418
310.34	2.472
310.80	2.348
311.27	2.424
311.74	2.522
312.20	2.279
312.67	2.303
313.13	2.387
313.60	2.334
314.07	2.339
314.53	2.257
315.00	2.363
315.47	2.368
315.93	2.340
316.40	2.392
316.86	2.446
317.33	2.404
317.80	2.397
318.26	2.344
318.73	2.335
319.19	2.321
319.66	2.331
320.13	2.255
320.59	2.244
321.06	2.293
321.52	2.308
321.99	2.262
322.45	2.274
322.92	2.226
323.39	2.286
323.85	2.181
324.32	2.169
324.78	2.213
325.25	2.166
325.71	2.140
326.18	2.188
326.64	2.248
327.11	2.193
327.58	2.105
328.04	2.169
328.51	2.130
328.97	2.103
329.44	2.091
329.90	2.164
330.37	2.131
330.83	2.127
331.30	2.114
331.76	2.122
332.23	2.118
332.69	2.078
333.16	2.182
333.62	2.203
334.09	2.105
334.56	2.208
335.02	2.170
335.49	2.147
335.95	2.154
336.42	2.038
336.88	2.120
337.35	2.199
337.81	2.093
338.28	2.096
338.74	2.158
339.20	2.083
339.67	2.123
340.13	2.152
340.60	2.110
341.06	2.133
341.53	2.142
341.99	2.132
342.46	2.122
342.92	2.039
343.39	2.069
343.85	2.091
344.32	2.108
344.78	2.067
345.25	2.090
345.71	2.072
346.17	2.049
346.64	2.028
347.10	1.966
347.57	2.033
348.03	1.942
348.50	1.993
348.96	1.888
349.43	1.881
349.89	1.913
350.35	1.859
350.82	1.842
351.28	1.767
351.75	1.675
352.21	1.671
352.67	1.639
353.14	1.589
353.60	1.595
354.07	1.558
354.53	1.488
355.00	1.470
355.46	1.413
355.92	1.340
356.39	1.275
356.85	1.218
357.31	1.156
357.78	1.073
358.24	0.995
358.71	0.930
359.17	0.851
359.63	0.785
360.10	0.718
360.56	0.657
361.03	0.595
361.49	0.551
361.95	0.513
362.42	0.475
362.88	0.445
363.34	0.412
363.81	0.390
364.27	0.370
364.73	0.349
365.20	0.340
365.66	0.325
366.12	0.315
366.59	0.302
367.05	0.295
367.51	0.289
367.98	0.278
368.44	0.277
368.90	0.270
369.37	0.264
369.83	0.261
370.29	0.260
370.76	0.254
371.22	0.251
371.68	0.250
372.15	0.248
372.61	0.245
373.07	0.243
373.54	0.240
374.00	0.239
374.46	0.238
374.92	0.233
375.39	0.231
375.85	0.231
376.31	0.230
376.78	0.228
377.24	0.226
377.70	0.224
378.16	0.226
378.63	0.224
379.09	0.221
379.55	0.217
380.01	0.216
380.48	0.218
380.94	0.216
381.40	0.216
381.87	0.214
382.33	0.216
382.79	0.212
383.25	0.210
383.72	0.211
384.18	0.211
384.64	0.208
385.10	0.204
385.56	0.205
386.03	0.203
386.49	0.202
386.95	0.200
387.41	0.202
387.88	0.197
388.34	0.200
388.80	0.198
389.26	0.196
389.72	0.196
390.19	0.195
390.65	0.196
391.11	0.197
391.57	0.192
392.04	0.192
392.50	0.191
392.96	0.192
393.42	0.192
393.88	0.191
394.34	0.188
394.81	0.187
395.27	0.185
395.73	0.189
396.19	0.184
396.65	0.184
397.12	0.183
397.58	0.184
398.04	0.182
398.50	0.180
398.96	0.180
399.42	0.182
399.89	0.179
400.35	0.180
400.81	0.177
401.27	0.176
401.73	0.175
402.19	0.174
402.65	0.173
403.12	0.175
403.58	0.173
404.04	0.172
404.50	0.168
404.96	0.169
405.42	0.171
405.88	0.169
406.34	0.170
406.81	0.164
407.27	0.167
407.73	0.165
408.19	0.163
408.65	0.162
409.11	0.165
409.57	0.165
410.03	0.164
410.49	0.157
410.96	0.160
411.42	0.158
411.88	0.158
412.34	0.158
412.80	0.155
413.26	0.157
413.72	0.157
414.18	0.154
414.64	0.151
415.10	0.157
415.56	0.151
416.02	0.150
416.48	0.154
416.95	0.153
417.41	0.153
417.87	0.151
418.33	0.149
418.79	0.149
419.25	0.149
419.71	0.150
420.17	0.147
420.63	0.147
421.09	0.146
421.55	0.147
422.01	0.146
422.47	0.148
422.93	0.148
423.39	0.148
423.85	0.149
424.31	0.146
424.77	0.144
425.23	0.146
425.69	0.143
426.15	0.143
426.61	0.144
427.07	0.142
427.53	0.143
427.99	0.141
428.45	0.138
428.91	0.140
429.37	0.139
429.83	0.139
430.29	0.142
430.75	0.141
431.21	0.138
431.67	0.140
432.13	0.135
432.59	0.137
433.05	0.136
433.51	0.136
433.97	0.138
434.43	0.138
434.89	0.136
435.35	0.133
435.81	0.133
436.27	0.134
436.73	0.135
437.19	0.133
437.65	0.135
438.11	0.132
438.57	0.131
439.03	0.132
439.48	0.129
439.94	0.131
440.40	0.131
440.86	0.129
441.32	0.128
441.78	0.129
442.24	0.129
442.70	0.132
443.16	0.128
443.62	0.133
444.08	0.126
444.54	0.125
444.99	0.124
445.45	0.127
445.91	0.126
446.37	0.125
446.83	0.126
447.29	0.125
447.75	0.123
448.21	0.124
448.67	0.122
449.12	0.127
449.58	0.121
450.04	0.127
450.50	0.123
450.96	0.123
451.42	0.120
451.88	0.122
452.34	0.123
452.79	0.121
453.25	0.120
453.71	0.120
454.17	0.119
454.63	0.118
455.09	0.122
455.55	0.123
456.00	0.119
456.46	0.119
456.92	0.117
457.38	0.116
457.84	0.116
458.30	0.119
458.75	0.119
459.21	0.117
459.67	0.120
460.13	0.116
460.59	0.119
461.04	0.118
461.50	0.116
461.96	0.117
462.42	0.117
462.88	0.116
463.33	0.115
463.79	0.118
464.25	0.117
464.71	0.117
465.17	0.114
465.62	0.117
466.08	0.116
466.54	0.116
467.00	0.116
467.46	0.115
467.91	0.115
468.37	0.116
468.83	0.115
469.29	0.115
469.74	0.115
470.20	0.113
470.66	0.118
471.12	0.115
471.57	0.114
472.03	0.114
472.49	0.116
472.95	0.116
473.40	0.114
473.86	0.114
474.32	0.115
474.78	0.115
475.23	0.113
475.69	0.112
476.15	0.114
476.60	0.114
477.06	0.114
477.52	0.113
477.98	0.114
478.43	0.112
478.89	0.112
479.35	0.113
479.80	0.112
480.26	0.110
480.72	0.110
481.18	0.114
481.63	0.110
482.09	0.110
482.55	0.111
483.00	0.111
483.46	0.111
483.92	0.108
484.37	0.112
484.83	0.110
485.29	0.110
485.74	0.111
486.20	0.110
486.66	0.113
487.11	0.108
487.57	0.110
488.03	0.111
488.48	0.109
488.94	0.109
489.40	0.107
489.85	0.109
490.31	0.108
490.77	0.105
491.22	0.108
491.68	0.107
492.13	0.109
492.59	0.109
493.05	0.104
493.50	0.110
493.96	0.105
494.42	0.107
494.87	0.108
495.33	0.105
495.78	0.108
496.24	0.106
496.70	0.108
497.15	0.106
497.61	0.108
498.06	0.105
498.52	0.106
498.98	0.105
499.43	0.107
499.89	0.106
500.34	0.107
500.80	0.107
501.25	0.105
501.71	0.104
502.17	0.107
502.62	0.104
503.08	0.105
503.53	0.105
503.99	0.104
504.44	0.104
504.90	0.103
505.36	0.104
505.81	0.104
506.27	0.105
506.72	0.104
507.18	0.103
507.63	0.101
508.09	0.102
508.54	0.103
509.00	0.102
509.45	0.103
509.91	0.104
510.36	0.102
510.82	0.101
511.27	0.104
511.73	0.102
512.19	0.103
512.64	0.102
513.10	0.100
513.55	0.101
514.01	0.100
514.46	0.102
514.92	0.103
515.37	0.102
515.83	0.102
516.28	0.101
516.73	0.100
517.19	0.098
517.64	0.099
518.10	0.098
518.55	0.100
519.01	0.100
519.46	0.101
519.92	0.099
520.37	0.097
520.83	0.102
521.28	0.098
521.74	0.100
522.19	0.098
522.65	0.097
523.10	0.101
523.55	0.098
524.01	0.096
524.46	0.098
524.92	0.097
525.37	0.098
525.83	0.098
526.28	0.099
526.73	0.099
527.19	0.098
527.64	0.099
528.10	0.099
528.55	0.100
529.01	0.100
529.46	0.098
529.91	0.098
530.37	0.098
530.82	0.098
531.28	0.099
531.73	0.097
532.18	0.098
532.64	0.097
533.09	0.098
533.54	0.100
534.00	0.100
534.45	0.099
534.91	0.099
535.36	0.098
535.81	0.099
536.27	0.099
536.72	0.101
537.17	0.099
537.63	0.100
538.08	0.100
538.54	0.100
538.99	0.100
539.44	0.098
539.90	0.100
540.35	0.100
540.80	0.101
541.26	0.102
541.71	0.103
542.16	0.102
542.62	0.103
543.07	0.103
543.52	0.103
543.98	0.103
544.43	0.102
544.88	0.103
545.34	0.105
545.79	0.103
546.24	0.105
546.69	0.103
547.15	0.105
547.60	0.105
548.05	0.104
548.51	0.106
548.96	0.107
549.41	0.105
549.86	0.105
550.32	0.108
550.77	0.106
551.22	0.107
551.68	0.107
552.13	0.109
552.58	0.111
553.03	0.109
553.49	0.107
553.94	0.111
554.39	0.111
554.84	0.111
555.30	0.112
555.75	0.111
556.20	0.113
556.65	0.112
557.11	0.115
557.56	0.113
558.01	0.113
558.46	0.114
558.92	0.116
559.37	0.116
559.82	0.117
560.27	0.119
560.72	0.117
561.18	0.118
561.63	0.117
562.08	0.119
562.53	0.120
562.99	0.121
563.44	0.122
563.89	0.122
564.34	0.121
564.79	0.122
565.25	0.124
565.70	0.126
566.15	0.128
566.60	0.126
567.05	0.128
567.50	0.128
567.96	0.128
568.41	0.129
568.86	0.131
569.31	0.130
569.76	0.131
570.21	0.129
570.67	0.132
571.12	0.132
571.57	0.135
572.02	0.135
572.47	0.133
572.92	0.136
573.37	0.136
573.83	0.137
574.28	0.136
574.73	0.138
575.18	0.140
575.63	0.141
576.08	0.140
576.53	0.142
576.98	0.143
577.44	0.144
577.89	0.145
578.34	0.146
578.79	0.145
579.24	0.149
579.69	0.148
580.14	0.151
580.59	0.150
581.04	0.152
581.49	0.153
581.95	0.154
582.40	0.154
582.85	0.157
583.30	0.158
583.75	0.161
584.20	0.161
584.65	0.162
585.10	0.164
585.55	0.165
586.00	0.166
586.45	0.167
586.90	0.170
587.35	0.171
587.80	0.173
588.25	0.175
588.71	0.176
589.16	0.176
589.61	0.180
590.06	0.179
590.51	0.183
590.96	0.184
591.41	0.188
591.86	0.189
592.31	0.192
592.76	0.192
593.21	0.194
593.66	0.196
594.11	0.200
594.56	0.200
595.01	0.203
595.46	0.204
595.91	0.208
596.36	0.209
596.81	0.209
597.26	0.214
597.71	0.214
598.16	0.216
598.61	0.217
599.06	0.217
599.51	0.223
599.96	0.225
600.41	0.227
600.86	0.227
601.31	0.227
601.76	0.233
602.21	0.231
602.65	0.235
603.10	0.237
603.55	0.238
604.00	0.242
604.45	0.244
604.90	0.246
605.35	0.247
605.80	0.248
606.25	0.250
606.70	0.252
607.15	0.251
607.60	0.255
608.05	0.257
608.50	0.259
608.95	0.259
609.39	0.259
609.84	0.264
610.29	0.262
610.74	0.264
611.19	0.266
611.64	0.267
612.09	0.269
612.54	0.269
612.99	0.269
613.44	0.269
613.88	0.269
614.33	0.272
614.78	0.271
615.23	0.274
615.68	0.275
616.13	0.275
616.58	0.276
617.03	0.276
617.47	0.275
617.92	0.276
618.37	0.278
618.82	0.277
619.27	0.278
619.72	0.279
620.17	0.279
620.61	0.280
621.06	0.281
621.51	0.281
621.96	0.282
622.41	0.284
622.86	0.284
623.30	0.284
623.75	0.284
624.20	0.284
624.65	0.284
625.10	0.288
625.54	0.286
625.99	0.289
626.44	0.290
626.89	0.291
627.34	0.291
627.78	0.293
628.23	0.295
628.68	0.296
629.13	0.294
629.58	0.295
630.02	0.298
630.47	0.302
630.92	0.302
631.37	0.303
631.81	0.304
632.26	0.307
632.71	0.308
633.16	0.309
633.61	0.312
634.05	0.315
634.50	0.313
634.95	0.316
635.40	0.321
635.84	0.322
636.29	0.322
636.74	0.326
637.18	0.330
637.63	0.332
638.08	0.333
638.53	0.339
638.97	0.341
639.42	0.341
639.87	0.344
640.32	0.348
640.76	0.350
641.21	0.350
641.66	0.357
642.10	0.359
642.55	0.362
643.00	0.363
643.44	0.367
643.89	0.373
644.34	0.374
644.79	0.376
645.23	0.380
645.68	0.385
646.13	0.387
646.57	0.390
647.02	0.394
647.47	0.400
647.91	0.403
648.36	0.408
648.81	0.407
649.25	0.409
649.70	0.412
650.15	0.416
650.59	0.421
651.04	0.424
651.48	0.424
651.93	0.429
652.38	0.431
652.82	0.436
653.27	0.438
653.72	0.441
654.16	0.442
654.61	0.445
655.06	0.448
655.50	0.454
655.95	0.451
656.39	0.456
656.84	0.461
657.29	0.460
657.73	0.463
658.18	0.466
658.62	0.467
659.07	0.471
659.52	0.472
659.96	0.474
660.41	0.476
660.85	0.475
661.30	0.479
661.74	0.479
662.19	0.481
662.64	0.480
663.08	0.485
663.53	0.485
663.97	0.485
664.42	0.486
664.86	0.484
665.31	0.488
665.75	0.487
666.20	0.485
666.65	0.486
667.09	0.482
667.54	0.482
667.98	0.478
668.43	0.480
668.87	0.474
669.32	0.472
669.76	0.470
670.21	0.469
670.65	0.464
671.10	0.461
671.54	0.455
671.99	0.450
672.43	0.443
672.88	0.438
673.32	0.432
673.77	0.426
674.21	0.419
674.66	0.413
675.10	0.407
675.55	0.398
675.99	0.391
676.44	0.385
676.88	0.377
677.33	0.372
677.77	0.362
678.22	0.352
678.66	0.346
679.11	0.338
679.55	0.330
679.99	0.317
680.44	0.312
680.88	0.304
681.33	0.295
681.77	0.285
682.22	0.278
682.66	0.271
683.11	0.262
683.55	0.253
683.99	0.246
684.44	0.239
684.88	0.235
685.33	0.223
685.77	0.216
686.21	0.211
686.66	0.203
687.10	0.195
687.55	0.192
687.99	0.183
688.44	0.181
688.88	0.174
689.32	0.166
689.77	0.163
690.21	0.158
690.65	0.152
691.10	0.146
691.54	0.140
691.99	0.137
692.43	0.133
692.87	0.129
693.32	0.125
693.76	0.123
694.20	0.119
694.65	0.116
695.09	0.112
695.53	0.110
695.98	0.110
696.42	0.103
696.86	0.099
697.31	0.097
697.75	0.097
698.19	0.092
698.64	0.091
699.08	0.091
699.52	0.089
699.97	0.085
700.41	0.086
700.85	0.085
701.30	0.080
701.74	0.078
702.18	0.078
702.63	0.078
703.07	0.075
703.51	0.076
703.96	0.073
704.40	0.072
704.84	0.068
705.28	0.070
705.73	0.069
706.17	0.068
706.61	0.066
707.06	0.068
707.50	0.065
707.94	0.060
708.38	0.065
708.83	0.064
709.27	0.063
709.71	0.062
710.15	0.063
710.60	0.062
711.04	0.060
711.48	0.060
711.92	0.061
712.37	0.056
712.81	0.057
713.25	0.056
713.69	0.060
714.13	0.057
714.58	0.056
715.02	0.056
715.46	0.055
715.90	0.054
716.35	0.059
716.79	0.058
717.23	0.056
717.67	0.061
718.11	0.056
718.56	0.055
719.00	0.056
719.44	0.057
719.88	0.055
720.32	0.055
720.76	0.056
721.21	0.058
721.65	0.057
722.09	0.056
722.53	0.056
722.97	0.055
723.41	0.053
723.86	0.057
724.30	0.056
724.74	0.055
725.18	0.054
725.62	0.058
726.06	0.057
726.50	0.056
726.95	0.054
727.39	0.054
727.83	0.054
728.27	0.057
728.71	0.055
729.15	0.058
729.59	0.056
730.03	0.056
730.48	0.059
730.92	0.054
731.36	0.057
731.80	0.053
732.24	0.056
732.68	0.057
733.12	0.057
733.56	0.057
734.00	0.056
734.44	0.056
734.89	0.059
735.33	0.059
735.77	0.059
736.21	0.058
736.65	0.056
737.09	0.058
737.53	0.058
737.97	0.058
738.41	0.056
738.85	0.060
739.29	0.059
739.73	0.056
740.17	0.057
740.61	0.058
741.05	0.056
741.49	0.056
741.93	0.055
742.37	0.057
742.81	0.057
743.26	0.058
743.70	0.058
744.14	0.056
744.58	0.059
745.02	0.055
745.46	0.059
745.90	0.057
746.34	0.057
746.78	0.057
747.22	0.057
747.66	0.058
748.10	0.058
748.54	0.055
748.98	0.056
749.42	0.057
749.86	0.060
750.29	0.056
750.73	0.058
751.17	0.056
751.61	0.056
752.05	0.058
752.49	0.056
752.93	0.056
753.37	0.057
753.81	0.059
754.25	0.053
754.69	0.053
755.13	0.056
755.57	0.054
756.01	0.055
756.45	0.055
756.89	0.058
757.33	0.052
757.77	0.052
758.21	0.054
758.64	0.055
759.08	0.054
759.52	0.057
759.96	0.051
760.40	0.057
760.84	0.055
761.28	0.055
761.72	0.055
762.16	0.055
762.60	0.055
763.03	0.053
763.47	0.051
763.91	0.056
764.35	0.053
764.79	0.056
765.23	0.053
765.67	0.058
766.11	0.054
766.54	0.053
766.98	0.055
767.42	0.053
767.86	0.052
768.30	0.050
768.74	0.051
769.17	0.053
769.61	0.055
770.05	0.055
770.49	0.054
770.93	0.053
771.37	0.054
771.80	0.054
772.24	0.056
772.68	0.056
773.12	0.053
773.56	0.055
774.00	0.052
774.43	0.054
774.87	0.052
775.31	0.052
775.75	0.054
776.19	0.053
776.62	0.055
777.06	0.052
777.50	0.052
777.94	0.054
778.37	0.052
778.81	0.051
779.25	0.055
779.69	0.054
780.13	0.052
780.56	0.054
781.00	0.055
781.44	0.051
781.88	0.053
782.31	0.054
782.75	0.055
783.19	0.053
783.63	0.051
784.06	0.051
784.50	0.054
784.94	0.051
785.37	0.054
785.81	0.054
786.25	0.056
786.69	0.053
787.12	0.055
787.56	0.052
788.00	0.051
788.43	0.050
788.87	0.051
789.31	0.055
789.75	0.056
790.18	0.055
790.62	0.055
791.06	0.051
791.49	0.050
791.93	0.053
792.37	0.050
792.80	0.052
793.24	0.050
793.68	0.051
794.11	0.049
794.55	0.052
794.99	0.053
795.42	0.050
795.86	0.053
796.30	0.052
796.73	0.054
797.17	0.050
797.61	0.050
798.04	0.050
798.48	0.053
798.91	0.053
799.35	0.050
799.79	0.054
800.22	0.050
800.66	0.049
801.10	0.051
801.53	0.055
801.97	0.053
802.40	0.047
802.84	0.052
803.28	0.052
803.71	0.052
804.15	0.053
804.58	0.052
805.02	0.051
805.46	0.053
805.89	0.053
806.33	0.049
806.76	0.054
807.20	0.048
807.63	0.052
808.07	0.053
808.51	0.046
808.94	0.053
809.38	0.052
809.81	0.048
810.25	0.050
810.68	0.055
811.12	0.048
811.55	0.051
811.99	0.049
812.42	0.050
812.86	0.050
813.29	0.053
813.73	0.050
814.17	0.050
814.60	0.052
815.04	0.050
815.47	0.047
815.91	0.049
816.34	0.052
816.78	0.050
817.21	0.048
817.65	0.047
818.08	0.050
