SpectraSuite Data File
++++++++++++++++++++++++++++++++++++
Date: Tue Jul 11 14:05:59 CEST 2017
User: IPCE
Dark Spectrum Present: Yes
Reference Spectrum Present: Yes
Number of Sampled Component Spectra: 1
Spectrometers: HR+C0708
Integration Time (usec): 1000 (HR+C0708)
Spectra Averaged: 10 (HR+C0708)
Boxcar Smoothing: 0 (HR+C0708)
Correct for Electrical Dark: No (HR+C0708)
Strobe/Lamp Enabled: No (HR+C0708)
Correct for Detector Non-linearity: No (HR+C0708)
Correct for Stray Light: No (HR+C0708)
Number of Pixels in Processed Spectrum: 2048
>>>>>Begin Processed Spectral Data<<<<<
188.76	0.213
189.23	0.145
189.70	0.456
190.17	0.418
190.64	-0.043
191.12	0.403
191.59	0.398
192.06	0.257
192.53	-0.000
193.01	0.500
193.48	0.218
193.95	-0.167
194.42	0.125
194.90	-0.000
195.37	0.382
195.84	0.042
196.31	0.845
196.78	0.636
197.26	-0.105
197.73	-0.035
198.20	0.621
198.67	-0.568
199.14	-0.301
199.62	-0.051
200.09	0.472
200.56	0.215
201.03	0.272
201.50	0.451
201.97	0.389
202.45	0.269
202.92	0.261
203.39	0.443
203.86	0.309
204.33	0.291
204.80	0.209
205.28	0.192
205.75	0.256
206.22	0.149
206.69	0.680
207.16	0.258
207.63	0.177
208.11	0.336
208.58	0.413
209.05	0.427
209.52	0.275
209.99	0.406
210.46	0.427
210.93	0.340
211.41	0.299
211.88	0.424
212.35	0.271
212.82	0.283
213.29	0.406
213.76	0.300
214.23	0.253
214.70	0.453
215.18	0.325
215.65	0.467
216.12	0.262
216.59	0.217
217.06	0.516
217.53	0.239
218.00	0.232
218.47	0.565
218.94	0.331
219.41	0.321
219.89	0.281
220.36	0.366
220.83	0.502
221.30	0.518
221.77	0.430
222.24	0.624
222.71	0.342
223.18	0.392
223.65	0.670
224.12	0.627
224.59	0.428
225.06	0.427
225.54	0.515
226.01	0.613
226.48	0.533
226.95	0.681
227.42	0.866
227.89	0.689
228.36	0.763
228.83	1.002
229.30	0.986
229.77	0.950
230.24	1.191
230.71	1.240
231.18	1.142
231.65	1.171
232.12	1.230
232.59	1.305
233.06	1.258
233.53	1.321
234.00	1.405
234.47	1.510
234.94	1.612
235.41	1.660
235.88	1.707
236.35	1.727
236.82	1.753
237.29	1.769
237.76	1.892
238.23	1.785
238.70	1.780
239.17	1.988
239.64	2.130
240.11	1.926
240.58	1.978
241.05	2.137
241.52	2.025
241.99	1.946
242.46	2.177
242.93	2.169
243.40	2.085
243.87	2.133
244.34	2.124
244.81	2.139
245.28	2.090
245.75	2.224
246.22	2.080
246.69	2.236
247.16	2.097
247.63	2.211
248.10	2.276
248.57	2.057
249.04	2.238
249.51	2.330
249.98	2.196
250.45	2.122
250.92	2.096
251.39	2.139
251.85	1.970
252.32	1.895
252.79	1.821
253.26	1.734
253.73	1.631
254.20	1.596
254.67	1.504
255.14	1.390
255.61	1.348
256.08	1.297
256.55	1.246
257.02	1.188
257.49	1.154
257.95	1.119
258.42	1.095
258.89	1.054
259.36	1.031
259.83	1.003
260.30	0.973
260.77	0.955
261.24	0.937
261.71	0.918
262.17	0.899
262.64	0.887
263.11	0.869
263.58	0.855
264.05	0.842
264.52	0.828
264.99	0.819
265.46	0.810
265.92	0.798
266.39	0.784
266.86	0.775
267.33	0.765
267.80	0.754
268.27	0.752
268.74	0.737
269.20	0.730
269.67	0.724
270.14	0.723
270.61	0.710
271.08	0.702
271.55	0.696
272.01	0.690
272.48	0.679
272.95	0.681
273.42	0.672
273.89	0.667
274.36	0.659
274.82	0.661
275.29	0.652
275.76	0.651
276.23	0.644
276.70	0.645
277.16	0.638
277.63	0.634
278.10	0.635
278.57	0.632
279.04	0.623
279.50	0.622
279.97	0.625
280.44	0.623
280.91	0.619
281.38	0.619
281.84	0.624
282.31	0.618
282.78	0.617
283.25	0.616
283.72	0.617
284.18	0.614
284.65	0.615
285.12	0.618
285.59	0.612
286.05	0.617
286.52	0.620
286.99	0.622
287.46	0.619
287.92	0.617
288.39	0.621
288.86	0.620
289.33	0.616
289.79	0.619
290.26	0.620
290.73	0.611
291.20	0.611
291.66	0.613
292.13	0.608
292.60	0.603
293.07	0.602
293.53	0.597
294.00	0.592
294.47	0.588
294.93	0.584
295.40	0.578
295.87	0.571
296.34	0.558
296.80	0.557
297.27	0.550
297.74	0.537
298.20	0.529
298.67	0.526
299.14	0.516
299.60	0.506
300.07	0.500
300.54	0.490
301.01	0.484
301.47	0.473
301.94	0.465
302.41	0.456
302.87	0.447
303.34	0.442
303.81	0.435
304.27	0.429
304.74	0.416
305.21	0.412
305.67	0.406
306.14	0.403
306.61	0.393
307.07	0.390
307.54	0.382
308.01	0.377
308.47	0.372
308.94	0.369
309.40	0.363
309.87	0.359
310.34	0.358
310.80	0.353
311.27	0.349
311.74	0.347
312.20	0.343
312.67	0.341
313.13	0.333
313.60	0.332
314.07	0.335
314.53	0.329
315.00	0.324
315.47	0.325
315.93	0.321
316.40	0.318
316.86	0.316
317.33	0.318
317.80	0.315
318.26	0.312
318.73	0.307
319.19	0.309
319.66	0.306
320.13	0.302
320.59	0.301
321.06	0.300
321.52	0.297
321.99	0.297
322.45	0.294
322.92	0.295
323.39	0.292
323.85	0.286
324.32	0.284
324.78	0.283
325.25	0.283
325.71	0.278
326.18	0.276
326.64	0.278
327.11	0.278
327.58	0.278
328.04	0.272
328.51	0.270
328.97	0.267
329.44	0.267
329.90	0.263
330.37	0.261
330.83	0.262
331.30	0.259
331.76	0.260
332.23	0.258
332.69	0.257
333.16	0.252
333.62	0.250
334.09	0.252
334.56	0.249
335.02	0.245
335.49	0.242
335.95	0.244
336.42	0.243
336.88	0.241
337.35	0.239
337.81	0.240
338.28	0.236
338.74	0.236
339.20	0.234
339.67	0.234
340.13	0.233
340.60	0.230
341.06	0.229
341.53	0.225
341.99	0.227
342.46	0.228
342.92	0.225
343.39	0.227
343.85	0.221
344.32	0.219
344.78	0.218
345.25	0.217
345.71	0.217
346.17	0.216
346.64	0.214
347.10	0.212
347.57	0.210
348.03	0.206
348.50	0.204
348.96	0.205
349.43	0.204
349.89	0.204
350.35	0.200
350.82	0.202
351.28	0.195
351.75	0.191
352.21	0.187
352.67	0.187
353.14	0.181
353.60	0.177
354.07	0.174
354.53	0.174
355.00	0.168
355.46	0.164
355.92	0.159
356.39	0.156
356.85	0.150
357.31	0.151
357.78	0.142
358.24	0.139
358.71	0.136
359.17	0.128
359.63	0.127
360.10	0.125
360.56	0.117
361.03	0.114
361.49	0.114
361.95	0.107
362.42	0.109
362.88	0.105
363.34	0.106
363.81	0.103
364.27	0.099
364.73	0.098
365.20	0.099
365.66	0.098
366.12	0.100
366.59	0.096
367.05	0.096
367.51	0.096
367.98	0.094
368.44	0.095
368.90	0.095
369.37	0.092
369.83	0.091
370.29	0.092
370.76	0.088
371.22	0.089
371.68	0.089
372.15	0.090
372.61	0.090
373.07	0.092
373.54	0.089
374.00	0.090
374.46	0.092
374.92	0.090
375.39	0.088
375.85	0.086
376.31	0.088
376.78	0.090
377.24	0.087
377.70	0.090
378.16	0.088
378.63	0.090
379.09	0.086
379.55	0.089
380.01	0.086
380.48	0.088
380.94	0.088
381.40	0.088
381.87	0.086
382.33	0.085
382.79	0.084
383.25	0.087
383.72	0.087
384.18	0.084
384.64	0.082
385.10	0.086
385.56	0.084
386.03	0.087
386.49	0.083
386.95	0.083
387.41	0.085
387.88	0.083
388.34	0.081
388.80	0.082
389.26	0.081
389.72	0.083
390.19	0.087
390.65	0.084
391.11	0.085
391.57	0.084
392.04	0.083
392.50	0.081
392.96	0.081
393.42	0.081
393.88	0.081
394.34	0.084
394.81	0.079
395.27	0.083
395.73	0.083
396.19	0.079
396.65	0.083
397.12	0.079
397.58	0.079
398.04	0.082
398.50	0.080
398.96	0.079
399.42	0.080
399.89	0.079
400.35	0.078
400.81	0.076
401.27	0.076
401.73	0.078
402.19	0.075
402.65	0.076
403.12	0.077
403.58	0.077
404.04	0.076
404.50	0.073
404.96	0.074
405.42	0.074
405.88	0.074
406.34	0.076
406.81	0.074
407.27	0.072
407.73	0.074
408.19	0.072
408.65	0.073
409.11	0.073
409.57	0.073
410.03	0.071
410.49	0.070
410.96	0.070
411.42	0.070
411.88	0.071
412.34	0.071
412.80	0.070
413.26	0.071
413.72	0.069
414.18	0.068
414.64	0.065
415.10	0.068
415.56	0.067
416.02	0.065
416.48	0.070
416.95	0.071
417.41	0.068
417.87	0.068
418.33	0.067
418.79	0.070
419.25	0.068
419.71	0.069
420.17	0.068
420.63	0.067
421.09	0.067
421.55	0.065
422.01	0.065
422.47	0.068
422.93	0.069
423.39	0.071
423.85	0.066
424.31	0.069
424.77	0.066
425.23	0.068
425.69	0.063
426.15	0.061
426.61	0.066
427.07	0.066
427.53	0.067
427.99	0.067
428.45	0.063
428.91	0.065
429.37	0.066
429.83	0.064
430.29	0.066
430.75	0.067
431.21	0.067
431.67	0.065
432.13	0.062
432.59	0.063
433.05	0.066
433.51	0.062
433.97	0.064
434.43	0.064
434.89	0.064
435.35	0.061
435.81	0.062
436.27	0.062
436.73	0.065
437.19	0.064
437.65	0.062
438.11	0.063
438.57	0.064
439.03	0.062
439.48	0.062
439.94	0.060
440.40	0.060
440.86	0.063
441.32	0.058
441.78	0.062
442.24	0.061
442.70	0.065
443.16	0.060
443.62	0.066
444.08	0.061
444.54	0.061
444.99	0.058
445.45	0.061
445.91	0.061
446.37	0.060
446.83	0.060
447.29	0.059
447.75	0.058
448.21	0.059
448.67	0.057
449.12	0.062
449.58	0.058
450.04	0.060
450.50	0.059
450.96	0.057
451.42	0.059
451.88	0.061
452.34	0.059
452.79	0.057
453.25	0.060
453.71	0.057
454.17	0.058
454.63	0.058
455.09	0.061
455.55	0.060
456.00	0.061
456.46	0.057
456.92	0.058
457.38	0.059
457.84	0.056
458.30	0.060
458.75	0.063
459.21	0.058
459.67	0.059
460.13	0.058
460.59	0.060
461.04	0.059
461.50	0.060
461.96	0.057
462.42	0.059
462.88	0.059
463.33	0.059
463.79	0.062
464.25	0.059
464.71	0.059
465.17	0.060
465.62	0.061
466.08	0.058
466.54	0.059
467.00	0.060
467.46	0.059
467.91	0.057
468.37	0.060
468.83	0.059
469.29	0.060
469.74	0.059
470.20	0.058
470.66	0.061
471.12	0.060
471.57	0.061
472.03	0.060
472.49	0.060
472.95	0.060
473.40	0.059
473.86	0.062
474.32	0.061
474.78	0.061
475.23	0.060
475.69	0.060
476.15	0.060
476.60	0.061
477.06	0.061
477.52	0.062
477.98	0.061
478.43	0.060
478.89	0.061
479.35	0.059
479.80	0.059
480.26	0.060
480.72	0.060
481.18	0.062
481.63	0.060
482.09	0.059
482.55	0.062
483.00	0.062
483.46	0.061
483.92	0.059
484.37	0.061
484.83	0.061
485.29	0.063
485.74	0.060
486.20	0.062
486.66	0.062
487.11	0.061
487.57	0.060
488.03	0.061
488.48	0.063
488.94	0.063
489.40	0.062
489.85	0.062
490.31	0.061
490.77	0.058
491.22	0.061
491.68	0.061
492.13	0.061
492.59	0.063
493.05	0.060
493.50	0.063
493.96	0.062
494.42	0.059
494.87	0.063
495.33	0.061
495.78	0.061
496.24	0.061
496.70	0.062
497.15	0.061
497.61	0.062
498.06	0.062
498.52	0.061
498.98	0.061
499.43	0.062
499.89	0.061
500.34	0.063
500.80	0.062
501.25	0.062
501.71	0.061
502.17	0.064
502.62	0.061
503.08	0.063
503.53	0.062
503.99	0.061
504.44	0.062
504.90	0.060
505.36	0.062
505.81	0.062
506.27	0.061
506.72	0.063
507.18	0.062
507.63	0.060
508.09	0.062
508.54	0.060
509.00	0.059
509.45	0.062
509.91	0.060
510.36	0.059
510.82	0.060
511.27	0.064
511.73	0.062
512.19	0.060
512.64	0.059
513.10	0.060
513.55	0.061
514.01	0.060
514.46	0.061
514.92	0.060
515.37	0.062
515.83	0.061
516.28	0.061
516.73	0.061
517.19	0.061
517.64	0.059
518.10	0.062
518.55	0.059
519.01	0.059
519.46	0.060
519.92	0.059
520.37	0.058
520.83	0.061
521.28	0.059
521.74	0.059
522.19	0.059
522.65	0.059
523.10	0.062
523.55	0.059
524.01	0.061
524.46	0.061
524.92	0.059
525.37	0.059
525.83	0.061
526.28	0.061
526.73	0.060
527.19	0.060
527.64	0.061
528.10	0.062
528.55	0.061
529.01	0.063
529.46	0.060
529.91	0.060
530.37	0.062
530.82	0.062
531.28	0.062
531.73	0.061
532.18	0.062
532.64	0.063
533.09	0.063
533.54	0.064
534.00	0.063
534.45	0.063
534.91	0.062
535.36	0.065
535.81	0.064
536.27	0.066
536.72	0.065
537.17	0.065
537.63	0.064
538.08	0.064
538.54	0.065
538.99	0.066
539.44	0.066
539.90	0.065
540.35	0.065
540.80	0.067
541.26	0.068
541.71	0.068
542.16	0.068
542.62	0.068
543.07	0.069
543.52	0.069
543.98	0.068
544.43	0.067
544.88	0.070
545.34	0.071
545.79	0.069
546.24	0.072
546.69	0.071
547.15	0.074
547.60	0.075
548.05	0.071
548.51	0.075
548.96	0.073
549.41	0.074
549.86	0.072
550.32	0.075
550.77	0.073
551.22	0.075
551.68	0.075
552.13	0.075
552.58	0.077
553.03	0.077
553.49	0.076
553.94	0.078
554.39	0.080
554.84	0.078
555.30	0.079
555.75	0.082
556.20	0.080
556.65	0.081
557.11	0.083
557.56	0.081
558.01	0.082
558.46	0.083
558.92	0.084
559.37	0.086
559.82	0.085
560.27	0.087
560.72	0.085
561.18	0.087
561.63	0.087
562.08	0.088
562.53	0.088
562.99	0.092
563.44	0.092
563.89	0.089
564.34	0.091
564.79	0.093
565.25	0.093
565.70	0.095
566.15	0.096
566.60	0.096
567.05	0.097
567.50	0.099
567.96	0.098
568.41	0.099
568.86	0.099
569.31	0.100
569.76	0.100
570.21	0.102
570.67	0.103
571.12	0.102
571.57	0.105
572.02	0.108
572.47	0.105
572.92	0.106
573.37	0.107
573.83	0.108
574.28	0.109
574.73	0.110
575.18	0.110
575.63	0.113
576.08	0.111
576.53	0.114
576.98	0.116
577.44	0.117
577.89	0.118
578.34	0.118
578.79	0.118
579.24	0.121
579.69	0.121
580.14	0.123
580.59	0.125
581.04	0.124
581.49	0.126
581.95	0.128
582.40	0.130
582.85	0.131
583.30	0.132
583.75	0.134
584.20	0.135
584.65	0.135
585.10	0.138
585.55	0.140
586.00	0.142
586.45	0.142
586.90	0.146
587.35	0.145
587.80	0.149
588.25	0.152
588.71	0.152
589.16	0.155
589.61	0.155
590.06	0.158
590.51	0.159
590.96	0.163
591.41	0.164
591.86	0.165
592.31	0.168
592.76	0.170
593.21	0.171
593.66	0.174
594.11	0.178
594.56	0.179
595.01	0.180
595.46	0.183
595.91	0.187
596.36	0.186
596.81	0.188
597.26	0.190
597.71	0.192
598.16	0.195
598.61	0.196
599.06	0.199
599.51	0.200
599.96	0.205
600.41	0.205
600.86	0.206
601.31	0.206
601.76	0.212
602.21	0.211
602.65	0.215
603.10	0.218
603.55	0.217
604.00	0.221
604.45	0.222
604.90	0.224
605.35	0.228
605.80	0.229
606.25	0.233
606.70	0.233
607.15	0.234
607.60	0.236
608.05	0.238
608.50	0.240
608.95	0.242
609.39	0.243
609.84	0.246
610.29	0.245
610.74	0.244
611.19	0.248
611.64	0.251
612.09	0.251
612.54	0.251
612.99	0.251
613.44	0.253
613.88	0.254
614.33	0.256
614.78	0.257
615.23	0.260
615.68	0.256
616.13	0.257
616.58	0.261
617.03	0.257
617.47	0.259
617.92	0.260
618.37	0.263
618.82	0.261
619.27	0.263
619.72	0.262
620.17	0.266
620.61	0.265
621.06	0.265
621.51	0.269
621.96	0.267
622.41	0.268
622.86	0.269
623.30	0.267
623.75	0.271
624.20	0.271
624.65	0.272
625.10	0.274
625.54	0.273
625.99	0.274
626.44	0.280
626.89	0.277
627.34	0.278
627.78	0.280
628.23	0.280
628.68	0.285
629.13	0.283
629.58	0.286
630.02	0.286
630.47	0.289
630.92	0.289
631.37	0.291
631.81	0.291
632.26	0.295
632.71	0.298
633.16	0.298
633.61	0.299
634.05	0.303
634.50	0.303
634.95	0.307
635.40	0.311
635.84	0.312
636.29	0.314
636.74	0.315
637.18	0.320
637.63	0.321
638.08	0.323
638.53	0.327
638.97	0.331
639.42	0.334
639.87	0.338
640.32	0.340
640.76	0.341
641.21	0.343
641.66	0.348
642.10	0.352
642.55	0.354
643.00	0.355
643.44	0.359
643.89	0.363
644.34	0.367
644.79	0.372
645.23	0.376
645.68	0.378
646.13	0.379
646.57	0.386
647.02	0.391
647.47	0.396
647.91	0.395
648.36	0.401
648.81	0.402
649.25	0.402
649.70	0.409
650.15	0.412
650.59	0.416
651.04	0.418
651.48	0.423
651.93	0.424
652.38	0.429
652.82	0.428
653.27	0.434
653.72	0.438
654.16	0.439
654.61	0.443
655.06	0.445
655.50	0.446
655.95	0.448
656.39	0.450
656.84	0.457
657.29	0.459
657.73	0.458
658.18	0.461
658.62	0.464
659.07	0.466
659.52	0.469
659.96	0.472
660.41	0.474
660.85	0.472
661.30	0.475
661.74	0.476
662.19	0.476
662.64	0.476
663.08	0.481
663.53	0.481
663.97	0.481
664.42	0.480
664.86	0.479
665.31	0.480
665.75	0.480
666.20	0.478
666.65	0.478
667.09	0.475
667.54	0.473
667.98	0.471
668.43	0.471
668.87	0.469
669.32	0.465
669.76	0.460
670.21	0.459
670.65	0.456
671.10	0.451
671.54	0.448
671.99	0.440
672.43	0.434
672.88	0.430
673.32	0.423
673.77	0.416
674.21	0.410
674.66	0.404
675.10	0.398
675.55	0.389
675.99	0.381
676.44	0.373
676.88	0.366
677.33	0.358
677.77	0.350
678.22	0.341
678.66	0.333
679.11	0.325
679.55	0.315
679.99	0.306
680.44	0.299
680.88	0.291
681.33	0.279
681.77	0.271
682.22	0.263
682.66	0.255
683.11	0.247
683.55	0.235
683.99	0.230
684.44	0.224
684.88	0.217
685.33	0.207
685.77	0.201
686.21	0.194
686.66	0.184
687.10	0.178
687.55	0.173
687.99	0.163
688.44	0.160
688.88	0.154
689.32	0.148
689.77	0.142
690.21	0.138
690.65	0.134
691.10	0.128
691.54	0.122
691.99	0.116
692.43	0.114
692.87	0.109
693.32	0.105
693.76	0.104
694.20	0.100
694.65	0.096
695.09	0.094
695.53	0.089
695.98	0.087
696.42	0.085
696.86	0.078
697.31	0.078
697.75	0.076
698.19	0.070
698.64	0.068
699.08	0.071
699.52	0.067
699.97	0.066
700.41	0.065
700.85	0.063
701.30	0.060
701.74	0.057
702.18	0.058
702.63	0.056
703.07	0.054
703.51	0.055
703.96	0.053
704.40	0.051
704.84	0.049
705.28	0.049
705.73	0.050
706.17	0.049
706.61	0.045
707.06	0.046
707.50	0.044
707.94	0.043
708.38	0.043
708.83	0.044
709.27	0.043
709.71	0.039
710.15	0.040
710.60	0.041
711.04	0.041
711.48	0.039
711.92	0.042
712.37	0.039
712.81	0.035
713.25	0.036
713.69	0.039
714.13	0.033
714.58	0.034
715.02	0.034
715.46	0.034
715.90	0.035
716.35	0.037
716.79	0.035
717.23	0.035
717.67	0.035
718.11	0.034
718.56	0.033
719.00	0.035
719.44	0.035
719.88	0.036
720.32	0.032
720.76	0.033
721.21	0.035
721.65	0.036
722.09	0.034
722.53	0.034
722.97	0.033
723.41	0.033
723.86	0.033
724.30	0.037
724.74	0.034
725.18	0.032
725.62	0.036
726.06	0.037
726.50	0.036
726.95	0.035
727.39	0.033
727.83	0.034
728.27	0.033
728.71	0.034
729.15	0.038
729.59	0.036
730.03	0.033
730.48	0.037
730.92	0.035
731.36	0.035
731.80	0.034
732.24	0.035
732.68	0.036
733.12	0.038
733.56	0.036
734.00	0.036
734.44	0.037
734.89	0.038
735.33	0.037
735.77	0.037
736.21	0.037
736.65	0.036
737.09	0.036
737.53	0.039
737.97	0.039
738.41	0.036
738.85	0.039
739.29	0.039
739.73	0.033
740.17	0.038
740.61	0.037
741.05	0.036
741.49	0.040
741.93	0.036
742.37	0.039
742.81	0.038
743.26	0.039
743.70	0.038
744.14	0.040
744.58	0.038
745.02	0.036
745.46	0.040
745.90	0.036
746.34	0.041
746.78	0.038
747.22	0.036
747.66	0.036
748.10	0.036
748.54	0.036
748.98	0.036
749.42	0.038
749.86	0.037
750.29	0.040
750.73	0.038
751.17	0.037
751.61	0.035
752.05	0.039
752.49	0.037
752.93	0.036
753.37	0.036
753.81	0.038
754.25	0.034
754.69	0.037
755.13	0.037
755.57	0.035
756.01	0.035
756.45	0.036
756.89	0.036
757.33	0.039
757.77	0.034
758.21	0.036
758.64	0.034
759.08	0.034
759.52	0.037
759.96	0.033
760.40	0.036
760.84	0.037
761.28	0.038
761.72	0.034
762.16	0.035
762.60	0.035
763.03	0.035
763.47	0.033
763.91	0.037
764.35	0.036
764.79	0.037
765.23	0.037
765.67	0.041
766.11	0.038
766.54	0.032
766.98	0.036
767.42	0.035
767.86	0.036
768.30	0.036
768.74	0.032
769.17	0.035
769.61	0.036
770.05	0.033
770.49	0.035
770.93	0.038
771.37	0.034
771.80	0.037
772.24	0.039
772.68	0.039
773.12	0.034
773.56	0.038
774.00	0.036
774.43	0.034
774.87	0.032
775.31	0.035
775.75	0.034
776.19	0.035
776.62	0.034
777.06	0.031
777.50	0.035
777.94	0.038
778.37	0.033
778.81	0.035
779.25	0.038
779.69	0.036
780.13	0.034
780.56	0.035
781.00	0.037
781.44	0.034
781.88	0.033
782.31	0.036
782.75	0.038
783.19	0.035
783.63	0.033
784.06	0.032
784.50	0.033
784.94	0.035
785.37	0.037
785.81	0.035
786.25	0.035
786.69	0.036
787.12	0.037
787.56	0.037
788.00	0.033
788.43	0.035
788.87	0.032
789.31	0.037
789.75	0.037
790.18	0.034
790.62	0.035
791.06	0.032
791.49	0.034
791.93	0.035
792.37	0.035
792.80	0.034
793.24	0.034
793.68	0.034
794.11	0.034
794.55	0.035
794.99	0.034
795.42	0.034
795.86	0.034
796.30	0.037
796.73	0.035
797.17	0.033
797.61	0.033
798.04	0.035
798.48	0.035
798.91	0.036
799.35	0.036
799.79	0.035
800.22	0.031
800.66	0.035
801.10	0.036
801.53	0.036
801.97	0.038
802.40	0.030
802.84	0.039
803.28	0.035
803.71	0.032
804.15	0.035
804.58	0.038
805.02	0.032
805.46	0.037
805.89	0.036
806.33	0.034
806.76	0.032
807.20	0.031
807.63	0.035
808.07	0.034
808.51	0.035
808.94	0.035
809.38	0.036
809.81	0.033
810.25	0.034
810.68	0.037
811.12	0.034
811.55	0.036
811.99	0.033
812.42	0.033
812.86	0.034
813.29	0.036
813.73	0.033
814.17	0.032
814.60	0.035
815.04	0.037
815.47	0.034
815.91	0.034
816.34	0.035
816.78	0.032
817.21	0.034
817.65	0.032
