SpectraSuite Data File
++++++++++++++++++++++++++++++++++++
Date: Tue Jul 11 14:55:29 CEST 2017
User: IPCE
Dark Spectrum Present: Yes
Reference Spectrum Present: Yes
Number of Sampled Component Spectra: 1
Spectrometers: HR+C0708
Integration Time (usec): 1000 (HR+C0708)
Spectra Averaged: 10 (HR+C0708)
Boxcar Smoothing: 0 (HR+C0708)
Correct for Electrical Dark: No (HR+C0708)
Strobe/Lamp Enabled: No (HR+C0708)
Correct for Detector Non-linearity: No (HR+C0708)
Correct for Stray Light: No (HR+C0708)
Number of Pixels in Processed Spectrum: 2048
>>>>>Begin Processed Spectral Data<<<<<
188.76	0.470
189.23	0.114
189.70	-0.000
190.17	-0.000
190.64	0.388
191.12	0.110
191.59	0.495
192.06	-0.000
192.53	0.284
193.01	0.298
193.48	-0.000
193.95	-0.034
194.42	0.293
194.90	0.404
195.37	0.114
195.84	-0.000
196.31	-0.000
196.78	-0.000
197.26	0.503
197.73	0.166
198.20	0.271
198.67	-0.000
199.14	0.140
199.62	0.125
200.09	0.685
200.56	0.428
201.03	0.363
201.50	0.390
201.97	0.513
202.45	0.556
202.92	0.433
203.39	0.554
203.86	0.494
204.33	0.236
204.80	0.409
205.28	0.526
205.75	0.354
206.22	0.355
206.69	0.436
207.16	0.335
207.63	0.435
208.11	0.424
208.58	0.386
209.05	0.585
209.52	0.331
209.99	0.555
210.46	0.383
210.93	0.380
211.41	0.362
211.88	0.381
212.35	0.282
212.82	0.400
213.29	0.363
213.76	0.456
214.23	0.397
214.70	0.390
215.18	0.522
215.65	0.729
216.12	0.449
216.59	0.481
217.06	0.686
217.53	0.355
218.00	0.499
218.47	0.527
218.94	0.538
219.41	0.345
219.89	0.404
220.36	0.458
220.83	0.530
221.30	0.691
221.77	0.581
222.24	0.547
222.71	0.419
223.18	0.513
223.65	0.642
224.12	0.616
224.59	0.544
225.06	0.579
225.54	0.705
226.01	0.723
226.48	0.565
226.95	0.900
227.42	0.899
227.89	0.758
228.36	1.000
228.83	0.959
229.30	0.997
229.77	1.123
230.24	1.175
230.71	1.124
231.18	1.256
231.65	1.119
232.12	1.428
232.59	1.406
233.06	1.348
233.53	1.529
234.00	1.308
234.47	1.568
234.94	1.618
235.41	1.593
235.88	1.739
236.35	1.677
236.82	1.716
237.29	1.854
237.76	1.932
238.23	1.785
238.70	1.869
239.17	2.024
239.64	2.145
240.11	2.048
240.58	1.910
241.05	2.099
241.52	2.273
241.99	1.990
242.46	2.246
242.93	2.119
243.40	2.181
243.87	2.279
244.34	2.143
244.81	2.236
245.28	2.272
245.75	2.273
246.22	2.146
246.69	2.309
247.16	2.303
247.63	2.457
248.10	2.442
248.57	2.199
249.04	2.264
249.51	2.281
249.98	2.341
250.45	2.161
250.92	2.085
251.39	2.114
251.85	1.958
252.32	1.822
252.79	1.783
253.26	1.693
253.73	1.594
254.20	1.477
254.67	1.408
255.14	1.317
255.61	1.266
256.08	1.213
256.55	1.156
257.02	1.106
257.49	1.067
257.95	1.032
258.42	0.993
258.89	0.959
259.36	0.946
259.83	0.918
260.30	0.890
260.77	0.879
261.24	0.849
261.71	0.835
262.17	0.818
262.64	0.804
263.11	0.795
263.58	0.776
264.05	0.761
264.52	0.750
264.99	0.743
265.46	0.726
265.92	0.717
266.39	0.709
266.86	0.698
267.33	0.689
267.80	0.677
268.27	0.673
268.74	0.661
269.20	0.655
269.67	0.644
270.14	0.641
270.61	0.632
271.08	0.628
271.55	0.619
272.01	0.610
272.48	0.604
272.95	0.604
273.42	0.595
273.89	0.586
274.36	0.581
274.82	0.579
275.29	0.573
275.76	0.565
276.23	0.567
276.70	0.565
277.16	0.559
277.63	0.555
278.10	0.550
278.57	0.547
279.04	0.545
279.50	0.539
279.97	0.541
280.44	0.535
280.91	0.532
281.38	0.533
281.84	0.531
282.31	0.528
282.78	0.529
283.25	0.524
283.72	0.525
284.18	0.523
284.65	0.520
285.12	0.523
285.59	0.521
286.05	0.520
286.52	0.519
286.99	0.521
287.46	0.518
287.92	0.520
288.39	0.518
288.86	0.515
289.33	0.512
289.79	0.512
290.26	0.513
290.73	0.509
291.20	0.506
291.66	0.505
292.13	0.496
292.60	0.500
293.07	0.495
293.53	0.490
294.00	0.485
294.47	0.482
294.93	0.474
295.40	0.472
295.87	0.464
296.34	0.460
296.80	0.457
297.27	0.447
297.74	0.443
298.20	0.436
298.67	0.429
299.14	0.425
299.60	0.417
300.07	0.407
300.54	0.405
301.01	0.399
301.47	0.387
301.94	0.379
302.41	0.376
302.87	0.368
303.34	0.366
303.81	0.360
304.27	0.353
304.74	0.344
305.21	0.342
305.67	0.338
306.14	0.333
306.61	0.325
307.07	0.323
307.54	0.319
308.01	0.313
308.47	0.313
308.94	0.306
309.40	0.303
309.87	0.300
310.34	0.297
310.80	0.297
311.27	0.294
311.74	0.291
312.20	0.287
312.67	0.285
313.13	0.281
313.60	0.281
314.07	0.283
314.53	0.278
315.00	0.275
315.47	0.272
315.93	0.274
316.40	0.272
316.86	0.269
317.33	0.270
317.80	0.267
318.26	0.265
318.73	0.266
319.19	0.266
319.66	0.265
320.13	0.261
320.59	0.258
321.06	0.255
321.52	0.256
321.99	0.255
322.45	0.254
322.92	0.254
323.39	0.249
323.85	0.248
324.32	0.250
324.78	0.249
325.25	0.247
325.71	0.246
326.18	0.244
326.64	0.245
327.11	0.242
327.58	0.244
328.04	0.241
328.51	0.240
328.97	0.239
329.44	0.238
329.90	0.235
330.37	0.232
330.83	0.232
331.30	0.228
331.76	0.229
332.23	0.226
332.69	0.229
333.16	0.223
333.62	0.224
334.09	0.226
334.56	0.222
335.02	0.217
335.49	0.219
335.95	0.218
336.42	0.213
336.88	0.211
337.35	0.213
337.81	0.211
338.28	0.208
338.74	0.208
339.20	0.208
339.67	0.205
340.13	0.205
340.60	0.203
341.06	0.204
341.53	0.200
341.99	0.200
342.46	0.199
342.92	0.199
343.39	0.199
343.85	0.194
344.32	0.197
344.78	0.196
345.25	0.194
345.71	0.195
346.17	0.195
346.64	0.195
347.10	0.195
347.57	0.192
348.03	0.190
348.50	0.189
348.96	0.187
349.43	0.191
349.89	0.192
350.35	0.187
350.82	0.191
351.28	0.185
351.75	0.189
352.21	0.184
352.67	0.186
353.14	0.186
353.60	0.182
354.07	0.179
354.53	0.180
355.00	0.176
355.46	0.178
355.92	0.176
356.39	0.175
356.85	0.174
357.31	0.178
357.78	0.174
358.24	0.169
358.71	0.172
359.17	0.166
359.63	0.168
360.10	0.172
360.56	0.166
361.03	0.165
361.49	0.168
361.95	0.164
362.42	0.166
362.88	0.164
363.34	0.165
363.81	0.162
364.27	0.163
364.73	0.163
365.20	0.165
365.66	0.160
366.12	0.163
366.59	0.157
367.05	0.158
367.51	0.159
367.98	0.158
368.44	0.159
368.90	0.158
369.37	0.157
369.83	0.161
370.29	0.159
370.76	0.153
371.22	0.156
371.68	0.156
372.15	0.155
372.61	0.154
373.07	0.154
373.54	0.153
374.00	0.158
374.46	0.151
374.92	0.155
375.39	0.154
375.85	0.150
376.31	0.154
376.78	0.150
377.24	0.151
377.70	0.153
378.16	0.152
378.63	0.154
379.09	0.151
379.55	0.152
380.01	0.149
380.48	0.150
380.94	0.152
381.40	0.150
381.87	0.151
382.33	0.150
382.79	0.150
383.25	0.150
383.72	0.148
384.18	0.147
384.64	0.147
385.10	0.149
385.56	0.150
386.03	0.151
386.49	0.149
386.95	0.147
387.41	0.147
387.88	0.145
388.34	0.146
388.80	0.147
389.26	0.145
389.72	0.147
390.19	0.146
390.65	0.145
391.11	0.146
391.57	0.146
392.04	0.145
392.50	0.145
392.96	0.145
393.42	0.146
393.88	0.145
394.34	0.145
394.81	0.143
395.27	0.142
395.73	0.144
396.19	0.139
396.65	0.144
397.12	0.142
397.58	0.139
398.04	0.143
398.50	0.143
398.96	0.142
399.42	0.142
399.89	0.142
400.35	0.141
400.81	0.142
401.27	0.137
401.73	0.142
402.19	0.141
402.65	0.139
403.12	0.138
403.58	0.134
404.04	0.138
404.50	0.137
404.96	0.136
405.42	0.137
405.88	0.137
406.34	0.137
406.81	0.136
407.27	0.135
407.73	0.135
408.19	0.130
408.65	0.134
409.11	0.136
409.57	0.136
410.03	0.136
410.49	0.131
410.96	0.133
411.42	0.133
411.88	0.132
412.34	0.130
412.80	0.133
413.26	0.132
413.72	0.133
414.18	0.130
414.64	0.129
415.10	0.132
415.56	0.130
416.02	0.128
416.48	0.128
416.95	0.131
417.41	0.130
417.87	0.129
418.33	0.129
418.79	0.128
419.25	0.129
419.71	0.128
420.17	0.129
420.63	0.126
421.09	0.127
421.55	0.128
422.01	0.130
422.47	0.132
422.93	0.130
423.39	0.131
423.85	0.131
424.31	0.129
424.77	0.129
425.23	0.128
425.69	0.126
426.15	0.124
426.61	0.127
427.07	0.127
427.53	0.127
427.99	0.128
428.45	0.127
428.91	0.126
429.37	0.123
429.83	0.126
430.29	0.126
430.75	0.127
431.21	0.130
431.67	0.125
432.13	0.124
432.59	0.124
433.05	0.123
433.51	0.124
433.97	0.124
434.43	0.125
434.89	0.124
435.35	0.121
435.81	0.122
436.27	0.122
436.73	0.124
437.19	0.125
437.65	0.122
438.11	0.124
438.57	0.124
439.03	0.120
439.48	0.121
439.94	0.123
440.40	0.120
440.86	0.119
441.32	0.117
441.78	0.119
442.24	0.121
442.70	0.121
443.16	0.119
443.62	0.122
444.08	0.119
444.54	0.122
444.99	0.117
445.45	0.120
445.91	0.117
446.37	0.116
446.83	0.117
447.29	0.119
447.75	0.117
448.21	0.116
448.67	0.116
449.12	0.119
449.58	0.114
450.04	0.117
450.50	0.117
450.96	0.116
451.42	0.116
451.88	0.118
452.34	0.117
452.79	0.116
453.25	0.119
453.71	0.116
454.17	0.115
454.63	0.113
455.09	0.117
455.55	0.118
456.00	0.116
456.46	0.113
456.92	0.112
457.38	0.113
457.84	0.111
458.30	0.112
458.75	0.114
459.21	0.112
459.67	0.112
460.13	0.111
460.59	0.117
461.04	0.112
461.50	0.114
461.96	0.114
462.42	0.116
462.88	0.114
463.33	0.115
463.79	0.115
464.25	0.116
464.71	0.115
465.17	0.114
465.62	0.117
466.08	0.115
466.54	0.115
467.00	0.114
467.46	0.113
467.91	0.113
468.37	0.114
468.83	0.115
469.29	0.117
469.74	0.112
470.20	0.117
470.66	0.117
471.12	0.114
471.57	0.114
472.03	0.114
472.49	0.115
472.95	0.116
473.40	0.114
473.86	0.116
474.32	0.115
474.78	0.115
475.23	0.117
475.69	0.115
476.15	0.115
476.60	0.116
477.06	0.117
477.52	0.116
477.98	0.117
478.43	0.115
478.89	0.115
479.35	0.113
479.80	0.113
480.26	0.112
480.72	0.113
481.18	0.117
481.63	0.116
482.09	0.113
482.55	0.115
483.00	0.115
483.46	0.113
483.92	0.112
484.37	0.114
484.83	0.112
485.29	0.113
485.74	0.113
486.20	0.114
486.66	0.115
487.11	0.114
487.57	0.115
488.03	0.116
488.48	0.113
488.94	0.114
489.40	0.114
489.85	0.113
490.31	0.113
490.77	0.112
491.22	0.114
491.68	0.111
492.13	0.114
492.59	0.112
493.05	0.113
493.50	0.113
493.96	0.112
494.42	0.114
494.87	0.113
495.33	0.112
495.78	0.115
496.24	0.110
496.70	0.114
497.15	0.113
497.61	0.113
498.06	0.112
498.52	0.112
498.98	0.112
499.43	0.112
499.89	0.112
500.34	0.112
500.80	0.114
501.25	0.113
501.71	0.109
502.17	0.113
502.62	0.113
503.08	0.113
503.53	0.112
503.99	0.110
504.44	0.111
504.90	0.111
505.36	0.112
505.81	0.113
506.27	0.112
506.72	0.112
507.18	0.114
507.63	0.110
508.09	0.112
508.54	0.111
509.00	0.112
509.45	0.109
509.91	0.111
510.36	0.111
510.82	0.113
511.27	0.113
511.73	0.111
512.19	0.111
512.64	0.110
513.10	0.109
513.55	0.109
514.01	0.110
514.46	0.111
514.92	0.112
515.37	0.111
515.83	0.111
516.28	0.109
516.73	0.108
517.19	0.109
517.64	0.109
518.10	0.109
518.55	0.110
519.01	0.111
519.46	0.109
519.92	0.110
520.37	0.109
520.83	0.111
521.28	0.108
521.74	0.110
522.19	0.110
522.65	0.108
523.10	0.110
523.55	0.109
524.01	0.108
524.46	0.109
524.92	0.108
525.37	0.108
525.83	0.109
526.28	0.110
526.73	0.109
527.19	0.108
527.64	0.110
528.10	0.111
528.55	0.110
529.01	0.111
529.46	0.109
529.91	0.110
530.37	0.111
530.82	0.109
531.28	0.110
531.73	0.109
532.18	0.109
532.64	0.108
533.09	0.111
533.54	0.111
534.00	0.109
534.45	0.109
534.91	0.109
535.36	0.109
535.81	0.110
536.27	0.113
536.72	0.111
537.17	0.111
537.63	0.111
538.08	0.111
538.54	0.111
538.99	0.113
539.44	0.113
539.90	0.111
540.35	0.111
540.80	0.113
541.26	0.113
541.71	0.113
542.16	0.114
542.62	0.115
543.07	0.114
543.52	0.115
543.98	0.113
544.43	0.114
544.88	0.116
545.34	0.115
545.79	0.116
546.24	0.115
546.69	0.115
547.15	0.118
547.60	0.116
548.05	0.116
548.51	0.117
548.96	0.117
549.41	0.119
549.86	0.116
550.32	0.118
550.77	0.117
551.22	0.118
551.68	0.119
552.13	0.118
552.58	0.120
553.03	0.121
553.49	0.120
553.94	0.121
554.39	0.119
554.84	0.120
555.30	0.123
555.75	0.122
556.20	0.124
556.65	0.122
557.11	0.125
557.56	0.122
558.01	0.123
558.46	0.124
558.92	0.124
559.37	0.126
559.82	0.128
560.27	0.127
560.72	0.126
561.18	0.125
561.63	0.125
562.08	0.129
562.53	0.128
562.99	0.130
563.44	0.130
563.89	0.130
564.34	0.130
564.79	0.130
565.25	0.132
565.70	0.132
566.15	0.134
566.60	0.133
567.05	0.136
567.50	0.135
567.96	0.135
568.41	0.133
568.86	0.135
569.31	0.139
569.76	0.136
570.21	0.137
570.67	0.138
571.12	0.140
571.57	0.140
572.02	0.142
572.47	0.139
572.92	0.140
573.37	0.142
573.83	0.141
574.28	0.142
574.73	0.143
575.18	0.143
575.63	0.145
576.08	0.145
576.53	0.146
576.98	0.146
577.44	0.151
577.89	0.148
578.34	0.149
578.79	0.150
579.24	0.152
579.69	0.153
580.14	0.153
580.59	0.154
581.04	0.153
581.49	0.154
581.95	0.158
582.40	0.157
582.85	0.157
583.30	0.160
583.75	0.162
584.20	0.161
584.65	0.163
585.10	0.164
585.55	0.166
586.00	0.167
586.45	0.166
586.90	0.171
587.35	0.170
587.80	0.171
588.25	0.174
588.71	0.174
589.16	0.174
589.61	0.177
590.06	0.178
590.51	0.180
590.96	0.183
591.41	0.183
591.86	0.182
592.31	0.186
592.76	0.187
593.21	0.188
593.66	0.191
594.11	0.193
594.56	0.195
595.01	0.194
595.46	0.199
595.91	0.199
596.36	0.201
596.81	0.201
597.26	0.203
597.71	0.203
598.16	0.205
598.61	0.205
599.06	0.207
599.51	0.208
599.96	0.212
600.41	0.214
600.86	0.214
601.31	0.213
601.76	0.219
602.21	0.216
602.65	0.218
603.10	0.221
603.55	0.221
604.00	0.224
604.45	0.227
604.90	0.227
605.35	0.228
605.80	0.231
606.25	0.231
606.70	0.232
607.15	0.232
607.60	0.236
608.05	0.236
608.50	0.236
608.95	0.238
609.39	0.239
609.84	0.242
610.29	0.243
610.74	0.242
611.19	0.244
611.64	0.246
612.09	0.247
612.54	0.247
612.99	0.246
613.44	0.245
613.88	0.248
614.33	0.250
614.78	0.249
615.23	0.251
615.68	0.249
616.13	0.251
616.58	0.253
617.03	0.251
617.47	0.251
617.92	0.253
618.37	0.254
618.82	0.255
619.27	0.254
619.72	0.255
620.17	0.257
620.61	0.257
621.06	0.258
621.51	0.261
621.96	0.259
622.41	0.258
622.86	0.261
623.30	0.260
623.75	0.260
624.20	0.262
624.65	0.263
625.10	0.264
625.54	0.265
625.99	0.264
626.44	0.267
626.89	0.267
627.34	0.266
627.78	0.270
628.23	0.271
628.68	0.272
629.13	0.273
629.58	0.272
630.02	0.274
630.47	0.278
630.92	0.275
631.37	0.277
631.81	0.279
632.26	0.280
632.71	0.281
633.16	0.283
633.61	0.284
634.05	0.288
634.50	0.285
634.95	0.291
635.40	0.291
635.84	0.292
636.29	0.294
636.74	0.296
637.18	0.299
637.63	0.299
638.08	0.302
638.53	0.306
638.97	0.307
639.42	0.309
639.87	0.311
640.32	0.315
640.76	0.316
641.21	0.316
641.66	0.319
642.10	0.325
642.55	0.323
643.00	0.327
643.44	0.328
643.89	0.329
644.34	0.331
644.79	0.335
645.23	0.339
645.68	0.340
646.13	0.343
646.57	0.346
647.02	0.350
647.47	0.352
647.91	0.353
648.36	0.355
648.81	0.358
649.25	0.358
649.70	0.360
650.15	0.365
650.59	0.369
651.04	0.369
651.48	0.370
651.93	0.373
652.38	0.374
652.82	0.375
653.27	0.378
653.72	0.380
654.16	0.384
654.61	0.386
655.06	0.387
655.50	0.386
655.95	0.389
656.39	0.392
656.84	0.393
657.29	0.396
657.73	0.394
658.18	0.396
658.62	0.399
659.07	0.398
659.52	0.399
659.96	0.402
660.41	0.402
660.85	0.403
661.30	0.404
661.74	0.402
662.19	0.402
662.64	0.404
663.08	0.405
663.53	0.407
663.97	0.403
664.42	0.407
664.86	0.406
665.31	0.408
665.75	0.406
666.20	0.404
666.65	0.403
667.09	0.401
667.54	0.400
667.98	0.398
668.43	0.397
668.87	0.394
669.32	0.391
669.76	0.389
670.21	0.388
670.65	0.381
671.10	0.381
671.54	0.376
671.99	0.372
672.43	0.367
672.88	0.364
673.32	0.360
673.77	0.356
674.21	0.350
674.66	0.345
675.10	0.339
675.55	0.334
675.99	0.330
676.44	0.324
676.88	0.318
677.33	0.313
677.77	0.305
678.22	0.299
678.66	0.295
679.11	0.290
679.55	0.281
679.99	0.276
680.44	0.272
680.88	0.262
681.33	0.257
681.77	0.250
682.22	0.243
682.66	0.236
683.11	0.234
683.55	0.224
683.99	0.220
684.44	0.216
684.88	0.213
685.33	0.203
685.77	0.198
686.21	0.195
686.66	0.189
687.10	0.185
687.55	0.180
687.99	0.174
688.44	0.170
688.88	0.166
689.32	0.162
689.77	0.158
690.21	0.155
690.65	0.152
691.10	0.147
691.54	0.142
691.99	0.139
692.43	0.138
692.87	0.135
693.32	0.133
693.76	0.129
694.20	0.128
694.65	0.124
695.09	0.123
695.53	0.121
695.98	0.118
696.42	0.118
696.86	0.113
697.31	0.112
697.75	0.111
698.19	0.107
698.64	0.106
699.08	0.108
699.52	0.105
699.97	0.103
700.41	0.102
700.85	0.101
701.30	0.100
701.74	0.097
702.18	0.097
702.63	0.096
703.07	0.094
703.51	0.095
703.96	0.093
704.40	0.092
704.84	0.089
705.28	0.090
705.73	0.092
706.17	0.089
706.61	0.089
707.06	0.090
707.50	0.086
707.94	0.086
708.38	0.087
708.83	0.087
709.27	0.085
709.71	0.083
710.15	0.086
710.60	0.085
711.04	0.083
711.48	0.082
711.92	0.084
712.37	0.081
712.81	0.082
713.25	0.081
713.69	0.084
714.13	0.080
714.58	0.079
715.02	0.080
715.46	0.080
715.90	0.080
716.35	0.083
716.79	0.081
717.23	0.081
717.67	0.081
718.11	0.080
718.56	0.081
719.00	0.079
719.44	0.081
719.88	0.081
720.32	0.079
720.76	0.079
721.21	0.083
721.65	0.082
722.09	0.083
722.53	0.081
722.97	0.081
723.41	0.077
723.86	0.082
724.30	0.083
724.74	0.080
725.18	0.081
725.62	0.082
726.06	0.083
726.50	0.081
726.95	0.079
727.39	0.081
727.83	0.079
728.27	0.080
728.71	0.080
729.15	0.081
729.59	0.080
730.03	0.081
730.48	0.080
730.92	0.079
731.36	0.081
731.80	0.080
732.24	0.083
732.68	0.082
733.12	0.082
733.56	0.082
734.00	0.081
734.44	0.083
734.89	0.084
735.33	0.085
735.77	0.084
736.21	0.080
736.65	0.082
737.09	0.082
737.53	0.084
737.97	0.085
738.41	0.081
738.85	0.084
739.29	0.085
739.73	0.080
740.17	0.082
740.61	0.083
741.05	0.082
741.49	0.083
741.93	0.082
742.37	0.082
742.81	0.084
743.26	0.083
743.70	0.082
744.14	0.084
744.58	0.082
745.02	0.082
745.46	0.084
745.90	0.082
746.34	0.082
746.78	0.082
747.22	0.082
747.66	0.081
748.10	0.081
748.54	0.083
748.98	0.083
749.42	0.085
749.86	0.083
750.29	0.083
750.73	0.081
751.17	0.081
751.61	0.080
752.05	0.083
752.49	0.079
752.93	0.081
753.37	0.082
753.81	0.081
754.25	0.080
754.69	0.080
755.13	0.080
755.57	0.081
756.01	0.079
756.45	0.081
756.89	0.081
757.33	0.084
757.77	0.079
758.21	0.082
758.64	0.082
759.08	0.079
759.52	0.079
759.96	0.079
760.40	0.079
760.84	0.082
761.28	0.082
761.72	0.078
762.16	0.081
762.60	0.081
763.03	0.080
763.47	0.078
763.91	0.084
764.35	0.080
764.79	0.082
765.23	0.080
765.67	0.083
766.11	0.083
766.54	0.080
766.98	0.079
767.42	0.078
767.86	0.076
768.30	0.077
768.74	0.078
769.17	0.078
769.61	0.081
770.05	0.080
770.49	0.082
770.93	0.082
771.37	0.080
771.80	0.081
772.24	0.080
772.68	0.083
773.12	0.082
773.56	0.083
774.00	0.080
774.43	0.079
774.87	0.077
775.31	0.081
775.75	0.081
776.19	0.081
776.62	0.081
777.06	0.080
777.50	0.080
777.94	0.084
778.37	0.079
778.81	0.079
779.25	0.081
779.69	0.080
780.13	0.076
780.56	0.081
781.00	0.081
781.44	0.077
781.88	0.080
782.31	0.082
782.75	0.083
783.19	0.079
783.63	0.079
784.06	0.078
784.50	0.079
784.94	0.076
785.37	0.079
785.81	0.080
786.25	0.076
786.69	0.083
787.12	0.076
787.56	0.080
788.00	0.076
788.43	0.078
788.87	0.079
789.31	0.080
789.75	0.083
790.18	0.080
790.62	0.077
791.06	0.075
791.49	0.076
791.93	0.078
792.37	0.077
792.80	0.078
793.24	0.078
793.68	0.081
794.11	0.078
794.55	0.078
794.99	0.077
795.42	0.073
795.86	0.079
796.30	0.076
796.73	0.080
797.17	0.076
797.61	0.077
798.04	0.080
798.48	0.082
798.91	0.076
799.35	0.081
799.79	0.076
800.22	0.072
800.66	0.077
801.10	0.079
801.53	0.080
801.97	0.079
802.40	0.076
802.84	0.076
803.28	0.080
803.71	0.076
804.15	0.077
804.58	0.081
805.02	0.074
805.46	0.078
805.89	0.082
806.33	0.076
806.76	0.074
807.20	0.072
807.63	0.079
808.07	0.077
808.51	0.073
808.94	0.079
809.38	0.078
809.81	0.073
810.25	0.075
810.68	0.077
811.12	0.077
811.55	0.080
811.99	0.080
812.42	0.077
812.86	0.076
813.29	0.078
813.73	0.073
814.17	0.074
814.60	0.078
815.04	0.077
815.47	0.076
815.91	0.075
816.34	0.075
816.78	0.078
817.21	0.076
817.65	0.076
