SpectraSuite Data File
++++++++++++++++++++++++++++++++++++
Date: Tue Jul 11 13:32:29 CEST 2017
User: IPCE
Dark Spectrum Present: Yes
Reference Spectrum Present: Yes
Number of Sampled Component Spectra: 1
Spectrometers: HR+C0708
Integration Time (usec): 1000 (HR+C0708)
Spectra Averaged: 10 (HR+C0708)
Boxcar Smoothing: 0 (HR+C0708)
Correct for Electrical Dark: No (HR+C0708)
Strobe/Lamp Enabled: No (HR+C0708)
Correct for Detector Non-linearity: No (HR+C0708)
Correct for Stray Light: No (HR+C0708)
Number of Pixels in Processed Spectrum: 2048
>>>>>Begin Processed Spectral Data<<<<<
188.76	0.252
189.23	0.075
189.70	0.590
190.17	0.142
190.64	0.305
191.12	0.464
191.59	0.593
192.06	0.049
192.53	-0.033
193.01	0.304
193.48	0.022
193.95	0.037
194.42	-0.023
194.90	0.437
195.37	-0.117
195.84	0.500
196.31	0.020
196.78	0.807
197.26	0.026
197.73	0.052
198.20	-0.018
198.67	-0.000
199.14	-0.000
199.62	0.266
200.09	0.208
200.56	0.314
201.03	0.365
201.50	0.362
201.97	0.567
202.45	0.462
202.92	0.304
203.39	0.443
203.86	0.511
204.33	0.330
204.80	0.385
205.28	0.444
205.75	0.518
206.22	0.293
206.69	0.280
207.16	0.304
207.63	0.272
208.11	0.378
208.58	0.519
209.05	0.544
209.52	0.470
209.99	0.465
210.46	0.345
210.93	0.348
211.41	0.484
211.88	0.450
212.35	0.384
212.82	0.402
213.29	0.492
213.76	0.374
214.23	0.348
214.70	0.875
215.18	0.535
215.65	0.720
216.12	0.485
216.59	0.411
217.06	0.449
217.53	0.340
218.00	0.523
218.47	0.509
218.94	0.459
219.41	0.539
219.89	0.495
220.36	0.444
220.83	0.576
221.30	0.670
221.77	0.550
222.24	0.504
222.71	0.541
223.18	0.490
223.65	0.660
224.12	0.759
224.59	0.544
225.06	0.653
225.54	0.720
226.01	0.615
226.48	0.783
226.95	0.831
227.42	1.000
227.89	0.946
228.36	0.961
228.83	1.010
229.30	1.276
229.77	1.181
230.24	1.271
230.71	1.232
231.18	1.151
231.65	1.269
232.12	1.214
232.59	1.342
233.06	1.547
233.53	1.598
234.00	1.353
234.47	1.621
234.94	1.650
235.41	1.768
235.88	1.834
236.35	1.772
236.82	1.990
237.29	1.814
237.76	1.961
238.23	1.905
238.70	1.935
239.17	2.004
239.64	2.304
240.11	2.008
240.58	2.098
241.05	2.070
241.52	2.369
241.99	2.344
242.46	2.303
242.93	2.442
243.40	2.333
243.87	2.190
244.34	2.264
244.81	2.244
245.28	2.287
245.75	2.290
246.22	2.217
246.69	2.392
247.16	2.537
247.63	2.472
248.10	2.732
248.57	2.270
249.04	2.370
249.51	2.326
249.98	2.519
250.45	2.234
250.92	2.225
251.39	2.514
251.85	2.357
252.32	2.413
252.79	2.271
253.26	2.644
253.73	2.965
254.20	2.855
254.67	2.446
255.14	2.332
255.61	2.663
256.08	2.682
256.55	2.568
257.02	2.450
257.49	2.674
257.95	2.644
258.42	2.730
258.89	2.540
259.36	2.599
259.83	2.689
260.30	2.574
260.77	2.624
261.24	2.507
261.71	2.618
262.17	2.685
262.64	2.658
263.11	2.726
263.58	2.549
264.05	2.619
264.52	2.621
264.99	2.594
265.46	2.506
265.92	2.638
266.39	2.527
266.86	2.641
267.33	2.668
267.80	2.742
268.27	2.666
268.74	2.981
269.20	2.810
269.67	2.539
270.14	2.584
270.61	2.561
271.08	2.613
271.55	2.561
272.01	2.560
272.48	2.593
272.95	2.670
273.42	2.789
273.89	2.501
274.36	2.491
274.82	2.612
275.29	2.602
275.76	2.421
276.23	2.537
276.70	2.539
277.16	2.602
277.63	2.784
278.10	2.517
278.57	2.540
279.04	2.531
279.50	2.424
279.97	2.586
280.44	2.587
280.91	2.485
281.38	2.551
281.84	2.882
282.31	2.537
282.78	2.583
283.25	2.644
283.72	2.559
284.18	2.572
284.65	2.743
285.12	2.615
285.59	2.615
286.05	2.533
286.52	2.699
286.99	2.618
287.46	2.614
287.92	2.481
288.39	2.641
288.86	2.555
289.33	2.518
289.79	2.598
290.26	2.602
290.73	2.516
291.20	2.552
291.66	2.580
292.13	2.484
292.60	2.413
293.07	2.516
293.53	2.477
294.00	2.541
294.47	2.471
294.93	2.601
295.40	2.597
295.87	2.548
296.34	2.638
296.80	2.529
297.27	2.424
297.74	2.430
298.20	2.476
298.67	2.439
299.14	2.459
299.60	2.429
300.07	2.456
300.54	2.418
301.01	2.318
301.47	2.428
301.94	2.492
302.41	2.434
302.87	2.460
303.34	2.547
303.81	2.350
304.27	2.362
304.74	2.363
305.21	2.254
305.67	2.513
306.14	2.374
306.61	2.318
307.07	2.251
307.54	2.352
308.01	2.348
308.47	2.415
308.94	2.411
309.40	2.270
309.87	2.386
310.34	2.389
310.80	2.377
311.27	2.360
311.74	2.459
312.20	2.296
312.67	2.373
313.13	2.331
313.60	2.338
314.07	2.306
314.53	2.257
315.00	2.374
315.47	2.329
315.93	2.374
316.40	2.307
316.86	2.364
317.33	2.316
317.80	2.291
318.26	2.280
318.73	2.230
319.19	2.293
319.66	2.309
320.13	2.258
320.59	2.201
321.06	2.249
321.52	2.184
321.99	2.150
322.45	2.193
322.92	2.090
323.39	2.128
323.85	2.109
324.32	2.132
324.78	2.100
325.25	2.122
325.71	2.048
326.18	2.121
326.64	2.069
327.11	2.164
327.58	2.119
328.04	2.105
328.51	2.084
328.97	2.064
329.44	2.082
329.90	2.027
330.37	2.033
330.83	2.013
331.30	2.091
331.76	2.046
332.23	2.137
332.69	2.068
333.16	2.081
333.62	2.147
334.09	2.116
334.56	2.136
335.02	2.112
335.49	2.107
335.95	2.101
336.42	2.037
336.88	2.122
337.35	2.138
337.81	2.156
338.28	2.021
338.74	2.157
339.20	2.104
339.67	2.060
340.13	2.146
340.60	2.045
341.06	2.036
341.53	2.033
341.99	2.066
342.46	2.024
342.92	2.029
343.39	2.014
343.85	2.009
344.32	2.001
344.78	1.970
345.25	2.005
345.71	1.931
346.17	1.915
346.64	1.893
347.10	1.884
347.57	1.858
348.03	1.850
348.50	1.796
348.96	1.745
349.43	1.727
349.89	1.708
350.35	1.652
350.82	1.578
351.28	1.551
351.75	1.523
352.21	1.459
352.67	1.418
353.14	1.354
353.60	1.289
354.07	1.230
354.53	1.158
355.00	1.073
355.46	1.007
355.92	0.919
356.39	0.833
356.85	0.752
357.31	0.685
357.78	0.600
358.24	0.532
358.71	0.469
359.17	0.409
359.63	0.361
360.10	0.314
360.56	0.269
361.03	0.234
361.49	0.207
361.95	0.181
362.42	0.164
362.88	0.144
363.34	0.133
363.81	0.120
364.27	0.109
364.73	0.100
365.20	0.095
365.66	0.092
366.12	0.087
366.59	0.082
367.05	0.080
367.51	0.075
367.98	0.073
368.44	0.075
368.90	0.070
369.37	0.068
369.83	0.070
370.29	0.067
370.76	0.066
371.22	0.065
371.68	0.065
372.15	0.065
372.61	0.064
373.07	0.067
373.54	0.064
374.00	0.067
374.46	0.061
374.92	0.064
375.39	0.061
375.85	0.061
376.31	0.063
376.78	0.060
377.24	0.060
377.70	0.061
378.16	0.061
378.63	0.060
379.09	0.060
379.55	0.058
380.01	0.057
380.48	0.060
380.94	0.061
381.40	0.061
381.87	0.059
382.33	0.058
382.79	0.059
383.25	0.059
383.72	0.060
384.18	0.058
384.64	0.059
385.10	0.058
385.56	0.058
386.03	0.060
386.49	0.058
386.95	0.057
387.41	0.060
387.88	0.054
388.34	0.057
388.80	0.058
389.26	0.056
389.72	0.057
390.19	0.061
390.65	0.054
391.11	0.059
391.57	0.056
392.04	0.056
392.50	0.057
392.96	0.056
393.42	0.055
393.88	0.056
394.34	0.056
394.81	0.056
395.27	0.056
395.73	0.056
396.19	0.052
396.65	0.057
397.12	0.054
397.58	0.055
398.04	0.052
398.50	0.054
398.96	0.054
399.42	0.055
399.89	0.053
400.35	0.053
400.81	0.053
401.27	0.050
401.73	0.053
402.19	0.052
402.65	0.051
403.12	0.050
403.58	0.049
404.04	0.051
404.50	0.049
404.96	0.047
405.42	0.047
405.88	0.049
406.34	0.047
406.81	0.050
407.27	0.048
407.73	0.048
408.19	0.047
408.65	0.047
409.11	0.050
409.57	0.048
410.03	0.046
410.49	0.042
410.96	0.045
411.42	0.044
411.88	0.046
412.34	0.044
412.80	0.045
413.26	0.045
413.72	0.047
414.18	0.041
414.64	0.041
415.10	0.043
415.56	0.044
416.02	0.041
416.48	0.044
416.95	0.044
417.41	0.046
417.87	0.044
418.33	0.044
418.79	0.040
419.25	0.042
419.71	0.043
420.17	0.043
420.63	0.043
421.09	0.042
421.55	0.039
422.01	0.040
422.47	0.044
422.93	0.044
423.39	0.045
423.85	0.043
424.31	0.043
424.77	0.042
425.23	0.043
425.69	0.040
426.15	0.042
426.61	0.042
427.07	0.041
427.53	0.042
427.99	0.043
428.45	0.044
428.91	0.041
429.37	0.040
429.83	0.040
430.29	0.043
430.75	0.041
431.21	0.041
431.67	0.043
432.13	0.039
432.59	0.040
433.05	0.043
433.51	0.042
433.97	0.040
434.43	0.042
434.89	0.040
435.35	0.040
435.81	0.037
436.27	0.040
436.73	0.041
437.19	0.042
437.65	0.041
438.11	0.039
438.57	0.041
439.03	0.036
439.48	0.037
439.94	0.040
440.40	0.036
440.86	0.037
441.32	0.038
441.78	0.037
442.24	0.039
442.70	0.042
443.16	0.040
443.62	0.042
444.08	0.038
444.54	0.039
444.99	0.036
445.45	0.041
445.91	0.037
446.37	0.036
446.83	0.040
447.29	0.037
447.75	0.037
448.21	0.038
448.67	0.037
449.12	0.041
449.58	0.037
450.04	0.039
450.50	0.037
450.96	0.038
451.42	0.038
451.88	0.038
452.34	0.040
452.79	0.033
453.25	0.037
453.71	0.039
454.17	0.034
454.63	0.035
455.09	0.039
455.55	0.040
456.00	0.040
456.46	0.038
456.92	0.036
457.38	0.037
457.84	0.038
458.30	0.037
458.75	0.041
459.21	0.038
459.67	0.038
460.13	0.037
460.59	0.040
461.04	0.039
461.50	0.038
461.96	0.037
462.42	0.038
462.88	0.037
463.33	0.039
463.79	0.040
464.25	0.037
464.71	0.040
465.17	0.037
465.62	0.040
466.08	0.039
466.54	0.040
467.00	0.039
467.46	0.037
467.91	0.037
468.37	0.041
468.83	0.040
469.29	0.039
469.74	0.040
470.20	0.041
470.66	0.040
471.12	0.041
471.57	0.038
472.03	0.040
472.49	0.041
472.95	0.041
473.40	0.040
473.86	0.043
474.32	0.041
474.78	0.041
475.23	0.040
475.69	0.041
476.15	0.041
476.60	0.043
477.06	0.043
477.52	0.040
477.98	0.041
478.43	0.042
478.89	0.042
479.35	0.042
479.80	0.040
480.26	0.040
480.72	0.040
481.18	0.044
481.63	0.042
482.09	0.040
482.55	0.043
483.00	0.044
483.46	0.041
483.92	0.038
484.37	0.043
484.83	0.041
485.29	0.044
485.74	0.042
486.20	0.043
486.66	0.043
487.11	0.042
487.57	0.043
488.03	0.043
488.48	0.042
488.94	0.045
489.40	0.043
489.85	0.043
490.31	0.043
490.77	0.042
491.22	0.044
491.68	0.042
492.13	0.043
492.59	0.043
493.05	0.045
493.50	0.046
493.96	0.042
494.42	0.044
494.87	0.046
495.33	0.044
495.78	0.045
496.24	0.045
496.70	0.044
497.15	0.044
497.61	0.045
498.06	0.044
498.52	0.043
498.98	0.047
499.43	0.044
499.89	0.043
500.34	0.046
500.80	0.046
501.25	0.044
501.71	0.044
502.17	0.046
502.62	0.044
503.08	0.047
503.53	0.045
503.99	0.043
504.44	0.043
504.90	0.043
505.36	0.043
505.81	0.045
506.27	0.047
506.72	0.045
507.18	0.044
507.63	0.043
508.09	0.045
508.54	0.045
509.00	0.043
509.45	0.042
509.91	0.044
510.36	0.044
510.82	0.042
511.27	0.045
511.73	0.047
512.19	0.045
512.64	0.044
513.10	0.042
513.55	0.044
514.01	0.044
514.46	0.045
514.92	0.045
515.37	0.045
515.83	0.043
516.28	0.045
516.73	0.044
517.19	0.043
517.64	0.043
518.10	0.041
518.55	0.043
519.01	0.045
519.46	0.044
519.92	0.044
520.37	0.043
520.83	0.048
521.28	0.044
521.74	0.043
522.19	0.043
522.65	0.042
523.10	0.046
523.55	0.044
524.01	0.043
524.46	0.044
524.92	0.043
525.37	0.044
525.83	0.046
526.28	0.046
526.73	0.045
527.19	0.045
527.64	0.045
528.10	0.046
528.55	0.047
529.01	0.046
529.46	0.045
529.91	0.047
530.37	0.048
530.82	0.047
531.28	0.047
531.73	0.046
532.18	0.049
532.64	0.046
533.09	0.048
533.54	0.049
534.00	0.049
534.45	0.050
534.91	0.048
535.36	0.049
535.81	0.048
536.27	0.052
536.72	0.050
537.17	0.051
537.63	0.049
538.08	0.050
538.54	0.052
538.99	0.053
539.44	0.053
539.90	0.052
540.35	0.052
540.80	0.053
541.26	0.054
541.71	0.057
542.16	0.056
542.62	0.057
543.07	0.057
543.52	0.057
543.98	0.058
544.43	0.057
544.88	0.059
545.34	0.060
545.79	0.060
546.24	0.059
546.69	0.061
547.15	0.062
547.60	0.062
548.05	0.061
548.51	0.063
548.96	0.062
549.41	0.064
549.86	0.063
550.32	0.067
550.77	0.065
551.22	0.066
551.68	0.067
552.13	0.070
552.58	0.068
553.03	0.069
553.49	0.070
553.94	0.071
554.39	0.072
554.84	0.073
555.30	0.073
555.75	0.075
556.20	0.075
556.65	0.076
557.11	0.077
557.56	0.076
558.01	0.078
558.46	0.078
558.92	0.079
559.37	0.082
559.82	0.083
560.27	0.082
560.72	0.082
561.18	0.083
561.63	0.085
562.08	0.085
562.53	0.087
562.99	0.089
563.44	0.090
563.89	0.090
564.34	0.090
564.79	0.089
565.25	0.092
565.70	0.095
566.15	0.096
566.60	0.093
567.05	0.096
567.50	0.098
567.96	0.098
568.41	0.097
568.86	0.101
569.31	0.102
569.76	0.100
570.21	0.103
570.67	0.106
571.12	0.105
571.57	0.108
572.02	0.108
572.47	0.109
572.92	0.111
573.37	0.113
573.83	0.112
574.28	0.113
574.73	0.116
575.18	0.114
575.63	0.118
576.08	0.118
576.53	0.120
576.98	0.120
577.44	0.125
577.89	0.124
578.34	0.127
578.79	0.127
579.24	0.130
579.69	0.130
580.14	0.132
580.59	0.134
581.04	0.133
581.49	0.137
581.95	0.140
582.40	0.141
582.85	0.143
583.30	0.148
583.75	0.147
584.20	0.149
584.65	0.151
585.10	0.154
585.55	0.156
586.00	0.155
586.45	0.159
586.90	0.162
587.35	0.163
587.80	0.168
588.25	0.170
588.71	0.172
589.16	0.174
589.61	0.177
590.06	0.178
590.51	0.183
590.96	0.185
591.41	0.189
591.86	0.189
592.31	0.196
592.76	0.195
593.21	0.198
593.66	0.201
594.11	0.206
594.56	0.207
595.01	0.210
595.46	0.213
595.91	0.216
596.36	0.221
596.81	0.221
597.26	0.224
597.71	0.228
598.16	0.231
598.61	0.233
599.06	0.236
599.51	0.240
599.96	0.244
600.41	0.247
600.86	0.248
601.31	0.249
601.76	0.257
602.21	0.257
602.65	0.260
603.10	0.263
603.55	0.266
604.00	0.269
604.45	0.273
604.90	0.275
605.35	0.277
605.80	0.279
606.25	0.282
606.70	0.284
607.15	0.284
607.60	0.289
608.05	0.291
608.50	0.294
608.95	0.295
609.39	0.299
609.84	0.301
610.29	0.303
610.74	0.301
611.19	0.306
611.64	0.306
612.09	0.311
612.54	0.310
612.99	0.311
613.44	0.311
613.88	0.313
614.33	0.315
614.78	0.316
615.23	0.318
615.68	0.319
616.13	0.318
616.58	0.318
617.03	0.321
617.47	0.321
617.92	0.322
618.37	0.321
618.82	0.325
619.27	0.324
619.72	0.322
620.17	0.327
620.61	0.328
621.06	0.324
621.51	0.329
621.96	0.328
622.41	0.329
622.86	0.331
623.30	0.331
623.75	0.330
624.20	0.332
624.65	0.333
625.10	0.337
625.54	0.338
625.99	0.336
626.44	0.340
626.89	0.340
627.34	0.340
627.78	0.341
628.23	0.341
628.68	0.345
629.13	0.347
629.58	0.349
630.02	0.351
630.47	0.353
630.92	0.354
631.37	0.355
631.81	0.360
632.26	0.360
632.71	0.365
633.16	0.366
633.61	0.368
634.05	0.373
634.50	0.373
634.95	0.376
635.40	0.382
635.84	0.382
636.29	0.386
636.74	0.391
637.18	0.395
637.63	0.396
638.08	0.402
638.53	0.404
638.97	0.409
639.42	0.412
639.87	0.418
640.32	0.420
640.76	0.424
641.21	0.426
641.66	0.434
642.10	0.439
642.55	0.442
643.00	0.448
643.44	0.451
643.89	0.457
644.34	0.459
644.79	0.471
645.23	0.472
645.68	0.477
646.13	0.484
646.57	0.488
647.02	0.493
647.47	0.500
647.91	0.504
648.36	0.512
648.81	0.512
649.25	0.518
649.70	0.523
650.15	0.530
650.59	0.533
651.04	0.536
651.48	0.540
651.93	0.548
652.38	0.551
652.82	0.556
653.27	0.562
653.72	0.566
654.16	0.571
654.61	0.576
655.06	0.579
655.50	0.581
655.95	0.585
656.39	0.590
656.84	0.596
657.29	0.598
657.73	0.600
658.18	0.608
658.62	0.607
659.07	0.614
659.52	0.616
659.96	0.621
660.41	0.623
660.85	0.625
661.30	0.629
661.74	0.633
662.19	0.631
662.64	0.637
663.08	0.639
663.53	0.646
663.97	0.639
664.42	0.646
664.86	0.645
665.31	0.643
665.75	0.647
666.20	0.645
666.65	0.643
667.09	0.642
667.54	0.640
667.98	0.637
668.43	0.638
668.87	0.634
669.32	0.631
669.76	0.624
670.21	0.619
670.65	0.615
671.10	0.614
671.54	0.608
671.99	0.595
672.43	0.590
672.88	0.580
673.32	0.572
673.77	0.564
674.21	0.559
674.66	0.547
675.10	0.537
675.55	0.523
675.99	0.517
676.44	0.506
676.88	0.492
677.33	0.486
677.77	0.468
678.22	0.457
678.66	0.447
679.11	0.434
679.55	0.422
679.99	0.409
680.44	0.399
680.88	0.385
681.33	0.371
681.77	0.357
682.22	0.347
682.66	0.336
683.11	0.323
683.55	0.312
683.99	0.299
684.44	0.291
684.88	0.281
685.33	0.270
685.77	0.258
686.21	0.249
686.66	0.236
687.10	0.229
687.55	0.218
687.99	0.209
688.44	0.202
688.88	0.194
689.32	0.186
689.77	0.177
690.21	0.170
690.65	0.164
691.10	0.156
691.54	0.145
691.99	0.143
692.43	0.139
692.87	0.131
693.32	0.126
693.76	0.119
694.20	0.115
694.65	0.111
695.09	0.107
695.53	0.104
695.98	0.100
696.42	0.095
696.86	0.088
697.31	0.086
697.75	0.082
698.19	0.077
698.64	0.075
699.08	0.076
699.52	0.071
699.97	0.069
700.41	0.068
700.85	0.064
701.30	0.060
701.74	0.056
702.18	0.058
702.63	0.054
703.07	0.054
703.51	0.052
703.96	0.049
704.40	0.049
704.84	0.047
705.28	0.045
705.73	0.043
706.17	0.044
706.61	0.042
707.06	0.042
707.50	0.038
707.94	0.039
708.38	0.038
708.83	0.037
709.27	0.037
709.71	0.034
710.15	0.035
710.60	0.036
711.04	0.032
711.48	0.032
711.92	0.033
712.37	0.030
712.81	0.031
713.25	0.028
713.69	0.032
714.13	0.025
714.58	0.027
715.02	0.027
715.46	0.027
715.90	0.025
716.35	0.029
716.79	0.026
717.23	0.028
717.67	0.029
718.11	0.025
718.56	0.025
719.00	0.024
719.44	0.028
719.88	0.024
720.32	0.025
720.76	0.024
721.21	0.023
721.65	0.026
722.09	0.024
722.53	0.026
722.97	0.025
723.41	0.022
723.86	0.026
724.30	0.025
724.74	0.025
725.18	0.024
725.62	0.027
726.06	0.027
726.50	0.027
726.95	0.024
727.39	0.025
727.83	0.025
728.27	0.022
728.71	0.025
729.15	0.027
729.59	0.024
730.03	0.026
730.48	0.028
730.92	0.026
731.36	0.024
731.80	0.024
732.24	0.027
732.68	0.025
733.12	0.025
733.56	0.025
734.00	0.025
734.44	0.026
734.89	0.028
735.33	0.027
735.77	0.028
736.21	0.027
736.65	0.026
737.09	0.027
737.53	0.029
737.97	0.027
738.41	0.026
738.85	0.028
739.29	0.029
739.73	0.027
740.17	0.027
740.61	0.027
741.05	0.026
741.49	0.028
741.93	0.026
742.37	0.026
742.81	0.029
743.26	0.028
743.70	0.028
744.14	0.030
744.58	0.029
745.02	0.027
745.46	0.030
745.90	0.029
746.34	0.031
746.78	0.028
747.22	0.026
747.66	0.026
748.10	0.029
748.54	0.024
748.98	0.027
749.42	0.029
749.86	0.029
750.29	0.028
750.73	0.028
751.17	0.025
751.61	0.025
752.05	0.030
752.49	0.026
752.93	0.025
753.37	0.028
753.81	0.027
754.25	0.026
754.69	0.026
755.13	0.026
755.57	0.025
756.01	0.025
756.45	0.028
756.89	0.029
757.33	0.028
757.77	0.026
758.21	0.026
758.64	0.026
759.08	0.028
759.52	0.027
759.96	0.026
760.40	0.025
760.84	0.028
761.28	0.028
761.72	0.027
762.16	0.026
762.60	0.025
763.03	0.027
763.47	0.024
763.91	0.028
764.35	0.025
764.79	0.025
765.23	0.027
765.67	0.029
766.11	0.027
766.54	0.025
766.98	0.027
767.42	0.024
767.86	0.024
768.30	0.025
768.74	0.027
769.17	0.027
769.61	0.027
770.05	0.028
770.49	0.025
770.93	0.028
771.37	0.024
771.80	0.026
772.24	0.029
772.68	0.030
773.12	0.026
773.56	0.027
774.00	0.027
774.43	0.025
774.87	0.023
775.31	0.027
775.75	0.028
776.19	0.025
776.62	0.027
777.06	0.025
777.50	0.026
777.94	0.030
778.37	0.028
778.81	0.027
779.25	0.028
779.69	0.026
780.13	0.025
780.56	0.026
781.00	0.026
781.44	0.025
781.88	0.028
782.31	0.028
782.75	0.028
783.19	0.026
783.63	0.027
784.06	0.025
784.50	0.028
784.94	0.025
785.37	0.026
785.81	0.026
786.25	0.026
786.69	0.028
787.12	0.026
787.56	0.024
788.00	0.027
788.43	0.027
788.87	0.024
789.31	0.027
789.75	0.026
790.18	0.027
790.62	0.027
791.06	0.023
791.49	0.024
791.93	0.025
792.37	0.026
792.80	0.027
793.24	0.026
793.68	0.026
794.11	0.026
794.55	0.025
794.99	0.027
795.42	0.023
795.86	0.027
796.30	0.028
796.73	0.027
797.17	0.027
797.61	0.026
798.04	0.026
798.48	0.025
798.91	0.027
799.35	0.025
799.79	0.028
800.22	0.021
800.66	0.023
801.10	0.026
801.53	0.029
801.97	0.030
802.40	0.026
802.84	0.027
803.28	0.024
803.71	0.025
804.15	0.027
804.58	0.027
805.02	0.026
805.46	0.028
805.89	0.029
806.33	0.023
806.76	0.027
807.20	0.022
807.63	0.023
808.07	0.025
808.51	0.022
808.94	0.027
809.38	0.024
809.81	0.023
810.25	0.026
810.68	0.028
811.12	0.023
811.55	0.027
811.99	0.028
812.42	0.026
812.86	0.026
813.29	0.030
813.73	0.026
814.17	0.026
814.60	0.027
815.04	0.028
815.47	0.024
815.91	0.025
816.34	0.024
816.78	0.030
817.21	0.026
817.65	0.023
818.08	0.028
