SpectraSuite Data File
++++++++++++++++++++++++++++++++++++
Date: Tue Jul 11 14:30:29 CEST 2017
User: IPCE
Dark Spectrum Present: Yes
Reference Spectrum Present: Yes
Number of Sampled Component Spectra: 1
Spectrometers: HR+C0708
Integration Time (usec): 1000 (HR+C0708)
Spectra Averaged: 10 (HR+C0708)
Boxcar Smoothing: 0 (HR+C0708)
Correct for Electrical Dark: No (HR+C0708)
Strobe/Lamp Enabled: No (HR+C0708)
Correct for Detector Non-linearity: No (HR+C0708)
Correct for Stray Light: No (HR+C0708)
Number of Pixels in Processed Spectrum: 2048
>>>>>Begin Processed Spectral Data<<<<<
188.76	0.626
189.23	0.747
189.70	1.000
190.17	-0.048
190.64	0.229
191.12	0.387
191.59	0.810
192.06	0.233
192.53	0.205
193.01	1.842
193.48	-0.000
193.95	0.287
194.42	0.919
194.90	1.766
195.37	0.132
195.84	-0.000
196.31	0.544
196.78	-0.000
197.26	0.202
197.73	0.883
198.20	0.621
198.67	-0.000
199.14	0.508
199.62	-0.000
200.09	0.532
200.56	0.259
201.03	0.447
201.50	0.495
201.97	0.529
202.45	0.338
202.92	0.314
203.39	0.440
203.86	0.440
204.33	0.245
204.80	0.346
205.28	0.447
205.75	0.267
206.22	0.322
206.69	0.536
207.16	0.199
207.63	0.405
208.11	0.361
208.58	0.527
209.05	0.452
209.52	0.394
209.99	0.473
210.46	0.409
210.93	0.270
211.41	0.494
211.88	0.402
212.35	0.284
212.82	0.462
213.29	0.419
213.76	0.376
214.23	0.325
214.70	0.427
215.18	0.484
215.65	0.513
216.12	0.272
216.59	0.454
217.06	0.846
217.53	0.325
218.00	0.478
218.47	0.578
218.94	0.387
219.41	0.452
219.89	0.339
220.36	0.358
220.83	0.536
221.30	0.501
221.77	0.544
222.24	0.504
222.71	0.292
223.18	0.572
223.65	0.648
224.12	0.515
224.59	0.580
225.06	0.525
225.54	0.656
226.01	0.679
226.48	0.562
226.95	0.885
227.42	1.000
227.89	0.771
228.36	1.014
228.83	1.061
229.30	1.006
229.77	1.042
230.24	1.395
230.71	1.446
231.18	1.100
231.65	1.095
232.12	1.300
232.59	1.396
233.06	1.258
233.53	1.648
234.00	1.553
234.47	1.595
234.94	1.625
235.41	1.624
235.88	1.964
236.35	1.674
236.82	1.652
237.29	1.812
237.76	1.811
238.23	1.760
238.70	1.851
239.17	2.291
239.64	2.055
240.11	1.949
240.58	1.858
241.05	2.094
241.52	2.098
241.99	2.012
242.46	2.256
242.93	2.346
243.40	2.102
243.87	2.211
244.34	2.306
244.81	2.092
245.28	2.193
245.75	2.281
246.22	2.160
246.69	2.191
247.16	2.260
247.63	2.463
248.10	2.484
248.57	2.168
249.04	2.347
249.51	2.339
249.98	2.240
250.45	2.208
250.92	2.090
251.39	2.083
251.85	1.974
252.32	1.908
252.79	1.825
253.26	1.713
253.73	1.588
254.20	1.548
254.67	1.459
255.14	1.356
255.61	1.318
256.08	1.264
256.55	1.200
257.02	1.147
257.49	1.113
257.95	1.079
258.42	1.047
258.89	1.010
259.36	0.988
259.83	0.962
260.30	0.932
260.77	0.923
261.24	0.894
261.71	0.879
262.17	0.863
262.64	0.843
263.11	0.834
263.58	0.816
264.05	0.801
264.52	0.796
264.99	0.782
265.46	0.768
265.92	0.766
266.39	0.748
266.86	0.738
267.33	0.724
267.80	0.721
268.27	0.713
268.74	0.701
269.20	0.696
269.67	0.689
270.14	0.684
270.61	0.673
271.08	0.667
271.55	0.661
272.01	0.655
272.48	0.648
272.95	0.644
273.42	0.640
273.89	0.635
274.36	0.629
274.82	0.623
275.29	0.620
275.76	0.611
276.23	0.615
276.70	0.609
277.16	0.605
277.63	0.604
278.10	0.600
278.57	0.596
279.04	0.594
279.50	0.590
279.97	0.589
280.44	0.584
280.91	0.581
281.38	0.582
281.84	0.580
282.31	0.576
282.78	0.577
283.25	0.574
283.72	0.575
284.18	0.577
284.65	0.575
285.12	0.573
285.59	0.572
286.05	0.574
286.52	0.573
286.99	0.572
287.46	0.573
287.92	0.576
288.39	0.575
288.86	0.574
289.33	0.571
289.79	0.571
290.26	0.568
290.73	0.568
291.20	0.564
291.66	0.565
292.13	0.565
292.60	0.559
293.07	0.553
293.53	0.552
294.00	0.543
294.47	0.542
294.93	0.536
295.40	0.532
295.87	0.522
296.34	0.519
296.80	0.513
297.27	0.504
297.74	0.493
298.20	0.492
298.67	0.482
299.14	0.474
299.60	0.470
300.07	0.457
300.54	0.453
301.01	0.446
301.47	0.438
301.94	0.434
302.41	0.425
302.87	0.417
303.34	0.416
303.81	0.405
304.27	0.399
304.74	0.390
305.21	0.383
305.67	0.381
306.14	0.377
306.61	0.369
307.07	0.364
307.54	0.359
308.01	0.353
308.47	0.352
308.94	0.349
309.40	0.341
309.87	0.343
310.34	0.337
310.80	0.334
311.27	0.330
311.74	0.325
312.20	0.325
312.67	0.325
313.13	0.319
313.60	0.316
314.07	0.318
314.53	0.312
315.00	0.308
315.47	0.308
315.93	0.308
316.40	0.306
316.86	0.304
317.33	0.306
317.80	0.301
318.26	0.298
318.73	0.296
319.19	0.299
319.66	0.295
320.13	0.294
320.59	0.295
321.06	0.291
321.52	0.289
321.99	0.288
322.45	0.288
322.92	0.288
323.39	0.284
323.85	0.281
324.32	0.284
324.78	0.280
325.25	0.279
325.71	0.276
326.18	0.276
326.64	0.273
327.11	0.271
327.58	0.273
328.04	0.271
328.51	0.270
328.97	0.269
329.44	0.267
329.90	0.263
330.37	0.257
330.83	0.261
331.30	0.258
331.76	0.256
332.23	0.253
332.69	0.254
333.16	0.252
333.62	0.250
334.09	0.249
334.56	0.249
335.02	0.246
335.49	0.243
335.95	0.244
336.42	0.240
336.88	0.236
337.35	0.236
337.81	0.236
338.28	0.234
338.74	0.234
339.20	0.234
339.67	0.231
340.13	0.230
340.60	0.230
341.06	0.231
341.53	0.226
341.99	0.224
342.46	0.223
342.92	0.224
343.39	0.222
343.85	0.219
344.32	0.221
344.78	0.222
345.25	0.218
345.71	0.221
346.17	0.220
346.64	0.217
347.10	0.216
347.57	0.214
348.03	0.213
348.50	0.211
348.96	0.212
349.43	0.214
349.89	0.211
350.35	0.207
350.82	0.212
351.28	0.207
351.75	0.202
352.21	0.202
352.67	0.203
353.14	0.201
353.60	0.201
354.07	0.197
354.53	0.192
355.00	0.190
355.46	0.189
355.92	0.187
356.39	0.188
356.85	0.186
357.31	0.190
357.78	0.179
358.24	0.179
358.71	0.179
359.17	0.175
359.63	0.175
360.10	0.176
360.56	0.171
361.03	0.169
361.49	0.164
361.95	0.165
362.42	0.165
362.88	0.162
363.34	0.163
363.81	0.161
364.27	0.158
364.73	0.161
365.20	0.161
365.66	0.159
366.12	0.160
366.59	0.154
367.05	0.155
367.51	0.159
367.98	0.154
368.44	0.154
368.90	0.151
369.37	0.155
369.83	0.152
370.29	0.156
370.76	0.150
371.22	0.151
371.68	0.152
372.15	0.151
372.61	0.149
373.07	0.151
373.54	0.149
374.00	0.151
374.46	0.149
374.92	0.151
375.39	0.149
375.85	0.147
376.31	0.149
376.78	0.148
377.24	0.148
377.70	0.149
378.16	0.148
378.63	0.147
379.09	0.146
379.55	0.146
380.01	0.145
380.48	0.147
380.94	0.147
381.40	0.146
381.87	0.148
382.33	0.143
382.79	0.146
383.25	0.144
383.72	0.144
384.18	0.143
384.64	0.144
385.10	0.143
385.56	0.142
386.03	0.142
386.49	0.143
386.95	0.141
387.41	0.141
387.88	0.143
388.34	0.142
388.80	0.140
389.26	0.140
389.72	0.140
390.19	0.142
390.65	0.137
391.11	0.140
391.57	0.140
392.04	0.138
392.50	0.137
392.96	0.141
393.42	0.140
393.88	0.140
394.34	0.140
394.81	0.138
395.27	0.136
395.73	0.139
396.19	0.135
396.65	0.137
397.12	0.134
397.58	0.135
398.04	0.139
398.50	0.136
398.96	0.136
399.42	0.138
399.89	0.133
400.35	0.135
400.81	0.136
401.27	0.133
401.73	0.137
402.19	0.134
402.65	0.133
403.12	0.132
403.58	0.130
404.04	0.130
404.50	0.129
404.96	0.132
405.42	0.132
405.88	0.133
406.34	0.129
406.81	0.131
407.27	0.130
407.73	0.128
408.19	0.127
408.65	0.130
409.11	0.128
409.57	0.129
410.03	0.126
410.49	0.126
410.96	0.126
411.42	0.123
411.88	0.123
412.34	0.123
412.80	0.125
413.26	0.127
413.72	0.127
414.18	0.124
414.64	0.121
415.10	0.124
415.56	0.121
416.02	0.120
416.48	0.122
416.95	0.124
417.41	0.123
417.87	0.120
418.33	0.122
418.79	0.122
419.25	0.120
419.71	0.124
420.17	0.122
420.63	0.119
421.09	0.121
421.55	0.120
422.01	0.121
422.47	0.126
422.93	0.123
423.39	0.123
423.85	0.125
424.31	0.121
424.77	0.121
425.23	0.120
425.69	0.118
426.15	0.118
426.61	0.119
427.07	0.117
427.53	0.120
427.99	0.118
428.45	0.119
428.91	0.117
429.37	0.118
429.83	0.118
430.29	0.119
430.75	0.120
431.21	0.121
431.67	0.118
432.13	0.115
432.59	0.118
433.05	0.118
433.51	0.117
433.97	0.118
434.43	0.119
434.89	0.117
435.35	0.114
435.81	0.114
436.27	0.114
436.73	0.119
437.19	0.119
437.65	0.117
438.11	0.116
438.57	0.119
439.03	0.114
439.48	0.114
439.94	0.117
440.40	0.114
440.86	0.114
441.32	0.112
441.78	0.116
442.24	0.115
442.70	0.116
443.16	0.113
443.62	0.119
444.08	0.113
444.54	0.110
444.99	0.111
445.45	0.115
445.91	0.111
446.37	0.110
446.83	0.114
447.29	0.113
447.75	0.112
448.21	0.111
448.67	0.109
449.12	0.112
449.58	0.109
450.04	0.114
450.50	0.111
450.96	0.109
451.42	0.111
451.88	0.112
452.34	0.113
452.79	0.108
453.25	0.111
453.71	0.110
454.17	0.107
454.63	0.108
455.09	0.112
455.55	0.112
456.00	0.111
456.46	0.110
456.92	0.109
457.38	0.107
457.84	0.107
458.30	0.107
458.75	0.110
459.21	0.107
459.67	0.109
460.13	0.108
460.59	0.111
461.04	0.108
461.50	0.109
461.96	0.109
462.42	0.110
462.88	0.106
463.33	0.109
463.79	0.109
464.25	0.108
464.71	0.112
465.17	0.110
465.62	0.110
466.08	0.109
466.54	0.109
467.00	0.111
467.46	0.109
467.91	0.108
468.37	0.110
468.83	0.109
469.29	0.109
469.74	0.108
470.20	0.108
470.66	0.112
471.12	0.109
471.57	0.108
472.03	0.110
472.49	0.111
472.95	0.110
473.40	0.110
473.86	0.111
474.32	0.111
474.78	0.110
475.23	0.111
475.69	0.109
476.15	0.110
476.60	0.110
477.06	0.110
477.52	0.109
477.98	0.110
478.43	0.110
478.89	0.110
479.35	0.111
479.80	0.111
480.26	0.107
480.72	0.108
481.18	0.110
481.63	0.107
482.09	0.107
482.55	0.110
483.00	0.109
483.46	0.107
483.92	0.106
484.37	0.109
484.83	0.106
485.29	0.108
485.74	0.106
486.20	0.108
486.66	0.109
487.11	0.108
487.57	0.109
488.03	0.111
488.48	0.108
488.94	0.110
489.40	0.107
489.85	0.107
490.31	0.108
490.77	0.107
491.22	0.109
491.68	0.108
492.13	0.109
492.59	0.108
493.05	0.108
493.50	0.110
493.96	0.109
494.42	0.110
494.87	0.108
495.33	0.108
495.78	0.108
496.24	0.107
496.70	0.110
497.15	0.108
497.61	0.111
498.06	0.108
498.52	0.107
498.98	0.109
499.43	0.107
499.89	0.108
500.34	0.109
500.80	0.108
501.25	0.109
501.71	0.107
502.17	0.109
502.62	0.106
503.08	0.106
503.53	0.107
503.99	0.106
504.44	0.108
504.90	0.104
505.36	0.107
505.81	0.106
506.27	0.106
506.72	0.107
507.18	0.109
507.63	0.103
508.09	0.105
508.54	0.106
509.00	0.104
509.45	0.107
509.91	0.108
510.36	0.107
510.82	0.107
511.27	0.108
511.73	0.106
512.19	0.106
512.64	0.107
513.10	0.105
513.55	0.105
514.01	0.106
514.46	0.106
514.92	0.106
515.37	0.106
515.83	0.105
516.28	0.107
516.73	0.106
517.19	0.105
517.64	0.104
518.10	0.105
518.55	0.106
519.01	0.106
519.46	0.105
519.92	0.104
520.37	0.104
520.83	0.107
521.28	0.103
521.74	0.103
522.19	0.104
522.65	0.102
523.10	0.108
523.55	0.104
524.01	0.102
524.46	0.105
524.92	0.102
525.37	0.102
525.83	0.107
526.28	0.106
526.73	0.104
527.19	0.105
527.64	0.104
528.10	0.106
528.55	0.105
529.01	0.105
529.46	0.104
529.91	0.104
530.37	0.104
530.82	0.104
531.28	0.105
531.73	0.104
532.18	0.105
532.64	0.103
533.09	0.105
533.54	0.105
534.00	0.104
534.45	0.107
534.91	0.106
535.36	0.104
535.81	0.107
536.27	0.105
536.72	0.107
537.17	0.105
537.63	0.108
538.08	0.108
538.54	0.108
538.99	0.108
539.44	0.108
539.90	0.107
540.35	0.108
540.80	0.107
541.26	0.109
541.71	0.108
542.16	0.110
542.62	0.110
543.07	0.110
543.52	0.108
543.98	0.109
544.43	0.109
544.88	0.111
545.34	0.111
545.79	0.110
546.24	0.110
546.69	0.112
547.15	0.112
547.60	0.114
548.05	0.110
548.51	0.113
548.96	0.112
549.41	0.113
549.86	0.113
550.32	0.114
550.77	0.115
551.22	0.116
551.68	0.112
552.13	0.117
552.58	0.114
553.03	0.116
553.49	0.114
553.94	0.117
554.39	0.119
554.84	0.117
555.30	0.118
555.75	0.118
556.20	0.119
556.65	0.119
557.11	0.122
557.56	0.119
558.01	0.120
558.46	0.120
558.92	0.121
559.37	0.123
559.82	0.125
560.27	0.124
560.72	0.123
561.18	0.124
561.63	0.125
562.08	0.126
562.53	0.126
562.99	0.128
563.44	0.129
563.89	0.128
564.34	0.126
564.79	0.127
565.25	0.130
565.70	0.133
566.15	0.132
566.60	0.130
567.05	0.132
567.50	0.134
567.96	0.133
568.41	0.133
568.86	0.134
569.31	0.135
569.76	0.135
570.21	0.136
570.67	0.136
571.12	0.137
571.57	0.139
572.02	0.140
572.47	0.140
572.92	0.142
573.37	0.140
573.83	0.142
574.28	0.142
574.73	0.143
575.18	0.145
575.63	0.145
576.08	0.145
576.53	0.147
576.98	0.147
577.44	0.149
577.89	0.149
578.34	0.151
578.79	0.150
579.24	0.155
579.69	0.154
580.14	0.154
580.59	0.156
581.04	0.153
581.49	0.157
581.95	0.159
582.40	0.158
582.85	0.161
583.30	0.162
583.75	0.163
584.20	0.164
584.65	0.164
585.10	0.167
585.55	0.169
586.00	0.170
586.45	0.169
586.90	0.172
587.35	0.172
587.80	0.176
588.25	0.178
588.71	0.177
589.16	0.180
589.61	0.183
590.06	0.183
590.51	0.184
590.96	0.187
591.41	0.189
591.86	0.187
592.31	0.192
592.76	0.193
593.21	0.196
593.66	0.198
594.11	0.200
594.56	0.199
595.01	0.202
595.46	0.204
595.91	0.208
596.36	0.207
596.81	0.208
597.26	0.213
597.71	0.213
598.16	0.213
598.61	0.215
599.06	0.217
599.51	0.219
599.96	0.222
600.41	0.224
600.86	0.224
601.31	0.223
601.76	0.228
602.21	0.229
602.65	0.231
603.10	0.234
603.55	0.234
604.00	0.238
604.45	0.237
604.90	0.239
605.35	0.242
605.80	0.243
606.25	0.245
606.70	0.247
607.15	0.247
607.60	0.248
608.05	0.251
608.50	0.250
608.95	0.253
609.39	0.254
609.84	0.256
610.29	0.256
610.74	0.256
611.19	0.258
611.64	0.260
612.09	0.261
612.54	0.262
612.99	0.261
613.44	0.261
613.88	0.261
614.33	0.266
614.78	0.265
615.23	0.268
615.68	0.267
616.13	0.268
616.58	0.268
617.03	0.268
617.47	0.267
617.92	0.270
618.37	0.272
618.82	0.269
619.27	0.272
619.72	0.270
620.17	0.272
620.61	0.274
621.06	0.270
621.51	0.276
621.96	0.275
622.41	0.274
622.86	0.276
623.30	0.278
623.75	0.277
624.20	0.277
624.65	0.280
625.10	0.279
625.54	0.282
625.99	0.284
626.44	0.285
626.89	0.285
627.34	0.285
627.78	0.285
628.23	0.285
628.68	0.288
629.13	0.288
629.58	0.289
630.02	0.292
630.47	0.294
630.92	0.294
631.37	0.295
631.81	0.297
632.26	0.300
632.71	0.302
633.16	0.304
633.61	0.303
634.05	0.307
634.50	0.308
634.95	0.310
635.40	0.313
635.84	0.316
636.29	0.314
636.74	0.316
637.18	0.320
637.63	0.322
638.08	0.324
638.53	0.325
638.97	0.330
639.42	0.329
639.87	0.334
640.32	0.335
640.76	0.340
641.21	0.339
641.66	0.343
642.10	0.347
642.55	0.347
643.00	0.351
643.44	0.352
643.89	0.357
644.34	0.358
644.79	0.362
645.23	0.366
645.68	0.369
646.13	0.371
646.57	0.376
647.02	0.379
647.47	0.379
647.91	0.384
648.36	0.386
648.81	0.390
649.25	0.390
649.70	0.390
650.15	0.398
650.59	0.401
651.04	0.401
651.48	0.403
651.93	0.404
652.38	0.406
652.82	0.411
653.27	0.415
653.72	0.416
654.16	0.416
654.61	0.422
655.06	0.421
655.50	0.422
655.95	0.424
656.39	0.431
656.84	0.432
657.29	0.431
657.73	0.433
658.18	0.435
658.62	0.440
659.07	0.442
659.52	0.438
659.96	0.441
660.41	0.441
660.85	0.441
661.30	0.444
661.74	0.445
662.19	0.445
662.64	0.447
663.08	0.449
663.53	0.449
663.97	0.448
664.42	0.449
664.86	0.449
665.31	0.449
665.75	0.451
666.20	0.446
666.65	0.446
667.09	0.443
667.54	0.443
667.98	0.440
668.43	0.440
668.87	0.436
669.32	0.433
669.76	0.428
670.21	0.428
670.65	0.423
671.10	0.421
671.54	0.415
671.99	0.410
672.43	0.408
672.88	0.403
673.32	0.399
673.77	0.391
674.21	0.388
674.66	0.380
675.10	0.375
675.55	0.368
675.99	0.361
676.44	0.356
676.88	0.348
677.33	0.343
677.77	0.332
678.22	0.327
678.66	0.324
679.11	0.314
679.55	0.306
679.99	0.297
680.44	0.293
680.88	0.284
681.33	0.277
681.77	0.268
682.22	0.263
682.66	0.256
683.11	0.248
683.55	0.242
683.99	0.236
684.44	0.229
684.88	0.223
685.33	0.216
685.77	0.210
686.21	0.205
686.66	0.199
687.10	0.193
687.55	0.187
687.99	0.181
688.44	0.177
688.88	0.172
689.32	0.167
689.77	0.165
690.21	0.157
690.65	0.154
691.10	0.148
691.54	0.144
691.99	0.142
692.43	0.137
692.87	0.136
693.32	0.131
693.76	0.128
694.20	0.127
694.65	0.121
695.09	0.121
695.53	0.118
695.98	0.115
696.42	0.113
696.86	0.109
697.31	0.108
697.75	0.108
698.19	0.102
698.64	0.101
699.08	0.101
699.52	0.100
699.97	0.097
700.41	0.099
700.85	0.095
701.30	0.092
701.74	0.090
702.18	0.092
702.63	0.088
703.07	0.089
703.51	0.088
703.96	0.087
704.40	0.085
704.84	0.084
705.28	0.082
705.73	0.082
706.17	0.081
706.61	0.079
707.06	0.079
707.50	0.078
707.94	0.078
708.38	0.078
708.83	0.077
709.27	0.078
709.71	0.077
710.15	0.077
710.60	0.077
711.04	0.076
711.48	0.075
711.92	0.074
712.37	0.074
712.81	0.075
713.25	0.072
713.69	0.073
714.13	0.071
714.58	0.071
715.02	0.072
715.46	0.071
715.90	0.069
716.35	0.073
716.79	0.071
717.23	0.073
717.67	0.074
718.11	0.070
718.56	0.071
719.00	0.070
719.44	0.072
719.88	0.069
720.32	0.069
720.76	0.069
721.21	0.071
721.65	0.072
722.09	0.072
722.53	0.072
722.97	0.071
723.41	0.070
723.86	0.072
724.30	0.071
724.74	0.072
725.18	0.071
725.62	0.072
726.06	0.073
726.50	0.072
726.95	0.070
727.39	0.071
727.83	0.071
728.27	0.073
728.71	0.071
729.15	0.073
729.59	0.072
730.03	0.073
730.48	0.071
730.92	0.071
731.36	0.071
731.80	0.069
732.24	0.071
732.68	0.073
733.12	0.073
733.56	0.073
734.00	0.071
734.44	0.071
734.89	0.074
735.33	0.075
735.77	0.073
736.21	0.072
736.65	0.073
737.09	0.071
737.53	0.076
737.97	0.074
738.41	0.073
738.85	0.076
739.29	0.073
739.73	0.070
740.17	0.073
740.61	0.070
741.05	0.072
741.49	0.072
741.93	0.074
742.37	0.071
742.81	0.074
743.26	0.072
743.70	0.072
744.14	0.074
744.58	0.075
745.02	0.072
745.46	0.074
745.90	0.074
746.34	0.071
746.78	0.072
747.22	0.069
747.66	0.071
748.10	0.073
748.54	0.070
748.98	0.070
749.42	0.073
749.86	0.073
750.29	0.073
750.73	0.073
751.17	0.073
751.61	0.074
752.05	0.074
752.49	0.070
752.93	0.071
753.37	0.074
753.81	0.070
754.25	0.072
754.69	0.072
755.13	0.071
755.57	0.071
756.01	0.071
756.45	0.072
756.89	0.072
757.33	0.074
757.77	0.069
758.21	0.071
758.64	0.074
759.08	0.069
759.52	0.071
759.96	0.069
760.40	0.069
760.84	0.072
761.28	0.071
761.72	0.068
762.16	0.071
762.60	0.070
763.03	0.071
763.47	0.070
763.91	0.074
764.35	0.070
764.79	0.072
765.23	0.071
765.67	0.072
766.11	0.072
766.54	0.071
766.98	0.070
767.42	0.072
767.86	0.068
768.30	0.068
768.74	0.069
769.17	0.065
769.61	0.073
770.05	0.072
770.49	0.070
770.93	0.072
771.37	0.067
771.80	0.069
772.24	0.074
772.68	0.072
773.12	0.072
773.56	0.072
774.00	0.070
774.43	0.070
774.87	0.067
775.31	0.068
775.75	0.070
776.19	0.069
776.62	0.072
777.06	0.070
777.50	0.071
777.94	0.072
778.37	0.071
778.81	0.072
779.25	0.071
779.69	0.070
780.13	0.065
780.56	0.069
781.00	0.069
781.44	0.067
781.88	0.071
782.31	0.074
782.75	0.076
783.19	0.068
783.63	0.069
784.06	0.068
784.50	0.070
784.94	0.069
785.37	0.070
785.81	0.071
786.25	0.065
786.69	0.073
787.12	0.070
787.56	0.065
788.00	0.071
788.43	0.070
788.87	0.067
789.31	0.070
789.75	0.072
790.18	0.071
790.62	0.071
791.06	0.069
791.49	0.072
791.93	0.068
792.37	0.067
792.80	0.067
793.24	0.070
793.68	0.066
794.11	0.068
794.55	0.069
794.99	0.071
795.42	0.068
795.86	0.069
796.30	0.070
796.73	0.068
797.17	0.066
797.61	0.069
798.04	0.069
798.48	0.066
798.91	0.070
799.35	0.068
799.79	0.068
800.22	0.064
800.66	0.066
801.10	0.070
801.53	0.074
801.97	0.067
802.40	0.067
802.84	0.068
803.28	0.067
803.71	0.067
804.15	0.067
804.58	0.068
805.02	0.070
805.46	0.071
805.89	0.071
806.33	0.068
806.76	0.068
807.20	0.063
807.63	0.067
808.07	0.065
808.51	0.063
808.94	0.068
809.38	0.068
809.81	0.065
810.25	0.069
810.68	0.070
811.12	0.064
811.55	0.064
811.99	0.070
812.42	0.065
812.86	0.066
813.29	0.068
813.73	0.064
814.17	0.068
814.60	0.067
815.04	0.070
815.47	0.067
815.91	0.067
816.34	0.067
816.78	0.068
817.21	0.067
817.65	0.066
818.08	0.071
