SpectraSuite Data File
++++++++++++++++++++++++++++++++++++
Date: Tue Jul 11 14:54:29 CEST 2017
User: IPCE
Dark Spectrum Present: Yes
Reference Spectrum Present: Yes
Number of Sampled Component Spectra: 1
Spectrometers: HR+C0708
Integration Time (usec): 1000 (HR+C0708)
Spectra Averaged: 10 (HR+C0708)
Boxcar Smoothing: 0 (HR+C0708)
Correct for Electrical Dark: No (HR+C0708)
Strobe/Lamp Enabled: No (HR+C0708)
Correct for Detector Non-linearity: No (HR+C0708)
Correct for Stray Light: No (HR+C0708)
Number of Pixels in Processed Spectrum: 2048
>>>>>Begin Processed Spectral Data<<<<<
188.76	0.738
189.23	0.546
189.70	0.414
190.17	1.833
190.64	0.322
191.12	0.241
191.59	0.469
192.06	-0.000
192.53	1.886
193.01	0.552
193.48	-0.000
193.95	-0.040
194.42	0.141
194.90	1.641
195.37	0.534
195.84	-0.000
196.31	1.357
196.78	0.529
197.26	0.337
197.73	1.029
198.20	0.307
198.67	-0.000
199.14	-0.000
199.62	-0.000
200.09	0.407
200.56	0.270
201.03	0.506
201.50	0.486
201.97	0.532
202.45	0.435
202.92	0.399
203.39	0.643
203.86	0.409
204.33	0.401
204.80	0.468
205.28	0.596
205.75	0.261
206.22	0.477
206.69	0.395
207.16	0.211
207.63	0.387
208.11	0.500
208.58	0.331
209.05	0.447
209.52	0.394
209.99	0.346
210.46	0.427
210.93	0.334
211.41	0.533
211.88	0.418
212.35	0.334
212.82	0.442
213.29	0.505
213.76	0.335
214.23	0.368
214.70	0.679
215.18	0.581
215.65	0.625
216.12	0.437
216.59	0.315
217.06	0.471
217.53	0.487
218.00	0.393
218.47	0.497
218.94	0.398
219.41	0.601
219.89	0.436
220.36	0.538
220.83	0.686
221.30	0.610
221.77	0.624
222.24	0.499
222.71	0.366
223.18	0.600
223.65	0.633
224.12	0.616
224.59	0.552
225.06	0.590
225.54	0.593
226.01	0.693
226.48	0.644
226.95	0.957
227.42	1.018
227.89	0.829
228.36	0.934
228.83	0.923
229.30	1.014
229.77	1.123
230.24	1.365
230.71	1.312
231.18	1.163
231.65	1.185
232.12	1.325
232.59	1.423
233.06	1.323
233.53	1.820
234.00	1.424
234.47	1.528
234.94	1.515
235.41	1.720
235.88	1.820
236.35	1.736
236.82	1.816
237.29	1.956
237.76	2.032
238.23	1.994
238.70	1.928
239.17	2.045
239.64	2.230
240.11	1.984
240.58	1.967
241.05	2.034
241.52	2.175
241.99	2.096
242.46	2.334
242.93	2.272
243.40	2.221
243.87	2.209
244.34	2.248
244.81	2.209
245.28	2.226
245.75	2.374
246.22	2.128
246.69	2.330
247.16	2.309
247.63	2.375
248.10	2.406
248.57	2.204
249.04	2.290
249.51	2.247
249.98	2.245
250.45	2.245
250.92	2.099
251.39	2.029
251.85	1.949
252.32	1.893
252.79	1.767
253.26	1.690
253.73	1.593
254.20	1.485
254.67	1.406
255.14	1.319
255.61	1.267
256.08	1.217
256.55	1.157
257.02	1.104
257.49	1.079
257.95	1.033
258.42	0.999
258.89	0.973
259.36	0.946
259.83	0.921
260.30	0.893
260.77	0.876
261.24	0.856
261.71	0.838
262.17	0.818
262.64	0.809
263.11	0.795
263.58	0.774
264.05	0.759
264.52	0.752
264.99	0.743
265.46	0.730
265.92	0.725
266.39	0.708
266.86	0.696
267.33	0.690
267.80	0.681
268.27	0.671
268.74	0.664
269.20	0.661
269.67	0.648
270.14	0.643
270.61	0.634
271.08	0.630
271.55	0.618
272.01	0.612
272.48	0.608
272.95	0.603
273.42	0.599
273.89	0.593
274.36	0.586
274.82	0.583
275.29	0.578
275.76	0.569
276.23	0.570
276.70	0.567
277.16	0.559
277.63	0.558
278.10	0.552
278.57	0.549
279.04	0.546
279.50	0.544
279.97	0.546
280.44	0.540
280.91	0.536
281.38	0.533
281.84	0.533
282.31	0.530
282.78	0.528
283.25	0.526
283.72	0.531
284.18	0.525
284.65	0.526
285.12	0.522
285.59	0.524
286.05	0.524
286.52	0.523
286.99	0.522
287.46	0.520
287.92	0.520
288.39	0.517
288.86	0.520
289.33	0.519
289.79	0.514
290.26	0.518
290.73	0.511
291.20	0.507
291.66	0.509
292.13	0.506
292.60	0.501
293.07	0.498
293.53	0.496
294.00	0.491
294.47	0.486
294.93	0.480
295.40	0.475
295.87	0.467
296.34	0.463
296.80	0.459
297.27	0.451
297.74	0.443
298.20	0.438
298.67	0.433
299.14	0.425
299.60	0.419
300.07	0.412
300.54	0.405
301.01	0.401
301.47	0.390
301.94	0.385
302.41	0.382
302.87	0.372
303.34	0.371
303.81	0.361
304.27	0.353
304.74	0.349
305.21	0.344
305.67	0.340
306.14	0.337
306.61	0.330
307.07	0.325
307.54	0.321
308.01	0.315
308.47	0.315
308.94	0.310
309.40	0.308
309.87	0.303
310.34	0.301
310.80	0.295
311.27	0.292
311.74	0.293
312.20	0.293
312.67	0.289
313.13	0.285
313.60	0.283
314.07	0.283
314.53	0.280
315.00	0.280
315.47	0.276
315.93	0.276
316.40	0.272
316.86	0.270
317.33	0.272
317.80	0.270
318.26	0.271
318.73	0.269
319.19	0.267
319.66	0.264
320.13	0.263
320.59	0.260
321.06	0.260
321.52	0.260
321.99	0.257
322.45	0.256
322.92	0.257
323.39	0.254
323.85	0.253
324.32	0.248
324.78	0.249
325.25	0.252
325.71	0.247
326.18	0.250
326.64	0.246
327.11	0.247
327.58	0.244
328.04	0.244
328.51	0.239
328.97	0.242
329.44	0.241
329.90	0.237
330.37	0.232
330.83	0.232
331.30	0.233
331.76	0.232
332.23	0.229
332.69	0.230
333.16	0.228
333.62	0.227
334.09	0.224
334.56	0.222
335.02	0.220
335.49	0.219
335.95	0.219
336.42	0.213
336.88	0.212
337.35	0.215
337.81	0.213
338.28	0.210
338.74	0.209
339.20	0.209
339.67	0.211
340.13	0.207
340.60	0.205
341.06	0.204
341.53	0.203
341.99	0.202
342.46	0.201
342.92	0.201
343.39	0.202
343.85	0.197
344.32	0.198
344.78	0.199
345.25	0.192
345.71	0.197
346.17	0.198
346.64	0.197
347.10	0.196
347.57	0.195
348.03	0.191
348.50	0.189
348.96	0.192
349.43	0.190
349.89	0.196
350.35	0.192
350.82	0.189
351.28	0.183
351.75	0.186
352.21	0.183
352.67	0.185
353.14	0.186
353.60	0.182
354.07	0.179
354.53	0.180
355.00	0.180
355.46	0.179
355.92	0.179
356.39	0.175
356.85	0.173
357.31	0.181
357.78	0.176
358.24	0.172
358.71	0.174
359.17	0.169
359.63	0.171
360.10	0.171
360.56	0.164
361.03	0.168
361.49	0.167
361.95	0.164
362.42	0.166
362.88	0.164
363.34	0.165
363.81	0.163
364.27	0.162
364.73	0.162
365.20	0.163
365.66	0.163
366.12	0.163
366.59	0.159
367.05	0.162
367.51	0.159
367.98	0.159
368.44	0.157
368.90	0.160
369.37	0.158
369.83	0.160
370.29	0.159
370.76	0.155
371.22	0.157
371.68	0.153
372.15	0.154
372.61	0.155
373.07	0.156
373.54	0.155
374.00	0.158
374.46	0.155
374.92	0.154
375.39	0.155
375.85	0.154
376.31	0.154
376.78	0.153
377.24	0.153
377.70	0.154
378.16	0.152
378.63	0.154
379.09	0.149
379.55	0.151
380.01	0.150
380.48	0.152
380.94	0.151
381.40	0.151
381.87	0.156
382.33	0.150
382.79	0.152
383.25	0.155
383.72	0.152
384.18	0.149
384.64	0.146
385.10	0.151
385.56	0.149
386.03	0.149
386.49	0.149
386.95	0.149
387.41	0.150
387.88	0.146
388.34	0.145
388.80	0.148
389.26	0.146
389.72	0.147
390.19	0.148
390.65	0.147
391.11	0.147
391.57	0.145
392.04	0.144
392.50	0.146
392.96	0.146
393.42	0.146
393.88	0.145
394.34	0.146
394.81	0.143
395.27	0.143
395.73	0.146
396.19	0.144
396.65	0.143
397.12	0.142
397.58	0.144
398.04	0.143
398.50	0.146
398.96	0.145
399.42	0.145
399.89	0.142
400.35	0.141
400.81	0.142
401.27	0.139
401.73	0.141
402.19	0.143
402.65	0.138
403.12	0.141
403.58	0.139
404.04	0.138
404.50	0.138
404.96	0.134
405.42	0.139
405.88	0.138
406.34	0.140
406.81	0.137
407.27	0.132
407.73	0.137
408.19	0.134
408.65	0.135
409.11	0.134
409.57	0.131
410.03	0.136
410.49	0.132
410.96	0.131
411.42	0.132
411.88	0.133
412.34	0.133
412.80	0.132
413.26	0.133
413.72	0.134
414.18	0.131
414.64	0.127
415.10	0.132
415.56	0.131
416.02	0.128
416.48	0.131
416.95	0.129
417.41	0.132
417.87	0.130
418.33	0.131
418.79	0.131
419.25	0.128
419.71	0.131
420.17	0.129
420.63	0.127
421.09	0.129
421.55	0.130
422.01	0.130
422.47	0.133
422.93	0.130
423.39	0.134
423.85	0.133
424.31	0.128
424.77	0.128
425.23	0.128
425.69	0.124
426.15	0.125
426.61	0.128
427.07	0.127
427.53	0.128
427.99	0.124
428.45	0.124
428.91	0.128
429.37	0.124
429.83	0.125
430.29	0.128
430.75	0.130
431.21	0.130
431.67	0.126
432.13	0.124
432.59	0.124
433.05	0.124
433.51	0.125
433.97	0.127
434.43	0.127
434.89	0.126
435.35	0.120
435.81	0.124
436.27	0.124
436.73	0.126
437.19	0.125
437.65	0.121
438.11	0.125
438.57	0.123
439.03	0.124
439.48	0.120
439.94	0.124
440.40	0.123
440.86	0.120
441.32	0.119
441.78	0.120
442.24	0.123
442.70	0.121
443.16	0.122
443.62	0.123
444.08	0.118
444.54	0.120
444.99	0.121
445.45	0.120
445.91	0.118
446.37	0.117
446.83	0.122
447.29	0.120
447.75	0.116
448.21	0.119
448.67	0.114
449.12	0.120
449.58	0.118
450.04	0.119
450.50	0.118
450.96	0.118
451.42	0.118
451.88	0.117
452.34	0.119
452.79	0.114
453.25	0.120
453.71	0.113
454.17	0.114
454.63	0.113
455.09	0.120
455.55	0.119
456.00	0.116
456.46	0.114
456.92	0.114
457.38	0.114
457.84	0.113
458.30	0.115
458.75	0.116
459.21	0.113
459.67	0.116
460.13	0.112
460.59	0.115
461.04	0.112
461.50	0.115
461.96	0.115
462.42	0.115
462.88	0.116
463.33	0.114
463.79	0.116
464.25	0.115
464.71	0.115
465.17	0.115
465.62	0.118
466.08	0.116
466.54	0.115
467.00	0.117
467.46	0.115
467.91	0.114
468.37	0.115
468.83	0.114
469.29	0.116
469.74	0.116
470.20	0.116
470.66	0.116
471.12	0.114
471.57	0.115
472.03	0.116
472.49	0.116
472.95	0.117
473.40	0.114
473.86	0.116
474.32	0.115
474.78	0.116
475.23	0.116
475.69	0.115
476.15	0.115
476.60	0.117
477.06	0.115
477.52	0.116
477.98	0.116
478.43	0.114
478.89	0.116
479.35	0.113
479.80	0.114
480.26	0.111
480.72	0.110
481.18	0.115
481.63	0.116
482.09	0.113
482.55	0.115
483.00	0.115
483.46	0.113
483.92	0.112
484.37	0.114
484.83	0.113
485.29	0.114
485.74	0.114
486.20	0.113
486.66	0.116
487.11	0.114
487.57	0.114
488.03	0.116
488.48	0.114
488.94	0.115
489.40	0.113
489.85	0.116
490.31	0.113
490.77	0.114
491.22	0.114
491.68	0.113
492.13	0.112
492.59	0.113
493.05	0.114
493.50	0.115
493.96	0.114
494.42	0.112
494.87	0.114
495.33	0.110
495.78	0.113
496.24	0.113
496.70	0.115
497.15	0.113
497.61	0.116
498.06	0.113
498.52	0.113
498.98	0.112
499.43	0.112
499.89	0.112
500.34	0.113
500.80	0.114
501.25	0.113
501.71	0.111
502.17	0.113
502.62	0.112
503.08	0.114
503.53	0.114
503.99	0.110
504.44	0.112
504.90	0.111
505.36	0.112
505.81	0.111
506.27	0.113
506.72	0.113
507.18	0.112
507.63	0.112
508.09	0.113
508.54	0.113
509.00	0.111
509.45	0.112
509.91	0.110
510.36	0.114
510.82	0.112
511.27	0.113
511.73	0.112
512.19	0.111
512.64	0.113
513.10	0.110
513.55	0.109
514.01	0.113
514.46	0.113
514.92	0.111
515.37	0.111
515.83	0.111
516.28	0.110
516.73	0.111
517.19	0.111
517.64	0.109
518.10	0.109
518.55	0.110
519.01	0.110
519.46	0.112
519.92	0.110
520.37	0.109
520.83	0.113
521.28	0.109
521.74	0.110
522.19	0.111
522.65	0.108
523.10	0.112
523.55	0.111
524.01	0.107
524.46	0.112
524.92	0.109
525.37	0.109
525.83	0.111
526.28	0.111
526.73	0.110
527.19	0.110
527.64	0.110
528.10	0.112
528.55	0.111
529.01	0.112
529.46	0.110
529.91	0.110
530.37	0.110
530.82	0.109
531.28	0.109
531.73	0.110
532.18	0.111
532.64	0.110
533.09	0.112
533.54	0.112
534.00	0.110
534.45	0.110
534.91	0.109
535.36	0.112
535.81	0.112
536.27	0.112
536.72	0.111
537.17	0.110
537.63	0.112
538.08	0.112
538.54	0.113
538.99	0.113
539.44	0.113
539.90	0.111
540.35	0.111
540.80	0.113
541.26	0.113
541.71	0.115
542.16	0.114
542.62	0.115
543.07	0.116
543.52	0.115
543.98	0.113
544.43	0.115
544.88	0.114
545.34	0.116
545.79	0.114
546.24	0.115
546.69	0.117
547.15	0.116
547.60	0.119
548.05	0.116
548.51	0.118
548.96	0.116
549.41	0.118
549.86	0.116
550.32	0.119
550.77	0.117
551.22	0.117
551.68	0.119
552.13	0.121
552.58	0.120
553.03	0.119
553.49	0.120
553.94	0.123
554.39	0.122
554.84	0.120
555.30	0.122
555.75	0.122
556.20	0.121
556.65	0.123
557.11	0.126
557.56	0.123
558.01	0.124
558.46	0.125
558.92	0.124
559.37	0.128
559.82	0.124
560.27	0.128
560.72	0.129
561.18	0.127
561.63	0.125
562.08	0.129
562.53	0.129
562.99	0.130
563.44	0.129
563.89	0.129
564.34	0.130
564.79	0.131
565.25	0.133
565.70	0.133
566.15	0.134
566.60	0.134
567.05	0.134
567.50	0.135
567.96	0.135
568.41	0.134
568.86	0.136
569.31	0.139
569.76	0.135
570.21	0.138
570.67	0.139
571.12	0.139
571.57	0.141
572.02	0.140
572.47	0.141
572.92	0.143
573.37	0.143
573.83	0.144
574.28	0.143
574.73	0.145
575.18	0.144
575.63	0.147
576.08	0.145
576.53	0.147
576.98	0.148
577.44	0.150
577.89	0.149
578.34	0.150
578.79	0.150
579.24	0.153
579.69	0.153
580.14	0.154
580.59	0.155
581.04	0.154
581.49	0.155
581.95	0.158
582.40	0.158
582.85	0.161
583.30	0.160
583.75	0.163
584.20	0.163
584.65	0.164
585.10	0.166
585.55	0.166
586.00	0.167
586.45	0.167
586.90	0.171
587.35	0.170
587.80	0.173
588.25	0.175
588.71	0.176
589.16	0.176
589.61	0.178
590.06	0.178
590.51	0.180
590.96	0.181
591.41	0.183
591.86	0.184
592.31	0.186
592.76	0.188
593.21	0.188
593.66	0.192
594.11	0.193
594.56	0.195
595.01	0.196
595.46	0.198
595.91	0.199
596.36	0.199
596.81	0.203
597.26	0.204
597.71	0.204
598.16	0.205
598.61	0.207
599.06	0.210
599.51	0.209
599.96	0.213
600.41	0.214
600.86	0.213
601.31	0.216
601.76	0.221
602.21	0.218
602.65	0.221
603.10	0.222
603.55	0.223
604.00	0.225
604.45	0.224
604.90	0.230
605.35	0.229
605.80	0.232
606.25	0.232
606.70	0.236
607.15	0.233
607.60	0.235
608.05	0.239
608.50	0.239
608.95	0.238
609.39	0.241
609.84	0.242
610.29	0.244
610.74	0.242
611.19	0.244
611.64	0.245
612.09	0.248
612.54	0.247
612.99	0.246
613.44	0.247
613.88	0.248
614.33	0.250
614.78	0.250
615.23	0.254
615.68	0.252
616.13	0.254
616.58	0.254
617.03	0.253
617.47	0.254
617.92	0.254
618.37	0.256
618.82	0.255
619.27	0.255
619.72	0.255
620.17	0.259
620.61	0.257
621.06	0.259
621.51	0.262
621.96	0.260
622.41	0.260
622.86	0.261
623.30	0.261
623.75	0.260
624.20	0.264
624.65	0.264
625.10	0.264
625.54	0.265
625.99	0.266
626.44	0.270
626.89	0.267
627.34	0.269
627.78	0.272
628.23	0.271
628.68	0.271
629.13	0.272
629.58	0.275
630.02	0.274
630.47	0.276
630.92	0.277
631.37	0.277
631.81	0.281
632.26	0.281
632.71	0.284
633.16	0.283
633.61	0.284
634.05	0.286
634.50	0.289
634.95	0.291
635.40	0.292
635.84	0.295
636.29	0.293
636.74	0.295
637.18	0.299
637.63	0.302
638.08	0.304
638.53	0.306
638.97	0.310
639.42	0.312
639.87	0.313
640.32	0.315
640.76	0.317
641.21	0.318
641.66	0.319
642.10	0.324
642.55	0.327
643.00	0.325
643.44	0.330
643.89	0.331
644.34	0.334
644.79	0.338
645.23	0.339
645.68	0.342
646.13	0.345
646.57	0.346
647.02	0.350
647.47	0.355
647.91	0.355
648.36	0.359
648.81	0.360
649.25	0.359
649.70	0.362
650.15	0.368
650.59	0.368
651.04	0.370
651.48	0.369
651.93	0.375
652.38	0.377
652.82	0.378
653.27	0.379
653.72	0.381
654.16	0.382
654.61	0.385
655.06	0.386
655.50	0.387
655.95	0.389
656.39	0.393
656.84	0.399
657.29	0.393
657.73	0.395
658.18	0.399
658.62	0.401
659.07	0.399
659.52	0.401
659.96	0.406
660.41	0.402
660.85	0.404
661.30	0.405
661.74	0.405
662.19	0.407
662.64	0.406
663.08	0.408
663.53	0.408
663.97	0.408
664.42	0.408
664.86	0.409
665.31	0.408
665.75	0.407
666.20	0.405
666.65	0.402
667.09	0.403
667.54	0.400
667.98	0.398
668.43	0.399
668.87	0.396
669.32	0.395
669.76	0.392
670.21	0.388
670.65	0.383
671.10	0.382
671.54	0.380
671.99	0.374
672.43	0.368
672.88	0.366
673.32	0.362
673.77	0.355
674.21	0.352
674.66	0.347
675.10	0.341
675.55	0.335
675.99	0.329
676.44	0.326
676.88	0.320
677.33	0.313
677.77	0.310
678.22	0.300
678.66	0.296
679.11	0.290
679.55	0.282
679.99	0.275
680.44	0.270
680.88	0.263
681.33	0.257
681.77	0.251
682.22	0.243
682.66	0.239
683.11	0.235
683.55	0.227
683.99	0.221
684.44	0.217
684.88	0.213
685.33	0.204
685.77	0.200
686.21	0.196
686.66	0.190
687.10	0.185
687.55	0.181
687.99	0.175
688.44	0.171
688.88	0.166
689.32	0.162
689.77	0.160
690.21	0.155
690.65	0.152
691.10	0.149
691.54	0.144
691.99	0.140
692.43	0.140
692.87	0.137
693.32	0.131
693.76	0.130
694.20	0.129
694.65	0.125
695.09	0.123
695.53	0.120
695.98	0.119
696.42	0.117
696.86	0.113
697.31	0.112
697.75	0.112
698.19	0.107
698.64	0.105
699.08	0.107
699.52	0.105
699.97	0.103
700.41	0.102
700.85	0.102
701.30	0.099
701.74	0.098
702.18	0.098
702.63	0.095
703.07	0.096
703.51	0.096
703.96	0.094
704.40	0.093
704.84	0.091
705.28	0.092
705.73	0.091
706.17	0.089
706.61	0.089
707.06	0.089
707.50	0.087
707.94	0.086
708.38	0.086
708.83	0.085
709.27	0.088
709.71	0.084
710.15	0.086
710.60	0.086
711.04	0.084
711.48	0.083
711.92	0.084
712.37	0.081
712.81	0.081
713.25	0.084
713.69	0.084
714.13	0.077
714.58	0.078
715.02	0.082
715.46	0.080
715.90	0.082
716.35	0.082
716.79	0.079
717.23	0.082
717.67	0.082
718.11	0.082
718.56	0.081
719.00	0.081
719.44	0.081
719.88	0.082
720.32	0.081
720.76	0.081
721.21	0.080
721.65	0.081
722.09	0.084
722.53	0.080
722.97	0.081
723.41	0.081
723.86	0.081
724.30	0.079
724.74	0.084
725.18	0.080
725.62	0.081
726.06	0.082
726.50	0.080
726.95	0.082
727.39	0.081
727.83	0.079
728.27	0.081
728.71	0.082
729.15	0.080
729.59	0.083
730.03	0.081
730.48	0.084
730.92	0.081
731.36	0.082
731.80	0.079
732.24	0.081
732.68	0.082
733.12	0.084
733.56	0.083
734.00	0.083
734.44	0.082
734.89	0.083
735.33	0.083
735.77	0.083
736.21	0.085
736.65	0.082
737.09	0.081
737.53	0.086
737.97	0.085
738.41	0.083
738.85	0.084
739.29	0.086
739.73	0.081
740.17	0.081
740.61	0.082
741.05	0.084
741.49	0.085
741.93	0.081
742.37	0.082
742.81	0.085
743.26	0.083
743.70	0.081
744.14	0.087
744.58	0.083
745.02	0.083
745.46	0.085
745.90	0.085
746.34	0.083
746.78	0.083
747.22	0.082
747.66	0.081
748.10	0.081
748.54	0.079
748.98	0.082
749.42	0.082
749.86	0.083
750.29	0.083
750.73	0.081
751.17	0.081
751.61	0.080
752.05	0.083
752.49	0.081
752.93	0.082
753.37	0.082
753.81	0.083
754.25	0.082
754.69	0.077
755.13	0.082
755.57	0.082
756.01	0.082
756.45	0.082
756.89	0.083
757.33	0.083
757.77	0.079
758.21	0.082
758.64	0.083
759.08	0.079
759.52	0.083
759.96	0.079
760.40	0.079
760.84	0.080
761.28	0.082
761.72	0.082
762.16	0.080
762.60	0.081
763.03	0.079
763.47	0.079
763.91	0.080
764.35	0.079
764.79	0.081
765.23	0.079
765.67	0.081
766.11	0.081
766.54	0.079
766.98	0.079
767.42	0.079
767.86	0.079
768.30	0.081
768.74	0.078
769.17	0.077
769.61	0.082
770.05	0.080
770.49	0.080
770.93	0.085
771.37	0.082
771.80	0.079
772.24	0.080
772.68	0.082
773.12	0.082
773.56	0.080
774.00	0.078
774.43	0.081
774.87	0.076
775.31	0.080
775.75	0.077
776.19	0.079
776.62	0.081
777.06	0.080
777.50	0.079
777.94	0.083
778.37	0.079
778.81	0.080
779.25	0.082
779.69	0.078
780.13	0.077
780.56	0.080
781.00	0.081
781.44	0.077
781.88	0.081
782.31	0.079
782.75	0.079
783.19	0.079
783.63	0.080
784.06	0.080
784.50	0.078
784.94	0.077
785.37	0.079
785.81	0.079
786.25	0.077
786.69	0.081
787.12	0.081
787.56	0.079
788.00	0.076
788.43	0.079
788.87	0.079
789.31	0.080
789.75	0.081
790.18	0.081
790.62	0.080
791.06	0.074
791.49	0.076
791.93	0.082
792.37	0.080
792.80	0.079
793.24	0.081
793.68	0.079
794.11	0.077
794.55	0.077
794.99	0.081
795.42	0.077
795.86	0.078
796.30	0.079
796.73	0.080
797.17	0.076
797.61	0.080
798.04	0.081
798.48	0.080
798.91	0.082
799.35	0.081
799.79	0.081
800.22	0.076
800.66	0.074
801.10	0.077
801.53	0.082
801.97	0.082
802.40	0.075
802.84	0.080
803.28	0.079
803.71	0.079
804.15	0.079
804.58	0.081
805.02	0.074
805.46	0.078
805.89	0.082
806.33	0.077
806.76	0.077
807.20	0.070
807.63	0.080
808.07	0.079
808.51	0.076
808.94	0.076
809.38	0.081
809.81	0.074
810.25	0.076
810.68	0.080
811.12	0.077
811.55	0.079
811.99	0.076
812.42	0.077
812.86	0.079
813.29	0.081
813.73	0.077
814.17	0.077
814.60	0.076
815.04	0.077
815.47	0.073
815.91	0.079
816.34	0.083
816.78	0.077
817.21	0.076
817.65	0.078
818.08	0.074
