SpectraSuite Data File
++++++++++++++++++++++++++++++++++++
Date: Tue Jul 11 14:46:59 CEST 2017
User: IPCE
Dark Spectrum Present: Yes
Reference Spectrum Present: Yes
Number of Sampled Component Spectra: 1
Spectrometers: HR+C0708
Integration Time (usec): 1000 (HR+C0708)
Spectra Averaged: 10 (HR+C0708)
Boxcar Smoothing: 0 (HR+C0708)
Correct for Electrical Dark: No (HR+C0708)
Strobe/Lamp Enabled: No (HR+C0708)
Correct for Detector Non-linearity: No (HR+C0708)
Correct for Stray Light: No (HR+C0708)
Number of Pixels in Processed Spectrum: 2048
>>>>>Begin Processed Spectral Data<<<<<
188.76	1.315
189.23	0.531
189.70	0.155
190.17	-0.000
190.64	-0.000
191.12	0.446
191.59	0.538
192.06	0.675
192.53	0.525
193.01	0.652
193.48	0.511
193.95	0.315
194.42	0.125
194.90	0.304
195.37	-0.000
195.84	-0.000
196.31	1.959
196.78	-0.000
197.26	0.895
197.73	0.191
198.20	-0.068
198.67	-0.000
199.14	-0.000
199.62	-0.000
200.09	0.472
200.56	0.327
201.03	0.377
201.50	0.377
201.97	0.600
202.45	0.289
202.92	0.314
203.39	0.578
203.86	0.434
204.33	0.358
204.80	0.368
205.28	0.447
205.75	0.362
206.22	0.249
206.69	0.229
207.16	0.464
207.63	0.332
208.11	0.400
208.58	0.341
209.05	0.604
209.52	0.347
209.99	0.447
210.46	0.318
210.93	0.421
211.41	0.457
211.88	0.421
212.35	0.483
212.82	0.523
213.29	0.511
213.76	0.450
214.23	0.357
214.70	0.720
215.18	0.481
215.65	0.478
216.12	0.422
216.59	0.525
217.06	0.436
217.53	0.329
218.00	0.379
218.47	0.346
218.94	0.668
219.41	0.468
219.89	0.529
220.36	0.398
220.83	0.450
221.30	0.722
221.77	0.539
222.24	0.502
222.71	0.413
223.18	0.486
223.65	0.542
224.12	0.566
224.59	0.472
225.06	0.571
225.54	0.659
226.01	0.647
226.48	0.664
226.95	0.882
227.42	0.787
227.89	0.874
228.36	0.845
228.83	0.821
229.30	1.289
229.77	1.044
230.24	1.239
230.71	1.190
231.18	1.215
231.65	1.192
232.12	1.239
232.59	1.443
233.06	1.398
233.53	1.676
234.00	1.327
234.47	1.716
234.94	1.670
235.41	1.571
235.88	1.768
236.35	1.789
236.82	1.785
237.29	1.814
237.76	1.811
238.23	1.999
238.70	1.919
239.17	1.939
239.64	2.145
240.11	1.992
240.58	1.946
241.05	2.132
241.52	2.162
241.99	2.123
242.46	2.203
242.93	2.159
243.40	2.214
243.87	2.291
244.34	2.107
244.81	2.227
245.28	2.269
245.75	2.126
246.22	2.209
246.69	2.284
247.16	2.431
247.63	2.372
248.10	2.357
248.57	2.243
249.04	2.243
249.51	2.214
249.98	2.348
250.45	2.127
250.92	2.077
251.39	2.149
251.85	2.022
252.32	1.866
252.79	1.740
253.26	1.691
253.73	1.597
254.20	1.514
254.67	1.415
255.14	1.348
255.61	1.289
256.08	1.229
256.55	1.173
257.02	1.119
257.49	1.086
257.95	1.043
258.42	1.020
258.89	0.980
259.36	0.952
259.83	0.930
260.30	0.906
260.77	0.889
261.24	0.861
261.71	0.854
262.17	0.831
262.64	0.819
263.11	0.805
263.58	0.787
264.05	0.775
264.52	0.761
264.99	0.751
265.46	0.740
265.92	0.734
266.39	0.717
266.86	0.710
267.33	0.700
267.80	0.694
268.27	0.687
268.74	0.676
269.20	0.669
269.67	0.659
270.14	0.654
270.61	0.644
271.08	0.639
271.55	0.631
272.01	0.629
272.48	0.624
272.95	0.614
273.42	0.613
273.89	0.602
274.36	0.595
274.82	0.590
275.29	0.588
275.76	0.585
276.23	0.579
276.70	0.573
277.16	0.577
277.63	0.567
278.10	0.562
278.57	0.563
279.04	0.559
279.50	0.556
279.97	0.552
280.44	0.552
280.91	0.551
281.38	0.550
281.84	0.546
282.31	0.542
282.78	0.544
283.25	0.541
283.72	0.543
284.18	0.538
284.65	0.542
285.12	0.537
285.59	0.538
286.05	0.538
286.52	0.533
286.99	0.536
287.46	0.535
287.92	0.534
288.39	0.532
288.86	0.534
289.33	0.531
289.79	0.531
290.26	0.529
290.73	0.527
291.20	0.525
291.66	0.528
292.13	0.521
292.60	0.519
293.07	0.511
293.53	0.508
294.00	0.508
294.47	0.501
294.93	0.497
295.40	0.493
295.87	0.480
296.34	0.481
296.80	0.471
297.27	0.468
297.74	0.457
298.20	0.453
298.67	0.445
299.14	0.440
299.60	0.433
300.07	0.425
300.54	0.417
301.01	0.412
301.47	0.404
301.94	0.397
302.41	0.394
302.87	0.387
303.34	0.382
303.81	0.373
304.27	0.367
304.74	0.361
305.21	0.357
305.67	0.353
306.14	0.347
306.61	0.341
307.07	0.335
307.54	0.332
308.01	0.329
308.47	0.324
308.94	0.319
309.40	0.317
309.87	0.315
310.34	0.313
310.80	0.307
311.27	0.303
311.74	0.303
312.20	0.301
312.67	0.298
313.13	0.292
313.60	0.295
314.07	0.291
314.53	0.289
315.00	0.286
315.47	0.287
315.93	0.287
316.40	0.282
316.86	0.282
317.33	0.279
317.80	0.278
318.26	0.276
318.73	0.276
319.19	0.274
319.66	0.274
320.13	0.270
320.59	0.270
321.06	0.269
321.52	0.268
321.99	0.266
322.45	0.265
322.92	0.268
323.39	0.262
323.85	0.259
324.32	0.258
324.78	0.260
325.25	0.260
325.71	0.255
326.18	0.257
326.64	0.255
327.11	0.253
327.58	0.252
328.04	0.250
328.51	0.247
328.97	0.248
329.44	0.247
329.90	0.247
330.37	0.242
330.83	0.241
331.30	0.238
331.76	0.237
332.23	0.238
332.69	0.239
333.16	0.233
333.62	0.234
334.09	0.234
334.56	0.230
335.02	0.228
335.49	0.228
335.95	0.226
336.42	0.224
336.88	0.221
337.35	0.222
337.81	0.219
338.28	0.218
338.74	0.220
339.20	0.217
339.67	0.216
340.13	0.216
340.60	0.212
341.06	0.213
341.53	0.213
341.99	0.206
342.46	0.207
342.92	0.210
343.39	0.209
343.85	0.203
344.32	0.204
344.78	0.204
345.25	0.203
345.71	0.204
346.17	0.203
346.64	0.204
347.10	0.204
347.57	0.200
348.03	0.200
348.50	0.195
348.96	0.199
349.43	0.195
349.89	0.200
350.35	0.198
350.82	0.193
351.28	0.190
351.75	0.195
352.21	0.194
352.67	0.191
353.14	0.191
353.60	0.191
354.07	0.184
354.53	0.184
355.00	0.186
355.46	0.186
355.92	0.180
356.39	0.183
356.85	0.180
357.31	0.183
357.78	0.173
358.24	0.176
358.71	0.178
359.17	0.172
359.63	0.174
360.10	0.174
360.56	0.168
361.03	0.169
361.49	0.168
361.95	0.166
362.42	0.168
362.88	0.167
363.34	0.166
363.81	0.166
364.27	0.163
364.73	0.163
365.20	0.162
365.66	0.162
366.12	0.164
366.59	0.160
367.05	0.163
367.51	0.160
367.98	0.160
368.44	0.161
368.90	0.161
369.37	0.159
369.83	0.157
370.29	0.158
370.76	0.155
371.22	0.155
371.68	0.158
372.15	0.157
372.61	0.154
373.07	0.157
373.54	0.156
374.00	0.154
374.46	0.152
374.92	0.156
375.39	0.155
375.85	0.154
376.31	0.153
376.78	0.154
377.24	0.153
377.70	0.151
378.16	0.154
378.63	0.153
379.09	0.151
379.55	0.153
380.01	0.151
380.48	0.154
380.94	0.150
381.40	0.150
381.87	0.152
382.33	0.150
382.79	0.149
383.25	0.151
383.72	0.151
384.18	0.149
384.64	0.148
385.10	0.150
385.56	0.148
386.03	0.151
386.49	0.149
386.95	0.146
387.41	0.151
387.88	0.145
388.34	0.146
388.80	0.149
389.26	0.142
389.72	0.146
390.19	0.149
390.65	0.144
391.11	0.146
391.57	0.146
392.04	0.144
392.50	0.148
392.96	0.146
393.42	0.145
393.88	0.147
394.34	0.145
394.81	0.145
395.27	0.144
395.73	0.145
396.19	0.142
396.65	0.146
397.12	0.143
397.58	0.144
398.04	0.144
398.50	0.144
398.96	0.146
399.42	0.145
399.89	0.141
400.35	0.141
400.81	0.143
401.27	0.140
401.73	0.140
402.19	0.142
402.65	0.140
403.12	0.139
403.58	0.137
404.04	0.138
404.50	0.135
404.96	0.137
405.42	0.140
405.88	0.137
406.34	0.138
406.81	0.137
407.27	0.135
407.73	0.136
408.19	0.132
408.65	0.135
409.11	0.138
409.57	0.137
410.03	0.134
410.49	0.132
410.96	0.130
411.42	0.132
411.88	0.133
412.34	0.133
412.80	0.132
413.26	0.132
413.72	0.133
414.18	0.132
414.64	0.128
415.10	0.131
415.56	0.130
416.02	0.131
416.48	0.130
416.95	0.131
417.41	0.130
417.87	0.128
418.33	0.130
418.79	0.129
419.25	0.129
419.71	0.130
420.17	0.128
420.63	0.129
421.09	0.128
421.55	0.128
422.01	0.129
422.47	0.129
422.93	0.127
423.39	0.129
423.85	0.130
424.31	0.129
424.77	0.127
425.23	0.131
425.69	0.127
426.15	0.126
426.61	0.125
427.07	0.128
427.53	0.127
427.99	0.127
428.45	0.123
428.91	0.123
429.37	0.125
429.83	0.126
430.29	0.129
430.75	0.130
431.21	0.126
431.67	0.126
432.13	0.125
432.59	0.125
433.05	0.124
433.51	0.126
433.97	0.125
434.43	0.126
434.89	0.125
435.35	0.122
435.81	0.122
436.27	0.123
436.73	0.124
437.19	0.125
437.65	0.124
438.11	0.120
438.57	0.124
439.03	0.122
439.48	0.123
439.94	0.124
440.40	0.118
440.86	0.118
441.32	0.119
441.78	0.120
442.24	0.119
442.70	0.120
443.16	0.120
443.62	0.123
444.08	0.116
444.54	0.119
444.99	0.119
445.45	0.121
445.91	0.120
446.37	0.117
446.83	0.119
447.29	0.121
447.75	0.119
448.21	0.117
448.67	0.115
449.12	0.120
449.58	0.115
450.04	0.116
450.50	0.118
450.96	0.119
451.42	0.116
451.88	0.119
452.34	0.118
452.79	0.115
453.25	0.115
453.71	0.116
454.17	0.114
454.63	0.115
455.09	0.119
455.55	0.120
456.00	0.116
456.46	0.113
456.92	0.113
457.38	0.113
457.84	0.114
458.30	0.113
458.75	0.116
459.21	0.111
459.67	0.114
460.13	0.112
460.59	0.114
461.04	0.114
461.50	0.115
461.96	0.114
462.42	0.115
462.88	0.114
463.33	0.113
463.79	0.116
464.25	0.115
464.71	0.115
465.17	0.115
465.62	0.116
466.08	0.116
466.54	0.116
467.00	0.117
467.46	0.114
467.91	0.113
468.37	0.115
468.83	0.115
469.29	0.116
469.74	0.114
470.20	0.114
470.66	0.118
471.12	0.116
471.57	0.115
472.03	0.116
472.49	0.117
472.95	0.116
473.40	0.116
473.86	0.119
474.32	0.117
474.78	0.115
475.23	0.115
475.69	0.113
476.15	0.115
476.60	0.115
477.06	0.115
477.52	0.115
477.98	0.117
478.43	0.114
478.89	0.115
479.35	0.115
479.80	0.113
480.26	0.114
480.72	0.113
481.18	0.116
481.63	0.114
482.09	0.112
482.55	0.117
483.00	0.115
483.46	0.114
483.92	0.111
484.37	0.115
484.83	0.113
485.29	0.113
485.74	0.115
486.20	0.114
486.66	0.114
487.11	0.112
487.57	0.114
488.03	0.116
488.48	0.113
488.94	0.116
489.40	0.112
489.85	0.112
490.31	0.113
490.77	0.111
491.22	0.114
491.68	0.113
492.13	0.114
492.59	0.114
493.05	0.113
493.50	0.113
493.96	0.114
494.42	0.112
494.87	0.114
495.33	0.112
495.78	0.114
496.24	0.111
496.70	0.114
497.15	0.112
497.61	0.116
498.06	0.114
498.52	0.113
498.98	0.114
499.43	0.112
499.89	0.110
500.34	0.113
500.80	0.112
501.25	0.113
501.71	0.112
502.17	0.114
502.62	0.113
503.08	0.113
503.53	0.113
503.99	0.112
504.44	0.110
504.90	0.111
505.36	0.113
505.81	0.113
506.27	0.113
506.72	0.111
507.18	0.112
507.63	0.110
508.09	0.111
508.54	0.111
509.00	0.111
509.45	0.112
509.91	0.112
510.36	0.112
510.82	0.111
511.27	0.112
511.73	0.114
512.19	0.112
512.64	0.110
513.10	0.110
513.55	0.110
514.01	0.112
514.46	0.111
514.92	0.109
515.37	0.111
515.83	0.111
516.28	0.110
516.73	0.112
517.19	0.111
517.64	0.108
518.10	0.110
518.55	0.110
519.01	0.110
519.46	0.110
519.92	0.110
520.37	0.110
520.83	0.112
521.28	0.108
521.74	0.108
522.19	0.109
522.65	0.109
523.10	0.109
523.55	0.110
524.01	0.108
524.46	0.108
524.92	0.107
525.37	0.107
525.83	0.111
526.28	0.108
526.73	0.110
527.19	0.108
527.64	0.112
528.10	0.110
528.55	0.112
529.01	0.110
529.46	0.109
529.91	0.108
530.37	0.111
530.82	0.110
531.28	0.107
531.73	0.110
532.18	0.110
532.64	0.109
533.09	0.111
533.54	0.111
534.00	0.111
534.45	0.112
534.91	0.110
535.36	0.111
535.81	0.109
536.27	0.112
536.72	0.111
537.17	0.111
537.63	0.112
538.08	0.113
538.54	0.112
538.99	0.115
539.44	0.113
539.90	0.111
540.35	0.115
540.80	0.112
541.26	0.112
541.71	0.115
542.16	0.115
542.62	0.114
543.07	0.114
543.52	0.114
543.98	0.115
544.43	0.114
544.88	0.114
545.34	0.116
545.79	0.113
546.24	0.115
546.69	0.116
547.15	0.116
547.60	0.118
548.05	0.117
548.51	0.118
548.96	0.117
549.41	0.118
549.86	0.117
550.32	0.120
550.77	0.118
551.22	0.117
551.68	0.119
552.13	0.120
552.58	0.118
553.03	0.120
553.49	0.120
553.94	0.120
554.39	0.124
554.84	0.120
555.30	0.121
555.75	0.124
556.20	0.121
556.65	0.124
557.11	0.125
557.56	0.123
558.01	0.125
558.46	0.124
558.92	0.126
559.37	0.129
559.82	0.126
560.27	0.127
560.72	0.127
561.18	0.127
561.63	0.128
562.08	0.127
562.53	0.127
562.99	0.133
563.44	0.131
563.89	0.130
564.34	0.130
564.79	0.130
565.25	0.132
565.70	0.135
566.15	0.134
566.60	0.134
567.05	0.136
567.50	0.134
567.96	0.137
568.41	0.137
568.86	0.137
569.31	0.137
569.76	0.138
570.21	0.137
570.67	0.138
571.12	0.139
571.57	0.142
572.02	0.142
572.47	0.140
572.92	0.144
573.37	0.145
573.83	0.143
574.28	0.145
574.73	0.144
575.18	0.148
575.63	0.146
576.08	0.145
576.53	0.149
576.98	0.150
577.44	0.151
577.89	0.152
578.34	0.151
578.79	0.151
579.24	0.155
579.69	0.156
580.14	0.156
580.59	0.156
581.04	0.154
581.49	0.157
581.95	0.161
582.40	0.159
582.85	0.161
583.30	0.162
583.75	0.161
584.20	0.163
584.65	0.166
585.10	0.166
585.55	0.168
586.00	0.170
586.45	0.170
586.90	0.173
587.35	0.172
587.80	0.175
588.25	0.177
588.71	0.178
589.16	0.180
589.61	0.181
590.06	0.181
590.51	0.181
590.96	0.185
591.41	0.186
591.86	0.186
592.31	0.189
592.76	0.190
593.21	0.192
593.66	0.194
594.11	0.197
594.56	0.197
595.01	0.199
595.46	0.201
595.91	0.203
596.36	0.204
596.81	0.203
597.26	0.206
597.71	0.209
598.16	0.211
598.61	0.211
599.06	0.210
599.51	0.214
599.96	0.217
600.41	0.220
600.86	0.218
601.31	0.220
601.76	0.225
602.21	0.220
602.65	0.226
603.10	0.225
603.55	0.229
604.00	0.230
604.45	0.232
604.90	0.231
605.35	0.235
605.80	0.235
606.25	0.239
606.70	0.238
607.15	0.239
607.60	0.241
608.05	0.245
608.50	0.243
608.95	0.244
609.39	0.244
609.84	0.246
610.29	0.249
610.74	0.247
611.19	0.250
611.64	0.252
612.09	0.251
612.54	0.253
612.99	0.252
613.44	0.250
613.88	0.255
614.33	0.257
614.78	0.257
615.23	0.259
615.68	0.257
616.13	0.257
616.58	0.259
617.03	0.255
617.47	0.259
617.92	0.261
618.37	0.258
618.82	0.263
619.27	0.263
619.72	0.261
620.17	0.263
620.61	0.265
621.06	0.263
621.51	0.266
621.96	0.267
622.41	0.264
622.86	0.266
623.30	0.266
623.75	0.265
624.20	0.270
624.65	0.269
625.10	0.271
625.54	0.270
625.99	0.272
626.44	0.273
626.89	0.274
627.34	0.274
627.78	0.277
628.23	0.276
628.68	0.278
629.13	0.279
629.58	0.281
630.02	0.280
630.47	0.284
630.92	0.285
631.37	0.285
631.81	0.285
632.26	0.287
632.71	0.290
633.16	0.289
633.61	0.290
634.05	0.294
634.50	0.294
634.95	0.299
635.40	0.300
635.84	0.301
636.29	0.302
636.74	0.306
637.18	0.309
637.63	0.309
638.08	0.310
638.53	0.314
638.97	0.316
639.42	0.318
639.87	0.321
640.32	0.322
640.76	0.325
641.21	0.324
641.66	0.327
642.10	0.333
642.55	0.331
643.00	0.335
643.44	0.338
643.89	0.341
644.34	0.343
644.79	0.346
645.23	0.350
645.68	0.353
646.13	0.353
646.57	0.357
647.02	0.359
647.47	0.362
647.91	0.365
648.36	0.369
648.81	0.369
649.25	0.371
649.70	0.375
650.15	0.376
650.59	0.379
651.04	0.381
651.48	0.383
651.93	0.388
652.38	0.388
652.82	0.388
653.27	0.390
653.72	0.394
654.16	0.394
654.61	0.397
655.06	0.398
655.50	0.400
655.95	0.400
656.39	0.404
656.84	0.408
657.29	0.406
657.73	0.408
658.18	0.413
658.62	0.413
659.07	0.412
659.52	0.415
659.96	0.416
660.41	0.416
660.85	0.417
661.30	0.420
661.74	0.419
662.19	0.418
662.64	0.418
663.08	0.420
663.53	0.421
663.97	0.420
664.42	0.420
664.86	0.420
665.31	0.420
665.75	0.421
666.20	0.417
666.65	0.417
667.09	0.417
667.54	0.412
667.98	0.411
668.43	0.412
668.87	0.410
669.32	0.406
669.76	0.405
670.21	0.397
670.65	0.396
671.10	0.395
671.54	0.391
671.99	0.384
672.43	0.378
672.88	0.379
673.32	0.373
673.77	0.363
674.21	0.363
674.66	0.357
675.10	0.354
675.55	0.346
675.99	0.341
676.44	0.336
676.88	0.329
677.33	0.324
677.77	0.317
678.22	0.307
678.66	0.305
679.11	0.301
679.55	0.291
679.99	0.283
680.44	0.279
680.88	0.273
681.33	0.266
681.77	0.257
682.22	0.250
682.66	0.246
683.11	0.239
683.55	0.233
683.99	0.226
684.44	0.221
684.88	0.216
685.33	0.209
685.77	0.203
686.21	0.200
686.66	0.194
687.10	0.189
687.55	0.183
687.99	0.178
688.44	0.174
688.88	0.169
689.32	0.165
689.77	0.160
690.21	0.159
690.65	0.154
691.10	0.150
691.54	0.144
691.99	0.141
692.43	0.138
692.87	0.136
693.32	0.133
693.76	0.131
694.20	0.129
694.65	0.125
695.09	0.124
695.53	0.121
695.98	0.120
696.42	0.116
696.86	0.113
697.31	0.111
697.75	0.111
698.19	0.107
698.64	0.107
699.08	0.109
699.52	0.102
699.97	0.104
700.41	0.103
700.85	0.102
701.30	0.098
701.74	0.096
702.18	0.096
702.63	0.094
703.07	0.094
703.51	0.098
703.96	0.093
704.40	0.092
704.84	0.090
705.28	0.091
705.73	0.089
706.17	0.092
706.61	0.087
707.06	0.088
707.50	0.085
707.94	0.084
708.38	0.087
708.83	0.086
709.27	0.084
709.71	0.084
710.15	0.084
710.60	0.084
711.04	0.084
711.48	0.082
711.92	0.085
712.37	0.080
712.81	0.081
713.25	0.081
713.69	0.083
714.13	0.077
714.58	0.078
715.02	0.078
715.46	0.077
715.90	0.079
716.35	0.082
716.79	0.079
717.23	0.079
717.67	0.080
718.11	0.077
718.56	0.076
719.00	0.078
719.44	0.081
719.88	0.076
720.32	0.079
720.76	0.078
721.21	0.077
721.65	0.080
722.09	0.081
722.53	0.079
722.97	0.079
723.41	0.077
723.86	0.079
724.30	0.081
724.74	0.079
725.18	0.080
725.62	0.083
726.06	0.079
726.50	0.081
726.95	0.079
727.39	0.079
727.83	0.081
728.27	0.078
728.71	0.080
729.15	0.079
729.59	0.079
730.03	0.080
730.48	0.082
730.92	0.078
731.36	0.081
731.80	0.078
732.24	0.080
732.68	0.080
733.12	0.080
733.56	0.080
734.00	0.079
734.44	0.081
734.89	0.082
735.33	0.082
735.77	0.083
736.21	0.079
736.65	0.081
737.09	0.080
737.53	0.085
737.97	0.083
738.41	0.080
738.85	0.083
739.29	0.081
739.73	0.081
740.17	0.084
740.61	0.080
741.05	0.079
741.49	0.083
741.93	0.079
742.37	0.081
742.81	0.082
743.26	0.082
743.70	0.084
744.14	0.083
744.58	0.083
745.02	0.083
745.46	0.082
745.90	0.082
746.34	0.082
746.78	0.080
747.22	0.080
747.66	0.079
748.10	0.079
748.54	0.081
748.98	0.079
749.42	0.081
749.86	0.082
750.29	0.082
750.73	0.082
751.17	0.082
751.61	0.079
752.05	0.082
752.49	0.079
752.93	0.080
753.37	0.080
753.81	0.079
754.25	0.079
754.69	0.078
755.13	0.080
755.57	0.078
756.01	0.078
756.45	0.082
756.89	0.081
757.33	0.082
757.77	0.079
758.21	0.082
758.64	0.078
759.08	0.076
759.52	0.080
759.96	0.077
760.40	0.076
760.84	0.080
761.28	0.078
761.72	0.079
762.16	0.080
762.60	0.079
763.03	0.081
763.47	0.077
763.91	0.079
764.35	0.078
764.79	0.082
765.23	0.081
765.67	0.081
766.11	0.077
766.54	0.078
766.98	0.079
767.42	0.076
767.86	0.080
768.30	0.075
768.74	0.078
769.17	0.079
769.61	0.080
770.05	0.078
770.49	0.079
770.93	0.080
771.37	0.080
771.80	0.076
772.24	0.078
772.68	0.079
773.12	0.076
773.56	0.080
774.00	0.078
774.43	0.080
774.87	0.078
775.31	0.077
775.75	0.081
776.19	0.078
776.62	0.080
777.06	0.078
777.50	0.080
777.94	0.080
778.37	0.077
778.81	0.080
779.25	0.079
779.69	0.078
780.13	0.078
780.56	0.079
781.00	0.079
781.44	0.079
781.88	0.078
782.31	0.080
782.75	0.079
783.19	0.077
783.63	0.080
784.06	0.077
784.50	0.078
784.94	0.076
785.37	0.077
785.81	0.078
786.25	0.077
786.69	0.079
787.12	0.077
787.56	0.077
788.00	0.080
788.43	0.079
788.87	0.077
789.31	0.077
789.75	0.080
790.18	0.078
790.62	0.077
791.06	0.077
791.49	0.075
791.93	0.077
792.37	0.077
792.80	0.077
793.24	0.079
793.68	0.075
794.11	0.075
794.55	0.081
794.99	0.077
795.42	0.075
795.86	0.077
796.30	0.079
796.73	0.075
797.17	0.080
797.61	0.080
798.04	0.077
798.48	0.075
798.91	0.077
799.35	0.078
799.79	0.077
800.22	0.075
800.66	0.076
801.10	0.078
801.53	0.077
801.97	0.081
802.40	0.076
802.84	0.080
803.28	0.079
803.71	0.076
804.15	0.076
804.58	0.078
805.02	0.076
805.46	0.074
805.89	0.078
806.33	0.075
806.76	0.081
807.20	0.071
807.63	0.076
808.07	0.075
808.51	0.075
808.94	0.078
809.38	0.075
809.81	0.070
810.25	0.074
810.68	0.079
811.12	0.072
811.55	0.077
811.99	0.076
812.42	0.075
812.86	0.075
813.29	0.078
813.73	0.072
814.17	0.075
814.60	0.075
815.04	0.076
815.47	0.074
815.91	0.071
816.34	0.076
816.78	0.074
817.21	0.071
817.65	0.075
