SpectraSuite Data File
++++++++++++++++++++++++++++++++++++
Date: Tue Jul 11 13:28:59 CEST 2017
User: IPCE
Dark Spectrum Present: Yes
Reference Spectrum Present: Yes
Number of Sampled Component Spectra: 1
Spectrometers: HR+C0708
Integration Time (usec): 1000 (HR+C0708)
Spectra Averaged: 10 (HR+C0708)
Boxcar Smoothing: 0 (HR+C0708)
Correct for Electrical Dark: No (HR+C0708)
Strobe/Lamp Enabled: No (HR+C0708)
Correct for Detector Non-linearity: No (HR+C0708)
Correct for Stray Light: No (HR+C0708)
Number of Pixels in Processed Spectrum: 2048
>>>>>Begin Processed Spectral Data<<<<<
188.76	0.657
189.23	0.515
189.70	0.207
190.17	-0.087
190.64	0.322
191.12	0.123
191.59	0.260
192.06	0.052
192.53	0.489
193.01	0.681
193.48	0.417
193.95	-0.229
194.42	-0.000
194.90	0.314
195.37	0.179
195.84	0.199
196.31	0.188
196.78	0.340
197.26	-0.081
197.73	0.121
198.20	-0.057
198.67	-0.716
199.14	1.462
199.62	0.150
200.09	0.325
200.56	0.215
201.03	0.367
201.50	0.592
201.97	0.792
202.45	0.352
202.92	0.552
203.39	0.416
203.86	0.320
204.33	0.440
204.80	0.423
205.28	0.410
205.75	0.376
206.22	0.490
206.69	0.427
207.16	0.229
207.63	0.281
208.11	0.366
208.58	0.423
209.05	0.402
209.52	0.796
209.99	0.518
210.46	0.494
210.93	0.446
211.41	0.500
211.88	0.513
212.35	0.246
212.82	0.447
213.29	0.682
213.76	0.483
214.23	0.282
214.70	0.867
215.18	0.518
215.65	0.397
216.12	0.517
216.59	0.439
217.06	0.646
217.53	0.362
218.00	0.429
218.47	0.495
218.94	0.737
219.41	0.473
219.89	0.538
220.36	0.519
220.83	0.513
221.30	0.861
221.77	0.569
222.24	0.509
222.71	0.498
223.18	0.557
223.65	0.714
224.12	0.711
224.59	0.618
225.06	0.605
225.54	0.553
226.01	0.657
226.48	0.624
226.95	0.731
227.42	1.046
227.89	0.954
228.36	0.969
228.83	1.109
229.30	1.197
229.77	1.046
230.24	1.325
230.71	1.351
231.18	1.226
231.65	1.394
232.12	1.398
232.59	1.540
233.06	1.386
233.53	1.613
234.00	1.456
234.47	1.805
234.94	1.517
235.41	1.762
235.88	1.852
236.35	1.697
236.82	1.902
237.29	1.812
237.76	1.961
238.23	2.005
238.70	1.941
239.17	2.168
239.64	2.735
240.11	2.091
240.58	2.039
241.05	2.039
241.52	2.180
241.99	2.198
242.46	2.225
242.93	2.196
243.40	2.296
243.87	2.261
244.34	2.235
244.81	2.267
245.28	2.261
245.75	2.295
246.22	2.251
246.69	2.337
247.16	2.516
247.63	2.428
248.10	2.779
248.57	2.257
249.04	2.446
249.51	2.379
249.98	2.459
250.45	2.275
250.92	2.384
251.39	2.404
251.85	2.372
252.32	2.471
252.79	2.451
253.26	2.520
253.73	2.809
254.20	2.560
254.67	2.448
255.14	2.471
255.61	2.578
256.08	2.769
256.55	2.592
257.02	2.460
257.49	2.595
257.95	2.719
258.42	2.515
258.89	2.608
259.36	2.527
259.83	2.562
260.30	2.585
260.77	2.680
261.24	2.507
261.71	2.651
262.17	2.593
262.64	2.600
263.11	2.704
263.58	2.569
264.05	2.692
264.52	2.659
264.99	2.594
265.46	2.614
265.92	2.708
266.39	2.652
266.86	2.606
267.33	2.570
267.80	2.715
268.27	2.714
268.74	2.557
269.20	2.721
269.67	2.596
270.14	2.625
270.61	2.479
271.08	2.615
271.55	2.609
272.01	2.528
272.48	2.660
272.95	2.584
273.42	2.649
273.89	2.505
274.36	2.600
274.82	2.559
275.29	2.598
275.76	2.550
276.23	2.413
276.70	2.565
277.16	2.537
277.63	2.586
278.10	2.491
278.57	2.535
279.04	2.514
279.50	2.557
279.97	2.472
280.44	2.662
280.91	2.473
281.38	2.487
281.84	2.570
282.31	2.485
282.78	2.547
283.25	2.468
283.72	2.491
284.18	2.632
284.65	2.775
285.12	2.657
285.59	2.541
286.05	2.520
286.52	2.685
286.99	2.629
287.46	2.587
287.92	2.651
288.39	2.539
288.86	2.577
289.33	2.396
289.79	2.602
290.26	2.580
290.73	2.555
291.20	2.560
291.66	2.571
292.13	2.500
292.60	2.529
293.07	2.601
293.53	2.556
294.00	2.537
294.47	2.415
294.93	2.422
295.40	2.467
295.87	2.390
296.34	2.535
296.80	2.641
297.27	2.468
297.74	2.492
298.20	2.395
298.67	2.439
299.14	2.409
299.60	2.438
300.07	2.426
300.54	2.405
301.01	2.400
301.47	2.436
301.94	2.375
302.41	2.290
302.87	2.386
303.34	2.509
303.81	2.349
304.27	2.326
304.74	2.327
305.21	2.336
305.67	2.515
306.14	2.284
306.61	2.380
307.07	2.342
307.54	2.321
308.01	2.301
308.47	2.403
308.94	2.386
309.40	2.268
309.87	2.319
310.34	2.367
310.80	2.308
311.27	2.262
311.74	2.450
312.20	2.258
312.67	2.266
313.13	2.364
313.60	2.239
314.07	2.308
314.53	2.246
315.00	2.316
315.47	2.380
315.93	2.238
316.40	2.298
316.86	2.435
317.33	2.301
317.80	2.357
318.26	2.345
318.73	2.251
319.19	2.254
319.66	2.267
320.13	2.222
320.59	2.200
321.06	2.242
321.52	2.189
321.99	2.153
322.45	2.227
322.92	2.167
323.39	2.149
323.85	2.070
324.32	2.103
324.78	2.141
325.25	2.067
325.71	2.099
326.18	2.074
326.64	2.064
327.11	2.114
327.58	2.103
328.04	2.070
328.51	2.050
328.97	2.073
329.44	2.082
329.90	2.092
330.37	2.058
330.83	2.050
331.30	2.045
331.76	2.033
332.23	2.064
332.69	2.067
333.16	2.075
333.62	2.169
334.09	2.091
334.56	2.170
335.02	2.075
335.49	2.123
335.95	2.148
336.42	2.015
336.88	2.037
337.35	2.102
337.81	2.122
338.28	1.939
338.74	2.071
339.20	2.064
339.67	2.057
340.13	2.112
340.60	2.040
341.06	2.039
341.53	2.055
341.99	2.048
342.46	2.034
342.92	2.013
343.39	1.957
343.85	1.978
344.32	1.971
344.78	1.932
345.25	1.933
345.71	1.922
346.17	1.869
346.64	1.875
347.10	1.836
347.57	1.805
348.03	1.810
348.50	1.751
348.96	1.693
349.43	1.682
349.89	1.627
350.35	1.595
350.82	1.539
351.28	1.469
351.75	1.419
352.21	1.398
352.67	1.317
353.14	1.274
353.60	1.191
354.07	1.111
354.53	1.053
355.00	0.959
355.46	0.885
355.92	0.783
356.39	0.715
356.85	0.634
357.31	0.565
357.78	0.492
358.24	0.427
358.71	0.374
359.17	0.327
359.63	0.281
360.10	0.247
360.56	0.210
361.03	0.183
361.49	0.161
361.95	0.142
362.42	0.124
362.88	0.114
363.34	0.100
363.81	0.095
364.27	0.086
364.73	0.081
365.20	0.078
365.66	0.074
366.12	0.073
366.59	0.064
367.05	0.066
367.51	0.064
367.98	0.062
368.44	0.063
368.90	0.058
369.37	0.056
369.83	0.059
370.29	0.057
370.76	0.055
371.22	0.054
371.68	0.055
372.15	0.056
372.61	0.053
373.07	0.056
373.54	0.055
374.00	0.055
374.46	0.052
374.92	0.055
375.39	0.052
375.85	0.050
376.31	0.052
376.78	0.055
377.24	0.049
377.70	0.054
378.16	0.051
378.63	0.053
379.09	0.051
379.55	0.050
380.01	0.049
380.48	0.051
380.94	0.050
381.40	0.049
381.87	0.052
382.33	0.052
382.79	0.050
383.25	0.053
383.72	0.051
384.18	0.050
384.64	0.052
385.10	0.050
385.56	0.050
386.03	0.050
386.49	0.050
386.95	0.048
387.41	0.051
387.88	0.046
388.34	0.047
388.80	0.049
389.26	0.048
389.72	0.051
390.19	0.052
390.65	0.048
391.11	0.050
391.57	0.050
392.04	0.047
392.50	0.050
392.96	0.046
393.42	0.048
393.88	0.048
394.34	0.049
394.81	0.047
395.27	0.047
395.73	0.048
396.19	0.046
396.65	0.049
397.12	0.048
397.58	0.047
398.04	0.048
398.50	0.046
398.96	0.047
399.42	0.048
399.89	0.046
400.35	0.046
400.81	0.045
401.27	0.047
401.73	0.047
402.19	0.046
402.65	0.045
403.12	0.044
403.58	0.041
404.04	0.043
404.50	0.041
404.96	0.042
405.42	0.043
405.88	0.043
406.34	0.043
406.81	0.045
407.27	0.039
407.73	0.042
408.19	0.040
408.65	0.038
409.11	0.043
409.57	0.041
410.03	0.040
410.49	0.038
410.96	0.037
411.42	0.040
411.88	0.039
412.34	0.040
412.80	0.039
413.26	0.038
413.72	0.039
414.18	0.038
414.64	0.035
415.10	0.036
415.56	0.037
416.02	0.033
416.48	0.036
416.95	0.038
417.41	0.038
417.87	0.036
418.33	0.037
418.79	0.038
419.25	0.036
419.71	0.040
420.17	0.039
420.63	0.037
421.09	0.035
421.55	0.035
422.01	0.037
422.47	0.038
422.93	0.036
423.39	0.040
423.85	0.036
424.31	0.039
424.77	0.037
425.23	0.038
425.69	0.036
426.15	0.035
426.61	0.036
427.07	0.036
427.53	0.037
427.99	0.037
428.45	0.038
428.91	0.035
429.37	0.033
429.83	0.035
430.29	0.035
430.75	0.035
431.21	0.036
431.67	0.036
432.13	0.033
432.59	0.035
433.05	0.037
433.51	0.037
433.97	0.033
434.43	0.039
434.89	0.035
435.35	0.034
435.81	0.032
436.27	0.034
436.73	0.036
437.19	0.037
437.65	0.032
438.11	0.035
438.57	0.032
439.03	0.030
439.48	0.032
439.94	0.034
440.40	0.032
440.86	0.033
441.32	0.029
441.78	0.033
442.24	0.032
442.70	0.035
443.16	0.036
443.62	0.037
444.08	0.031
444.54	0.036
444.99	0.035
445.45	0.035
445.91	0.033
446.37	0.031
446.83	0.034
447.29	0.032
447.75	0.032
448.21	0.033
448.67	0.029
449.12	0.034
449.58	0.032
450.04	0.035
450.50	0.032
450.96	0.034
451.42	0.032
451.88	0.031
452.34	0.035
452.79	0.029
453.25	0.035
453.71	0.034
454.17	0.030
454.63	0.029
455.09	0.034
455.55	0.036
456.00	0.035
456.46	0.036
456.92	0.032
457.38	0.034
457.84	0.033
458.30	0.033
458.75	0.034
459.21	0.033
459.67	0.035
460.13	0.033
460.59	0.035
461.04	0.032
461.50	0.033
461.96	0.035
462.42	0.034
462.88	0.034
463.33	0.033
463.79	0.035
464.25	0.033
464.71	0.035
465.17	0.033
465.62	0.035
466.08	0.032
466.54	0.033
467.00	0.034
467.46	0.033
467.91	0.034
468.37	0.035
468.83	0.033
469.29	0.035
469.74	0.035
470.20	0.034
470.66	0.037
471.12	0.037
471.57	0.034
472.03	0.034
472.49	0.037
472.95	0.036
473.40	0.036
473.86	0.037
474.32	0.036
474.78	0.038
475.23	0.037
475.69	0.035
476.15	0.036
476.60	0.038
477.06	0.038
477.52	0.038
477.98	0.036
478.43	0.037
478.89	0.037
479.35	0.034
479.80	0.039
480.26	0.036
480.72	0.035
481.18	0.039
481.63	0.037
482.09	0.037
482.55	0.040
483.00	0.036
483.46	0.038
483.92	0.036
484.37	0.039
484.83	0.037
485.29	0.039
485.74	0.037
486.20	0.039
486.66	0.038
487.11	0.037
487.57	0.038
488.03	0.038
488.48	0.038
488.94	0.041
489.40	0.037
489.85	0.039
490.31	0.038
490.77	0.037
491.22	0.039
491.68	0.037
492.13	0.039
492.59	0.040
493.05	0.038
493.50	0.040
493.96	0.039
494.42	0.038
494.87	0.040
495.33	0.039
495.78	0.039
496.24	0.037
496.70	0.042
497.15	0.040
497.61	0.042
498.06	0.039
498.52	0.039
498.98	0.040
499.43	0.039
499.89	0.039
500.34	0.040
500.80	0.040
501.25	0.041
501.71	0.039
502.17	0.043
502.62	0.040
503.08	0.041
503.53	0.041
503.99	0.039
504.44	0.039
504.90	0.039
505.36	0.039
505.81	0.039
506.27	0.041
506.72	0.039
507.18	0.042
507.63	0.037
508.09	0.039
508.54	0.039
509.00	0.038
509.45	0.039
509.91	0.038
510.36	0.040
510.82	0.039
511.27	0.042
511.73	0.040
512.19	0.040
512.64	0.038
513.10	0.038
513.55	0.038
514.01	0.039
514.46	0.039
514.92	0.040
515.37	0.041
515.83	0.041
516.28	0.041
516.73	0.040
517.19	0.037
517.64	0.038
518.10	0.039
518.55	0.037
519.01	0.038
519.46	0.039
519.92	0.040
520.37	0.038
520.83	0.041
521.28	0.037
521.74	0.039
522.19	0.039
522.65	0.039
523.10	0.039
523.55	0.040
524.01	0.038
524.46	0.041
524.92	0.039
525.37	0.040
525.83	0.042
526.28	0.039
526.73	0.044
527.19	0.040
527.64	0.039
528.10	0.040
528.55	0.041
529.01	0.043
529.46	0.042
529.91	0.041
530.37	0.044
530.82	0.042
531.28	0.041
531.73	0.040
532.18	0.040
532.64	0.041
533.09	0.043
533.54	0.043
534.00	0.044
534.45	0.045
534.91	0.045
535.36	0.046
535.81	0.046
536.27	0.046
536.72	0.045
537.17	0.044
537.63	0.047
538.08	0.047
538.54	0.048
538.99	0.049
539.44	0.048
539.90	0.047
540.35	0.049
540.80	0.049
541.26	0.049
541.71	0.052
542.16	0.052
542.62	0.052
543.07	0.052
543.52	0.052
543.98	0.053
544.43	0.052
544.88	0.054
545.34	0.055
545.79	0.053
546.24	0.055
546.69	0.055
547.15	0.056
547.60	0.059
548.05	0.057
548.51	0.060
548.96	0.060
549.41	0.058
549.86	0.058
550.32	0.059
550.77	0.060
551.22	0.060
551.68	0.063
552.13	0.062
552.58	0.064
553.03	0.066
553.49	0.064
553.94	0.065
554.39	0.068
554.84	0.065
555.30	0.069
555.75	0.070
556.20	0.070
556.65	0.070
557.11	0.072
557.56	0.069
558.01	0.072
558.46	0.071
558.92	0.074
559.37	0.077
559.82	0.077
560.27	0.078
560.72	0.076
561.18	0.078
561.63	0.077
562.08	0.079
562.53	0.082
562.99	0.083
563.44	0.083
563.89	0.084
564.34	0.084
564.79	0.084
565.25	0.087
565.70	0.087
566.15	0.089
566.60	0.089
567.05	0.092
567.50	0.091
567.96	0.092
568.41	0.094
568.86	0.094
569.31	0.097
569.76	0.097
570.21	0.096
570.67	0.099
571.12	0.099
571.57	0.103
572.02	0.104
572.47	0.101
572.92	0.103
573.37	0.105
573.83	0.107
574.28	0.107
574.73	0.108
575.18	0.109
575.63	0.112
576.08	0.110
576.53	0.112
576.98	0.115
577.44	0.118
577.89	0.118
578.34	0.120
578.79	0.121
579.24	0.123
579.69	0.125
580.14	0.125
580.59	0.129
581.04	0.129
581.49	0.129
581.95	0.132
582.40	0.135
582.85	0.136
583.30	0.137
583.75	0.141
584.20	0.140
584.65	0.145
585.10	0.146
585.55	0.148
586.00	0.150
586.45	0.151
586.90	0.155
587.35	0.157
587.80	0.161
588.25	0.163
588.71	0.165
589.16	0.165
589.61	0.170
590.06	0.171
590.51	0.174
590.96	0.178
591.41	0.179
591.86	0.181
592.31	0.187
592.76	0.187
593.21	0.189
593.66	0.192
594.11	0.196
594.56	0.200
595.01	0.200
595.46	0.205
595.91	0.210
596.36	0.213
596.81	0.212
597.26	0.216
597.71	0.220
598.16	0.223
598.61	0.225
599.06	0.228
599.51	0.229
599.96	0.234
600.41	0.237
600.86	0.238
601.31	0.242
601.76	0.248
602.21	0.247
602.65	0.250
603.10	0.255
603.55	0.255
604.00	0.259
604.45	0.260
604.90	0.265
605.35	0.266
605.80	0.271
606.25	0.274
606.70	0.275
607.15	0.276
607.60	0.279
608.05	0.282
608.50	0.284
608.95	0.287
609.39	0.289
609.84	0.292
610.29	0.292
610.74	0.293
611.19	0.295
611.64	0.299
612.09	0.301
612.54	0.302
612.99	0.301
613.44	0.301
613.88	0.304
614.33	0.305
614.78	0.305
615.23	0.308
615.68	0.307
616.13	0.309
616.58	0.311
617.03	0.310
617.47	0.312
617.92	0.312
618.37	0.312
618.82	0.312
619.27	0.314
619.72	0.314
620.17	0.315
620.61	0.316
621.06	0.316
621.51	0.318
621.96	0.319
622.41	0.318
622.86	0.321
623.30	0.321
623.75	0.321
624.20	0.321
624.65	0.323
625.10	0.325
625.54	0.326
625.99	0.327
626.44	0.330
626.89	0.330
627.34	0.329
627.78	0.331
628.23	0.332
628.68	0.334
629.13	0.334
629.58	0.337
630.02	0.338
630.47	0.340
630.92	0.344
631.37	0.346
631.81	0.346
632.26	0.351
632.71	0.355
633.16	0.353
633.61	0.356
634.05	0.362
634.50	0.362
634.95	0.366
635.40	0.369
635.84	0.370
636.29	0.374
636.74	0.378
637.18	0.382
637.63	0.385
638.08	0.387
638.53	0.393
638.97	0.399
639.42	0.403
639.87	0.404
640.32	0.408
640.76	0.415
641.21	0.415
641.66	0.421
642.10	0.427
642.55	0.430
643.00	0.434
643.44	0.438
643.89	0.444
644.34	0.447
644.79	0.455
645.23	0.460
645.68	0.467
646.13	0.470
646.57	0.475
647.02	0.480
647.47	0.483
647.91	0.489
648.36	0.498
648.81	0.500
649.25	0.503
649.70	0.512
650.15	0.514
650.59	0.523
651.04	0.528
651.48	0.530
651.93	0.536
652.38	0.542
652.82	0.544
653.27	0.550
653.72	0.552
654.16	0.556
654.61	0.562
655.06	0.566
655.50	0.571
655.95	0.575
656.39	0.578
656.84	0.583
657.29	0.585
657.73	0.590
658.18	0.595
658.62	0.599
659.07	0.603
659.52	0.604
659.96	0.611
660.41	0.613
660.85	0.612
661.30	0.619
661.74	0.619
662.19	0.621
662.64	0.624
663.08	0.630
663.53	0.632
663.97	0.629
664.42	0.635
664.86	0.633
665.31	0.637
665.75	0.637
666.20	0.635
666.65	0.636
667.09	0.631
667.54	0.629
667.98	0.627
668.43	0.629
668.87	0.623
669.32	0.623
669.76	0.618
670.21	0.614
670.65	0.607
671.10	0.601
671.54	0.593
671.99	0.591
672.43	0.584
672.88	0.574
673.32	0.570
673.77	0.556
674.21	0.551
674.66	0.541
675.10	0.529
675.55	0.521
675.99	0.508
676.44	0.496
676.88	0.489
677.33	0.474
677.77	0.464
678.22	0.449
678.66	0.440
679.11	0.427
679.55	0.414
679.99	0.401
680.44	0.393
680.88	0.377
681.33	0.365
681.77	0.354
682.22	0.342
682.66	0.329
683.11	0.318
683.55	0.304
683.99	0.295
684.44	0.285
684.88	0.275
685.33	0.264
685.77	0.254
686.21	0.245
686.66	0.233
687.10	0.224
687.55	0.215
687.99	0.208
688.44	0.199
688.88	0.189
689.32	0.180
689.77	0.172
690.21	0.166
690.65	0.159
691.10	0.151
691.54	0.143
691.99	0.138
692.43	0.134
692.87	0.127
693.32	0.122
693.76	0.117
694.20	0.113
694.65	0.108
695.09	0.102
695.53	0.098
695.98	0.096
696.42	0.091
696.86	0.085
697.31	0.082
697.75	0.079
698.19	0.073
698.64	0.073
699.08	0.071
699.52	0.068
699.97	0.065
700.41	0.064
700.85	0.062
701.30	0.059
701.74	0.055
702.18	0.056
702.63	0.053
703.07	0.050
703.51	0.051
703.96	0.047
704.40	0.045
704.84	0.044
705.28	0.042
705.73	0.042
706.17	0.043
706.61	0.039
707.06	0.038
707.50	0.037
707.94	0.036
708.38	0.035
708.83	0.034
709.27	0.034
709.71	0.032
710.15	0.032
710.60	0.033
711.04	0.031
711.48	0.031
711.92	0.031
712.37	0.028
712.81	0.028
713.25	0.029
713.69	0.030
714.13	0.024
714.58	0.024
715.02	0.027
715.46	0.024
715.90	0.027
716.35	0.027
716.79	0.024
717.23	0.025
717.67	0.025
718.11	0.023
718.56	0.026
719.00	0.025
719.44	0.024
719.88	0.022
720.32	0.023
720.76	0.023
721.21	0.023
721.65	0.024
722.09	0.025
722.53	0.023
722.97	0.023
723.41	0.022
723.86	0.025
724.30	0.023
724.74	0.025
725.18	0.023
725.62	0.025
726.06	0.025
726.50	0.026
726.95	0.022
727.39	0.024
727.83	0.023
728.27	0.024
728.71	0.024
729.15	0.024
729.59	0.024
730.03	0.025
730.48	0.028
730.92	0.023
731.36	0.023
731.80	0.024
732.24	0.025
732.68	0.024
733.12	0.025
733.56	0.026
734.00	0.026
734.44	0.026
734.89	0.026
735.33	0.026
735.77	0.025
736.21	0.025
736.65	0.025
737.09	0.024
737.53	0.033
737.97	0.030
738.41	0.026
738.85	0.029
739.29	0.027
739.73	0.026
740.17	0.026
740.61	0.026
741.05	0.025
741.49	0.028
741.93	0.024
742.37	0.028
742.81	0.025
743.26	0.027
743.70	0.025
744.14	0.029
744.58	0.028
745.02	0.026
745.46	0.027
745.90	0.027
746.34	0.027
746.78	0.025
747.22	0.026
747.66	0.026
748.10	0.026
748.54	0.026
748.98	0.025
749.42	0.025
749.86	0.027
750.29	0.027
750.73	0.028
751.17	0.026
751.61	0.026
752.05	0.028
752.49	0.024
752.93	0.025
753.37	0.026
753.81	0.026
754.25	0.025
754.69	0.025
755.13	0.024
755.57	0.024
756.01	0.026
756.45	0.026
756.89	0.028
757.33	0.027
757.77	0.025
758.21	0.026
758.64	0.025
759.08	0.025
759.52	0.027
759.96	0.025
760.40	0.023
760.84	0.028
761.28	0.026
761.72	0.027
762.16	0.028
762.60	0.027
763.03	0.025
763.47	0.023
763.91	0.025
764.35	0.025
764.79	0.028
765.23	0.026
765.67	0.030
766.11	0.027
766.54	0.024
766.98	0.025
767.42	0.026
767.86	0.024
768.30	0.024
768.74	0.024
769.17	0.026
769.61	0.029
770.05	0.025
770.49	0.024
770.93	0.030
771.37	0.026
771.80	0.023
772.24	0.027
772.68	0.029
773.12	0.024
773.56	0.027
774.00	0.024
774.43	0.025
774.87	0.023
775.31	0.025
775.75	0.025
776.19	0.025
776.62	0.027
777.06	0.025
777.50	0.027
777.94	0.027
778.37	0.024
778.81	0.027
779.25	0.030
779.69	0.028
780.13	0.024
780.56	0.026
781.00	0.026
781.44	0.023
781.88	0.026
782.31	0.029
782.75	0.026
783.19	0.026
783.63	0.025
784.06	0.025
784.50	0.026
784.94	0.024
785.37	0.028
785.81	0.026
786.25	0.024
786.69	0.028
787.12	0.027
787.56	0.024
788.00	0.022
788.43	0.027
788.87	0.026
789.31	0.029
789.75	0.030
790.18	0.028
790.62	0.026
791.06	0.025
791.49	0.025
791.93	0.027
792.37	0.024
792.80	0.026
793.24	0.026
793.68	0.026
794.11	0.023
794.55	0.026
794.99	0.027
795.42	0.025
795.86	0.026
796.30	0.026
796.73	0.024
797.17	0.026
797.61	0.027
798.04	0.024
798.48	0.027
798.91	0.028
799.35	0.025
799.79	0.024
800.22	0.021
800.66	0.024
801.10	0.026
801.53	0.028
801.97	0.026
802.40	0.023
802.84	0.026
803.28	0.025
803.71	0.024
804.15	0.025
804.58	0.024
805.02	0.024
805.46	0.027
805.89	0.029
806.33	0.024
806.76	0.023
807.20	0.019
807.63	0.025
808.07	0.024
808.51	0.021
808.94	0.027
809.38	0.030
809.81	0.025
810.25	0.025
810.68	0.029
811.12	0.022
811.55	0.023
811.99	0.022
812.42	0.025
812.86	0.028
813.29	0.030
813.73	0.026
814.17	0.022
814.60	0.027
815.04	0.028
815.47	0.024
815.91	0.021
816.34	0.027
816.78	0.026
817.21	0.027
817.65	0.022
818.08	0.024
