SpectraSuite Data File
++++++++++++++++++++++++++++++++++++
Date: Tue Jul 11 13:57:29 CEST 2017
User: IPCE
Dark Spectrum Present: Yes
Reference Spectrum Present: Yes
Number of Sampled Component Spectra: 1
Spectrometers: HR+C0708
Integration Time (usec): 1000 (HR+C0708)
Spectra Averaged: 10 (HR+C0708)
Boxcar Smoothing: 0 (HR+C0708)
Correct for Electrical Dark: No (HR+C0708)
Strobe/Lamp Enabled: No (HR+C0708)
Correct for Detector Non-linearity: No (HR+C0708)
Correct for Stray Light: No (HR+C0708)
Number of Pixels in Processed Spectrum: 2048
>>>>>Begin Processed Spectral Data<<<<<
188.76	0.265
189.23	-0.000
189.70	0.283
190.17	0.077
190.64	1.176
191.12	0.308
191.59	0.403
192.06	1.049
192.53	-0.000
193.01	0.781
193.48	0.039
193.95	-0.190
194.42	0.164
194.90	0.392
195.37	-0.321
195.84	0.787
196.31	0.133
196.78	0.136
197.26	0.128
197.73	0.137
198.20	0.144
198.67	-0.724
199.14	0.684
199.62	0.204
200.09	0.175
200.56	0.112
201.03	0.382
201.50	0.451
201.97	0.282
202.45	0.385
202.92	0.239
203.39	0.383
203.86	0.458
204.33	0.208
204.80	0.358
205.28	0.287
205.75	0.168
206.22	0.487
206.69	0.287
207.16	0.197
207.63	0.305
208.11	0.278
208.58	0.352
209.05	0.463
209.52	0.380
209.99	0.545
210.46	0.353
210.93	0.187
211.41	0.393
211.88	0.376
212.35	0.239
212.82	0.584
213.29	0.340
213.76	0.295
214.23	0.282
214.70	0.533
215.18	0.484
215.65	0.318
216.12	0.334
216.59	0.609
217.06	0.814
217.53	0.295
218.00	0.257
218.47	0.459
218.94	0.369
219.41	0.416
219.89	0.460
220.36	0.435
220.83	0.431
221.30	0.321
221.77	0.641
222.24	0.302
222.71	0.353
223.18	0.470
223.65	0.627
224.12	0.426
224.59	0.637
225.06	0.596
225.54	0.783
226.01	0.597
226.48	0.594
226.95	0.815
227.42	0.723
227.89	0.666
228.36	0.934
228.83	0.985
229.30	0.899
229.77	1.105
230.24	1.141
230.71	1.112
231.18	1.058
231.65	1.148
232.12	1.339
232.59	1.318
233.06	1.301
233.53	1.734
234.00	1.415
234.47	1.334
234.94	1.612
235.41	1.663
235.88	1.653
236.35	1.703
236.82	1.774
237.29	1.990
237.76	1.904
238.23	1.806
238.70	1.999
239.17	2.007
239.64	2.121
240.11	1.980
240.58	1.951
241.05	2.028
241.52	2.088
241.99	2.024
242.46	2.372
242.93	2.078
243.40	2.102
243.87	2.276
244.34	2.171
244.81	2.100
245.28	2.287
245.75	2.449
246.22	2.071
246.69	2.225
247.16	2.419
247.63	2.388
248.10	2.293
248.57	2.116
249.04	2.300
249.51	2.263
249.98	2.139
250.45	2.178
250.92	2.180
251.39	2.089
251.85	2.018
252.32	2.007
252.79	1.895
253.26	1.809
253.73	1.739
254.20	1.686
254.67	1.588
255.14	1.485
255.61	1.458
256.08	1.403
256.55	1.348
257.02	1.304
257.49	1.271
257.95	1.233
258.42	1.192
258.89	1.166
259.36	1.140
259.83	1.119
260.30	1.082
260.77	1.068
261.24	1.048
261.71	1.024
262.17	1.009
262.64	1.004
263.11	0.975
263.58	0.962
264.05	0.948
264.52	0.937
264.99	0.920
265.46	0.910
265.92	0.902
266.39	0.891
266.86	0.874
267.33	0.871
267.80	0.858
268.27	0.853
268.74	0.841
269.20	0.833
269.67	0.829
270.14	0.817
270.61	0.811
271.08	0.810
271.55	0.797
272.01	0.787
272.48	0.786
272.95	0.778
273.42	0.775
273.89	0.770
274.36	0.762
274.82	0.757
275.29	0.754
275.76	0.748
276.23	0.750
276.70	0.739
277.16	0.734
277.63	0.737
278.10	0.734
278.57	0.725
279.04	0.722
279.50	0.725
279.97	0.722
280.44	0.721
280.91	0.720
281.38	0.716
281.84	0.712
282.31	0.714
282.78	0.715
283.25	0.714
283.72	0.710
284.18	0.713
284.65	0.715
285.12	0.715
285.59	0.709
286.05	0.709
286.52	0.713
286.99	0.714
287.46	0.715
287.92	0.713
288.39	0.712
288.86	0.713
289.33	0.715
289.79	0.715
290.26	0.716
290.73	0.709
291.20	0.710
291.66	0.714
292.13	0.703
292.60	0.701
293.07	0.698
293.53	0.697
294.00	0.686
294.47	0.682
294.93	0.677
295.40	0.672
295.87	0.663
296.34	0.658
296.80	0.648
297.27	0.634
297.74	0.630
298.20	0.624
298.67	0.613
299.14	0.602
299.60	0.596
300.07	0.589
300.54	0.577
301.01	0.573
301.47	0.557
301.94	0.549
302.41	0.544
302.87	0.537
303.34	0.531
303.81	0.518
304.27	0.510
304.74	0.506
305.21	0.495
305.67	0.487
306.14	0.483
306.61	0.475
307.07	0.470
307.54	0.462
308.01	0.459
308.47	0.456
308.94	0.446
309.40	0.440
309.87	0.436
310.34	0.436
310.80	0.431
311.27	0.424
311.74	0.421
312.20	0.419
312.67	0.416
313.13	0.409
313.60	0.410
314.07	0.408
314.53	0.407
315.00	0.403
315.47	0.401
315.93	0.397
316.40	0.396
316.86	0.393
317.33	0.389
317.80	0.387
318.26	0.384
318.73	0.382
319.19	0.382
319.66	0.377
320.13	0.374
320.59	0.369
321.06	0.369
321.52	0.367
321.99	0.366
322.45	0.362
322.92	0.360
323.39	0.358
323.85	0.357
324.32	0.353
324.78	0.349
325.25	0.354
325.71	0.343
326.18	0.343
326.64	0.341
327.11	0.339
327.58	0.340
328.04	0.333
328.51	0.335
328.97	0.330
329.44	0.331
329.90	0.326
330.37	0.323
330.83	0.323
331.30	0.320
331.76	0.322
332.23	0.319
332.69	0.319
333.16	0.313
333.62	0.313
334.09	0.312
334.56	0.311
335.02	0.306
335.49	0.307
335.95	0.305
336.42	0.301
336.88	0.303
337.35	0.300
337.81	0.302
338.28	0.299
338.74	0.297
339.20	0.296
339.67	0.293
340.13	0.292
340.60	0.291
341.06	0.291
341.53	0.287
341.99	0.289
342.46	0.288
342.92	0.286
343.39	0.286
343.85	0.279
344.32	0.280
344.78	0.281
345.25	0.276
345.71	0.277
346.17	0.274
346.64	0.273
347.10	0.272
347.57	0.266
348.03	0.261
348.50	0.258
348.96	0.254
349.43	0.254
349.89	0.254
350.35	0.246
350.82	0.246
351.28	0.240
351.75	0.235
352.21	0.234
352.67	0.230
353.14	0.225
353.60	0.219
354.07	0.210
354.53	0.206
355.00	0.195
355.46	0.194
355.92	0.187
356.39	0.176
356.85	0.169
357.31	0.167
357.78	0.156
358.24	0.148
358.71	0.145
359.17	0.136
359.63	0.133
360.10	0.127
360.56	0.112
361.03	0.112
361.49	0.109
361.95	0.103
362.42	0.102
362.88	0.099
363.34	0.095
363.81	0.094
364.27	0.089
364.73	0.086
365.20	0.088
365.66	0.088
366.12	0.087
366.59	0.084
367.05	0.085
367.51	0.085
367.98	0.080
368.44	0.080
368.90	0.081
369.37	0.079
369.83	0.081
370.29	0.081
370.76	0.077
371.22	0.079
371.68	0.077
372.15	0.079
372.61	0.080
373.07	0.078
373.54	0.077
374.00	0.079
374.46	0.079
374.92	0.076
375.39	0.075
375.85	0.073
376.31	0.075
376.78	0.076
377.24	0.074
377.70	0.077
378.16	0.075
378.63	0.074
379.09	0.075
379.55	0.073
380.01	0.074
380.48	0.075
380.94	0.076
381.40	0.074
381.87	0.073
382.33	0.072
382.79	0.075
383.25	0.073
383.72	0.073
384.18	0.072
384.64	0.073
385.10	0.072
385.56	0.070
386.03	0.072
386.49	0.074
386.95	0.068
387.41	0.072
387.88	0.069
388.34	0.070
388.80	0.071
389.26	0.068
389.72	0.070
390.19	0.070
390.65	0.069
391.11	0.069
391.57	0.071
392.04	0.069
392.50	0.070
392.96	0.067
393.42	0.069
393.88	0.068
394.34	0.070
394.81	0.067
395.27	0.067
395.73	0.073
396.19	0.068
396.65	0.068
397.12	0.066
397.58	0.066
398.04	0.068
398.50	0.066
398.96	0.065
399.42	0.068
399.89	0.068
400.35	0.067
400.81	0.068
401.27	0.063
401.73	0.066
402.19	0.066
402.65	0.061
403.12	0.064
403.58	0.061
404.04	0.064
404.50	0.063
404.96	0.061
405.42	0.061
405.88	0.063
406.34	0.064
406.81	0.058
407.27	0.058
407.73	0.065
408.19	0.060
408.65	0.059
409.11	0.060
409.57	0.060
410.03	0.061
410.49	0.054
410.96	0.059
411.42	0.057
411.88	0.056
412.34	0.057
412.80	0.057
413.26	0.057
413.72	0.058
414.18	0.056
414.64	0.057
415.10	0.056
415.56	0.055
416.02	0.054
416.48	0.056
416.95	0.056
417.41	0.058
417.87	0.057
418.33	0.054
418.79	0.057
419.25	0.054
419.71	0.057
420.17	0.057
420.63	0.056
421.09	0.054
421.55	0.055
422.01	0.053
422.47	0.056
422.93	0.055
423.39	0.056
423.85	0.056
424.31	0.056
424.77	0.053
425.23	0.054
425.69	0.054
426.15	0.054
426.61	0.052
427.07	0.054
427.53	0.053
427.99	0.054
428.45	0.054
428.91	0.052
429.37	0.052
429.83	0.052
430.29	0.053
430.75	0.053
431.21	0.053
431.67	0.053
432.13	0.049
432.59	0.055
433.05	0.055
433.51	0.053
433.97	0.051
434.43	0.052
434.89	0.053
435.35	0.050
435.81	0.049
436.27	0.049
436.73	0.050
437.19	0.052
437.65	0.052
438.11	0.052
438.57	0.052
439.03	0.050
439.48	0.048
439.94	0.052
440.40	0.049
440.86	0.048
441.32	0.050
441.78	0.050
442.24	0.048
442.70	0.052
443.16	0.049
443.62	0.052
444.08	0.048
444.54	0.052
444.99	0.047
445.45	0.049
445.91	0.049
446.37	0.049
446.83	0.049
447.29	0.049
447.75	0.049
448.21	0.047
448.67	0.045
449.12	0.052
449.58	0.048
450.04	0.049
450.50	0.047
450.96	0.047
451.42	0.049
451.88	0.049
452.34	0.047
452.79	0.046
453.25	0.049
453.71	0.046
454.17	0.044
454.63	0.048
455.09	0.051
455.55	0.052
456.00	0.048
456.46	0.049
456.92	0.046
457.38	0.047
457.84	0.046
458.30	0.046
458.75	0.050
459.21	0.048
459.67	0.048
460.13	0.046
460.59	0.048
461.04	0.045
461.50	0.049
461.96	0.046
462.42	0.047
462.88	0.048
463.33	0.049
463.79	0.050
464.25	0.049
464.71	0.049
465.17	0.046
465.62	0.050
466.08	0.047
466.54	0.049
467.00	0.049
467.46	0.047
467.91	0.048
468.37	0.050
468.83	0.048
469.29	0.051
469.74	0.047
470.20	0.047
470.66	0.049
471.12	0.050
471.57	0.049
472.03	0.049
472.49	0.050
472.95	0.050
473.40	0.050
473.86	0.050
474.32	0.051
474.78	0.051
475.23	0.049
475.69	0.048
476.15	0.050
476.60	0.051
477.06	0.051
477.52	0.050
477.98	0.050
478.43	0.050
478.89	0.051
479.35	0.050
479.80	0.050
480.26	0.049
480.72	0.050
481.18	0.052
481.63	0.050
482.09	0.050
482.55	0.050
483.00	0.052
483.46	0.050
483.92	0.048
484.37	0.052
484.83	0.050
485.29	0.050
485.74	0.051
486.20	0.051
486.66	0.051
487.11	0.050
487.57	0.051
488.03	0.053
488.48	0.049
488.94	0.051
489.40	0.051
489.85	0.052
490.31	0.049
490.77	0.049
491.22	0.051
491.68	0.049
492.13	0.051
492.59	0.052
493.05	0.050
493.50	0.054
493.96	0.050
494.42	0.053
494.87	0.053
495.33	0.051
495.78	0.053
496.24	0.052
496.70	0.053
497.15	0.052
497.61	0.053
498.06	0.054
498.52	0.053
498.98	0.052
499.43	0.052
499.89	0.051
500.34	0.051
500.80	0.053
501.25	0.053
501.71	0.051
502.17	0.052
502.62	0.052
503.08	0.054
503.53	0.052
503.99	0.050
504.44	0.052
504.90	0.050
505.36	0.050
505.81	0.054
506.27	0.052
506.72	0.051
507.18	0.051
507.63	0.049
508.09	0.052
508.54	0.051
509.00	0.049
509.45	0.051
509.91	0.051
510.36	0.051
510.82	0.052
511.27	0.053
511.73	0.053
512.19	0.051
512.64	0.052
513.10	0.051
513.55	0.052
514.01	0.052
514.46	0.052
514.92	0.050
515.37	0.049
515.83	0.053
516.28	0.049
516.73	0.051
517.19	0.050
517.64	0.050
518.10	0.051
518.55	0.050
519.01	0.051
519.46	0.051
519.92	0.053
520.37	0.052
520.83	0.053
521.28	0.050
521.74	0.050
522.19	0.050
522.65	0.050
523.10	0.053
523.55	0.052
524.01	0.051
524.46	0.052
524.92	0.049
525.37	0.050
525.83	0.053
526.28	0.052
526.73	0.049
527.19	0.051
527.64	0.054
528.10	0.053
528.55	0.052
529.01	0.053
529.46	0.051
529.91	0.051
530.37	0.054
530.82	0.054
531.28	0.052
531.73	0.050
532.18	0.053
532.64	0.052
533.09	0.055
533.54	0.054
534.00	0.054
534.45	0.056
534.91	0.053
535.36	0.054
535.81	0.055
536.27	0.055
536.72	0.056
537.17	0.055
537.63	0.056
538.08	0.055
538.54	0.058
538.99	0.058
539.44	0.057
539.90	0.056
540.35	0.057
540.80	0.060
541.26	0.058
541.71	0.061
542.16	0.061
542.62	0.060
543.07	0.061
543.52	0.061
543.98	0.059
544.43	0.062
544.88	0.061
545.34	0.063
545.79	0.062
546.24	0.063
546.69	0.064
547.15	0.063
547.60	0.065
548.05	0.063
548.51	0.066
548.96	0.064
549.41	0.066
549.86	0.064
550.32	0.066
550.77	0.065
551.22	0.067
551.68	0.067
552.13	0.069
552.58	0.069
553.03	0.069
553.49	0.069
553.94	0.073
554.39	0.073
554.84	0.071
555.30	0.072
555.75	0.075
556.20	0.074
556.65	0.075
557.11	0.078
557.56	0.074
558.01	0.074
558.46	0.077
558.92	0.078
559.37	0.079
559.82	0.079
560.27	0.082
560.72	0.082
561.18	0.082
561.63	0.080
562.08	0.081
562.53	0.082
562.99	0.085
563.44	0.085
563.89	0.085
564.34	0.085
564.79	0.085
565.25	0.088
565.70	0.090
566.15	0.090
566.60	0.090
567.05	0.093
567.50	0.093
567.96	0.093
568.41	0.094
568.86	0.095
569.31	0.096
569.76	0.095
570.21	0.097
570.67	0.099
571.12	0.099
571.57	0.101
572.02	0.103
572.47	0.100
572.92	0.103
573.37	0.104
573.83	0.105
574.28	0.105
574.73	0.109
575.18	0.107
575.63	0.110
576.08	0.108
576.53	0.110
576.98	0.110
577.44	0.113
577.89	0.114
578.34	0.116
578.79	0.115
579.24	0.119
579.69	0.120
580.14	0.120
580.59	0.121
581.04	0.121
581.49	0.122
581.95	0.126
582.40	0.128
582.85	0.128
583.30	0.130
583.75	0.130
584.20	0.133
584.65	0.135
585.10	0.135
585.55	0.137
586.00	0.140
586.45	0.140
586.90	0.146
587.35	0.145
587.80	0.146
588.25	0.150
588.71	0.152
589.16	0.151
589.61	0.156
590.06	0.155
590.51	0.159
590.96	0.160
591.41	0.163
591.86	0.165
592.31	0.167
592.76	0.170
593.21	0.171
593.66	0.176
594.11	0.176
594.56	0.178
595.01	0.180
595.46	0.184
595.91	0.187
596.36	0.187
596.81	0.190
597.26	0.190
597.71	0.194
598.16	0.198
598.61	0.196
599.06	0.200
599.51	0.204
599.96	0.205
600.41	0.210
600.86	0.209
601.31	0.209
601.76	0.215
602.21	0.213
602.65	0.219
603.10	0.220
603.55	0.222
604.00	0.223
604.45	0.227
604.90	0.229
605.35	0.231
605.80	0.234
606.25	0.236
606.70	0.237
607.15	0.237
607.60	0.242
608.05	0.244
608.50	0.243
608.95	0.244
609.39	0.246
609.84	0.250
610.29	0.248
610.74	0.250
611.19	0.252
611.64	0.257
612.09	0.256
612.54	0.256
612.99	0.257
613.44	0.256
613.88	0.259
614.33	0.261
614.78	0.261
615.23	0.264
615.68	0.262
616.13	0.262
616.58	0.265
617.03	0.264
617.47	0.264
617.92	0.269
618.37	0.267
618.82	0.269
619.27	0.268
619.72	0.270
620.17	0.270
620.61	0.272
621.06	0.271
621.51	0.274
621.96	0.274
622.41	0.272
622.86	0.276
623.30	0.275
623.75	0.275
624.20	0.278
624.65	0.278
625.10	0.279
625.54	0.279
625.99	0.282
626.44	0.284
626.89	0.284
627.34	0.285
627.78	0.286
628.23	0.287
628.68	0.289
629.13	0.288
629.58	0.293
630.02	0.292
630.47	0.295
630.92	0.296
631.37	0.297
631.81	0.300
632.26	0.301
632.71	0.307
633.16	0.304
633.61	0.305
634.05	0.311
634.50	0.312
634.95	0.315
635.40	0.318
635.84	0.319
636.29	0.321
636.74	0.324
637.18	0.330
637.63	0.331
638.08	0.330
638.53	0.335
638.97	0.342
639.42	0.342
639.87	0.345
640.32	0.349
640.76	0.352
641.21	0.353
641.66	0.359
642.10	0.363
642.55	0.367
643.00	0.368
643.44	0.372
643.89	0.378
644.34	0.378
644.79	0.384
645.23	0.385
645.68	0.390
646.13	0.393
646.57	0.398
647.02	0.402
647.47	0.406
647.91	0.409
648.36	0.414
648.81	0.418
649.25	0.419
649.70	0.420
650.15	0.427
650.59	0.434
651.04	0.435
651.48	0.436
651.93	0.441
652.38	0.444
652.82	0.448
653.27	0.448
653.72	0.453
654.16	0.456
654.61	0.459
655.06	0.462
655.50	0.465
655.95	0.466
656.39	0.470
656.84	0.476
657.29	0.476
657.73	0.480
658.18	0.481
658.62	0.484
659.07	0.483
659.52	0.486
659.96	0.490
660.41	0.490
660.85	0.492
661.30	0.495
661.74	0.495
662.19	0.496
662.64	0.497
663.08	0.501
663.53	0.502
663.97	0.503
664.42	0.502
664.86	0.503
665.31	0.502
665.75	0.502
666.20	0.500
666.65	0.503
667.09	0.497
667.54	0.495
667.98	0.493
668.43	0.495
668.87	0.491
669.32	0.488
669.76	0.485
670.21	0.482
670.65	0.475
671.10	0.471
671.54	0.467
671.99	0.462
672.43	0.453
672.88	0.448
673.32	0.446
673.77	0.436
674.21	0.431
674.66	0.422
675.10	0.415
675.55	0.405
675.99	0.398
676.44	0.390
676.88	0.381
677.33	0.376
677.77	0.364
678.22	0.354
678.66	0.347
679.11	0.337
679.55	0.326
679.99	0.318
680.44	0.310
680.88	0.300
681.33	0.291
681.77	0.280
682.22	0.272
682.66	0.265
683.11	0.254
683.55	0.245
683.99	0.239
684.44	0.229
684.88	0.224
685.33	0.213
685.77	0.204
686.21	0.197
686.66	0.190
687.10	0.183
687.55	0.176
687.99	0.169
688.44	0.162
688.88	0.158
689.32	0.150
689.77	0.144
690.21	0.138
690.65	0.134
691.10	0.128
691.54	0.122
691.99	0.117
692.43	0.114
692.87	0.110
693.32	0.105
693.76	0.102
694.20	0.098
694.65	0.095
695.09	0.091
695.53	0.087
695.98	0.084
696.42	0.080
696.86	0.077
697.31	0.075
697.75	0.073
698.19	0.068
698.64	0.066
699.08	0.069
699.52	0.063
699.97	0.062
700.41	0.061
700.85	0.059
701.30	0.056
701.74	0.053
702.18	0.054
702.63	0.053
703.07	0.051
703.51	0.049
703.96	0.048
704.40	0.045
704.84	0.043
705.28	0.043
705.73	0.044
706.17	0.043
706.61	0.041
707.06	0.041
707.50	0.040
707.94	0.038
708.38	0.039
708.83	0.039
709.27	0.038
709.71	0.036
710.15	0.036
710.60	0.037
711.04	0.035
711.48	0.034
711.92	0.034
712.37	0.030
712.81	0.031
713.25	0.031
713.69	0.033
714.13	0.029
714.58	0.028
715.02	0.031
715.46	0.029
715.90	0.028
716.35	0.032
716.79	0.029
717.23	0.031
717.67	0.032
718.11	0.030
718.56	0.027
719.00	0.028
719.44	0.029
719.88	0.029
720.32	0.027
720.76	0.026
721.21	0.029
721.65	0.028
722.09	0.029
722.53	0.028
722.97	0.030
723.41	0.027
723.86	0.028
724.30	0.027
724.74	0.030
725.18	0.031
725.62	0.032
726.06	0.032
726.50	0.030
726.95	0.030
727.39	0.029
727.83	0.029
728.27	0.027
728.71	0.029
729.15	0.030
729.59	0.030
730.03	0.030
730.48	0.031
730.92	0.030
731.36	0.031
731.80	0.029
732.24	0.030
732.68	0.029
733.12	0.030
733.56	0.031
734.00	0.030
734.44	0.033
734.89	0.032
735.33	0.032
735.77	0.032
736.21	0.031
736.65	0.030
737.09	0.034
737.53	0.031
737.97	0.033
738.41	0.031
738.85	0.031
739.29	0.033
739.73	0.032
740.17	0.031
740.61	0.032
741.05	0.030
741.49	0.032
741.93	0.029
742.37	0.032
742.81	0.034
743.26	0.030
743.70	0.030
744.14	0.033
744.58	0.031
745.02	0.030
745.46	0.034
745.90	0.033
746.34	0.032
746.78	0.032
747.22	0.030
747.66	0.030
748.10	0.032
748.54	0.031
748.98	0.031
749.42	0.031
749.86	0.033
750.29	0.031
750.73	0.033
751.17	0.030
751.61	0.030
752.05	0.032
752.49	0.029
752.93	0.031
753.37	0.031
753.81	0.033
754.25	0.030
754.69	0.031
755.13	0.030
755.57	0.030
756.01	0.029
756.45	0.034
756.89	0.036
757.33	0.031
757.77	0.030
758.21	0.032
758.64	0.030
759.08	0.029
759.52	0.030
759.96	0.029
760.40	0.029
760.84	0.029
761.28	0.033
761.72	0.028
762.16	0.028
762.60	0.032
763.03	0.029
763.47	0.029
763.91	0.033
764.35	0.031
764.79	0.031
765.23	0.028
765.67	0.034
766.11	0.030
766.54	0.028
766.98	0.029
767.42	0.029
767.86	0.029
768.30	0.027
768.74	0.029
769.17	0.030
769.61	0.032
770.05	0.029
770.49	0.029
770.93	0.031
771.37	0.029
771.80	0.030
772.24	0.033
772.68	0.031
773.12	0.029
773.56	0.033
774.00	0.028
774.43	0.030
774.87	0.029
775.31	0.029
775.75	0.033
776.19	0.032
776.62	0.030
777.06	0.029
777.50	0.032
777.94	0.032
778.37	0.030
778.81	0.031
779.25	0.032
779.69	0.031
780.13	0.026
780.56	0.031
781.00	0.035
781.44	0.027
781.88	0.031
782.31	0.032
782.75	0.030
783.19	0.030
783.63	0.028
784.06	0.028
784.50	0.029
784.94	0.029
785.37	0.033
785.81	0.033
786.25	0.027
786.69	0.031
787.12	0.030
787.56	0.029
788.00	0.031
788.43	0.029
788.87	0.028
789.31	0.033
789.75	0.032
790.18	0.032
790.62	0.027
791.06	0.030
791.49	0.025
791.93	0.032
792.37	0.029
792.80	0.031
793.24	0.030
793.68	0.030
794.11	0.027
794.55	0.030
794.99	0.031
795.42	0.025
795.86	0.028
796.30	0.033
796.73	0.031
797.17	0.029
797.61	0.029
798.04	0.030
798.48	0.030
798.91	0.033
799.35	0.026
799.79	0.032
800.22	0.027
800.66	0.029
801.10	0.032
801.53	0.033
801.97	0.028
802.40	0.028
802.84	0.029
803.28	0.031
803.71	0.029
804.15	0.031
804.58	0.031
805.02	0.028
805.46	0.031
805.89	0.034
806.33	0.028
806.76	0.029
807.20	0.023
807.63	0.032
808.07	0.030
808.51	0.027
808.94	0.027
809.38	0.027
809.81	0.026
810.25	0.026
810.68	0.030
811.12	0.026
811.55	0.028
811.99	0.028
812.42	0.029
812.86	0.027
813.29	0.032
813.73	0.024
814.17	0.028
814.60	0.029
815.04	0.029
815.47	0.031
815.91	0.027
816.34	0.028
816.78	0.029
817.21	0.030
817.65	0.027
818.08	0.029
