SpectraSuite Data File
++++++++++++++++++++++++++++++++++++
Date: Tue Jul 11 14:59:29 CEST 2017
User: IPCE
Dark Spectrum Present: Yes
Reference Spectrum Present: Yes
Number of Sampled Component Spectra: 1
Spectrometers: HR+C0708
Integration Time (usec): 1000 (HR+C0708)
Spectra Averaged: 10 (HR+C0708)
Boxcar Smoothing: 0 (HR+C0708)
Correct for Electrical Dark: No (HR+C0708)
Strobe/Lamp Enabled: No (HR+C0708)
Correct for Detector Non-linearity: No (HR+C0708)
Correct for Stray Light: No (HR+C0708)
Number of Pixels in Processed Spectrum: 2048
>>>>>Begin Processed Spectral Data<<<<<
188.76	0.807
189.23	0.296
189.70	0.970
190.17	-0.000
190.64	0.189
191.12	0.235
191.59	0.648
192.06	0.298
192.53	0.472
193.01	0.229
193.48	0.678
193.95	0.169
194.42	0.542
194.90	0.535
195.37	0.257
195.84	0.400
196.31	-0.000
196.78	0.807
197.26	0.230
197.73	1.251
198.20	0.161
198.67	-0.000
199.14	-0.171
199.62	0.477
200.09	1.420
200.56	0.375
201.03	0.422
201.50	0.507
201.97	0.513
202.45	0.475
202.92	0.451
203.39	0.413
203.86	0.621
204.33	0.401
204.80	0.404
205.28	0.513
205.75	0.281
206.22	0.437
206.69	0.341
207.16	0.267
207.63	0.440
208.11	0.366
208.58	0.426
209.05	0.872
209.52	0.385
209.99	0.462
210.46	0.566
210.93	0.443
211.41	0.500
211.88	0.592
212.35	0.416
212.82	0.428
213.29	0.577
213.76	0.423
214.23	0.520
214.70	0.655
215.18	0.410
215.65	0.674
216.12	0.434
216.59	0.373
217.06	0.796
217.53	0.325
218.00	0.414
218.47	0.524
218.94	0.511
219.41	0.419
219.89	0.466
220.36	0.600
220.83	0.769
221.30	0.493
221.77	0.410
222.24	0.608
222.71	0.481
223.18	0.540
223.65	0.892
224.12	0.633
224.59	0.589
225.06	0.532
225.54	0.611
226.01	0.693
226.48	0.624
226.95	0.813
227.42	0.923
227.89	0.765
228.36	0.941
228.83	1.036
229.30	0.962
229.77	1.117
230.24	1.395
230.71	1.176
231.18	1.179
231.65	1.148
232.12	1.225
232.59	1.326
233.06	1.333
233.53	1.534
234.00	1.429
234.47	1.495
234.94	1.571
235.41	1.645
235.88	1.725
236.35	1.814
236.82	1.871
237.29	1.862
237.76	1.969
238.23	1.864
238.70	1.953
239.17	2.121
239.64	2.154
240.11	2.041
240.58	1.955
241.05	2.101
241.52	2.243
241.99	2.017
242.46	2.191
242.93	2.336
243.40	2.087
243.87	2.133
244.34	2.203
244.81	2.267
245.28	2.244
245.75	2.250
246.22	2.107
246.69	2.267
247.16	2.360
247.63	2.298
248.10	2.552
248.57	2.162
249.04	2.320
249.51	2.296
249.98	2.309
250.45	2.291
250.92	2.090
251.39	2.081
251.85	2.003
252.32	1.867
252.79	1.749
253.26	1.683
253.73	1.559
254.20	1.473
254.67	1.400
255.14	1.321
255.61	1.269
256.08	1.208
256.55	1.147
257.02	1.099
257.49	1.060
257.95	1.023
258.42	0.997
258.89	0.963
259.36	0.932
259.83	0.911
260.30	0.887
260.77	0.869
261.24	0.848
261.71	0.826
262.17	0.815
262.64	0.795
263.11	0.784
263.58	0.776
264.05	0.759
264.52	0.743
264.99	0.737
265.46	0.716
265.92	0.714
266.39	0.705
266.86	0.689
267.33	0.684
267.80	0.676
268.27	0.664
268.74	0.659
269.20	0.648
269.67	0.638
270.14	0.633
270.61	0.629
271.08	0.619
271.55	0.612
272.01	0.607
272.48	0.597
272.95	0.597
273.42	0.589
273.89	0.584
274.36	0.576
274.82	0.572
275.29	0.568
275.76	0.564
276.23	0.560
276.70	0.559
277.16	0.552
277.63	0.551
278.10	0.542
278.57	0.539
279.04	0.537
279.50	0.538
279.97	0.533
280.44	0.528
280.91	0.529
281.38	0.523
281.84	0.523
282.31	0.521
282.78	0.518
283.25	0.517
283.72	0.520
284.18	0.518
284.65	0.517
285.12	0.512
285.59	0.512
286.05	0.509
286.52	0.512
286.99	0.512
287.46	0.512
287.92	0.511
288.39	0.506
288.86	0.505
289.33	0.503
289.79	0.506
290.26	0.504
290.73	0.501
291.20	0.501
291.66	0.496
292.13	0.496
292.60	0.493
293.07	0.488
293.53	0.481
294.00	0.480
294.47	0.474
294.93	0.470
295.40	0.463
295.87	0.456
296.34	0.454
296.80	0.448
297.27	0.444
297.74	0.434
298.20	0.428
298.67	0.422
299.14	0.415
299.60	0.412
300.07	0.402
300.54	0.397
301.01	0.394
301.47	0.384
301.94	0.375
302.41	0.373
302.87	0.364
303.34	0.361
303.81	0.353
304.27	0.345
304.74	0.341
305.21	0.338
305.67	0.331
306.14	0.330
306.61	0.324
307.07	0.317
307.54	0.312
308.01	0.309
308.47	0.307
308.94	0.301
309.40	0.298
309.87	0.295
310.34	0.295
310.80	0.292
311.27	0.288
311.74	0.285
312.20	0.282
312.67	0.280
313.13	0.279
313.60	0.275
314.07	0.276
314.53	0.272
315.00	0.268
315.47	0.267
315.93	0.269
316.40	0.266
316.86	0.262
317.33	0.263
317.80	0.262
318.26	0.263
318.73	0.260
319.19	0.261
319.66	0.256
320.13	0.255
320.59	0.256
321.06	0.254
321.52	0.254
321.99	0.250
322.45	0.249
322.92	0.249
323.39	0.247
323.85	0.243
324.32	0.244
324.78	0.241
325.25	0.244
325.71	0.240
326.18	0.241
326.64	0.241
327.11	0.239
327.58	0.238
328.04	0.235
328.51	0.232
328.97	0.234
329.44	0.234
329.90	0.230
330.37	0.228
330.83	0.229
331.30	0.224
331.76	0.224
332.23	0.224
332.69	0.221
333.16	0.221
333.62	0.220
334.09	0.221
334.56	0.220
335.02	0.213
335.49	0.214
335.95	0.213
336.42	0.211
336.88	0.208
337.35	0.206
337.81	0.205
338.28	0.204
338.74	0.207
339.20	0.204
339.67	0.203
340.13	0.198
340.60	0.198
341.06	0.199
341.53	0.197
341.99	0.194
342.46	0.196
342.92	0.196
343.39	0.198
343.85	0.190
344.32	0.193
344.78	0.192
345.25	0.189
345.71	0.192
346.17	0.192
346.64	0.191
347.10	0.189
347.57	0.188
348.03	0.184
348.50	0.185
348.96	0.183
349.43	0.184
349.89	0.189
350.35	0.185
350.82	0.186
351.28	0.183
351.75	0.183
352.21	0.182
352.67	0.182
353.14	0.180
353.60	0.177
354.07	0.176
354.53	0.169
355.00	0.176
355.46	0.174
355.92	0.175
356.39	0.175
356.85	0.172
357.31	0.174
357.78	0.169
358.24	0.167
358.71	0.171
359.17	0.165
359.63	0.167
360.10	0.171
360.56	0.162
361.03	0.163
361.49	0.164
361.95	0.162
362.42	0.164
362.88	0.161
363.34	0.163
363.81	0.162
364.27	0.160
364.73	0.159
365.20	0.161
365.66	0.162
366.12	0.162
366.59	0.156
367.05	0.158
367.51	0.156
367.98	0.156
368.44	0.157
368.90	0.157
369.37	0.155
369.83	0.158
370.29	0.158
370.76	0.154
371.22	0.152
371.68	0.153
372.15	0.154
372.61	0.151
373.07	0.155
373.54	0.154
374.00	0.155
374.46	0.153
374.92	0.154
375.39	0.152
375.85	0.151
376.31	0.152
376.78	0.153
377.24	0.150
377.70	0.149
378.16	0.151
378.63	0.149
379.09	0.148
379.55	0.150
380.01	0.147
380.48	0.149
380.94	0.149
381.40	0.149
381.87	0.150
382.33	0.149
382.79	0.149
383.25	0.150
383.72	0.148
384.18	0.148
384.64	0.146
385.10	0.147
385.56	0.145
386.03	0.148
386.49	0.146
386.95	0.144
387.41	0.145
387.88	0.144
388.34	0.147
388.80	0.146
389.26	0.143
389.72	0.143
390.19	0.146
390.65	0.144
391.11	0.143
391.57	0.143
392.04	0.141
392.50	0.145
392.96	0.142
393.42	0.144
393.88	0.144
394.34	0.145
394.81	0.141
395.27	0.143
395.73	0.147
396.19	0.143
396.65	0.141
397.12	0.143
397.58	0.141
398.04	0.142
398.50	0.141
398.96	0.142
399.42	0.142
399.89	0.142
400.35	0.141
400.81	0.142
401.27	0.138
401.73	0.141
402.19	0.141
402.65	0.138
403.12	0.137
403.58	0.136
404.04	0.137
404.50	0.136
404.96	0.137
405.42	0.133
405.88	0.135
406.34	0.136
406.81	0.136
407.27	0.133
407.73	0.133
408.19	0.132
408.65	0.132
409.11	0.133
409.57	0.131
410.03	0.133
410.49	0.129
410.96	0.132
411.42	0.128
411.88	0.129
412.34	0.132
412.80	0.129
413.26	0.133
413.72	0.135
414.18	0.132
414.64	0.128
415.10	0.130
415.56	0.129
416.02	0.126
416.48	0.128
416.95	0.128
417.41	0.130
417.87	0.129
418.33	0.127
418.79	0.128
419.25	0.127
419.71	0.128
420.17	0.127
420.63	0.127
421.09	0.127
421.55	0.126
422.01	0.127
422.47	0.131
422.93	0.130
423.39	0.131
423.85	0.129
424.31	0.131
424.77	0.126
425.23	0.130
425.69	0.127
426.15	0.125
426.61	0.125
427.07	0.126
427.53	0.127
427.99	0.124
428.45	0.125
428.91	0.124
429.37	0.125
429.83	0.127
430.29	0.128
430.75	0.128
431.21	0.126
431.67	0.125
432.13	0.121
432.59	0.124
433.05	0.122
433.51	0.125
433.97	0.125
434.43	0.126
434.89	0.123
435.35	0.119
435.81	0.120
436.27	0.121
436.73	0.124
437.19	0.124
437.65	0.121
438.11	0.120
438.57	0.124
439.03	0.122
439.48	0.121
439.94	0.121
440.40	0.120
440.86	0.117
441.32	0.117
441.78	0.120
442.24	0.119
442.70	0.120
443.16	0.117
443.62	0.121
444.08	0.117
444.54	0.118
444.99	0.117
445.45	0.120
445.91	0.117
446.37	0.115
446.83	0.118
447.29	0.120
447.75	0.116
448.21	0.117
448.67	0.114
449.12	0.115
449.58	0.114
450.04	0.117
450.50	0.115
450.96	0.116
451.42	0.116
451.88	0.118
452.34	0.116
452.79	0.114
453.25	0.117
453.71	0.113
454.17	0.113
454.63	0.110
455.09	0.117
455.55	0.118
456.00	0.114
456.46	0.112
456.92	0.112
457.38	0.113
457.84	0.111
458.30	0.113
458.75	0.114
459.21	0.112
459.67	0.113
460.13	0.111
460.59	0.114
461.04	0.111
461.50	0.113
461.96	0.114
462.42	0.115
462.88	0.115
463.33	0.112
463.79	0.114
464.25	0.114
464.71	0.115
465.17	0.114
465.62	0.115
466.08	0.112
466.54	0.113
467.00	0.114
467.46	0.113
467.91	0.111
468.37	0.117
468.83	0.115
469.29	0.115
469.74	0.113
470.20	0.114
470.66	0.117
471.12	0.114
471.57	0.113
472.03	0.115
472.49	0.113
472.95	0.114
473.40	0.115
473.86	0.115
474.32	0.114
474.78	0.115
475.23	0.114
475.69	0.115
476.15	0.113
476.60	0.115
477.06	0.115
477.52	0.114
477.98	0.113
478.43	0.111
478.89	0.117
479.35	0.115
479.80	0.114
480.26	0.109
480.72	0.112
481.18	0.116
481.63	0.113
482.09	0.111
482.55	0.112
483.00	0.113
483.46	0.112
483.92	0.110
484.37	0.115
484.83	0.110
485.29	0.114
485.74	0.112
486.20	0.113
486.66	0.114
487.11	0.112
487.57	0.112
488.03	0.116
488.48	0.113
488.94	0.116
489.40	0.112
489.85	0.114
490.31	0.112
490.77	0.111
491.22	0.111
491.68	0.112
492.13	0.112
492.59	0.111
493.05	0.112
493.50	0.115
493.96	0.111
494.42	0.112
494.87	0.114
495.33	0.111
495.78	0.114
496.24	0.112
496.70	0.114
497.15	0.112
497.61	0.113
498.06	0.111
498.52	0.115
498.98	0.111
499.43	0.111
499.89	0.111
500.34	0.111
500.80	0.112
501.25	0.111
501.71	0.111
502.17	0.112
502.62	0.110
503.08	0.114
503.53	0.110
503.99	0.109
504.44	0.110
504.90	0.111
505.36	0.110
505.81	0.111
506.27	0.111
506.72	0.111
507.18	0.111
507.63	0.109
508.09	0.111
508.54	0.111
509.00	0.109
509.45	0.111
509.91	0.112
510.36	0.111
510.82	0.111
511.27	0.112
511.73	0.111
512.19	0.111
512.64	0.108
513.10	0.109
513.55	0.111
514.01	0.110
514.46	0.111
514.92	0.112
515.37	0.109
515.83	0.111
516.28	0.110
516.73	0.109
517.19	0.108
517.64	0.109
518.10	0.109
518.55	0.111
519.01	0.108
519.46	0.109
519.92	0.108
520.37	0.108
520.83	0.111
521.28	0.108
521.74	0.107
522.19	0.109
522.65	0.110
523.10	0.109
523.55	0.109
524.01	0.107
524.46	0.110
524.92	0.107
525.37	0.108
525.83	0.110
526.28	0.112
526.73	0.107
527.19	0.108
527.64	0.108
528.10	0.109
528.55	0.110
529.01	0.111
529.46	0.108
529.91	0.108
530.37	0.110
530.82	0.111
531.28	0.109
531.73	0.109
532.18	0.110
532.64	0.110
533.09	0.109
533.54	0.110
534.00	0.110
534.45	0.112
534.91	0.109
535.36	0.110
535.81	0.112
536.27	0.111
536.72	0.112
537.17	0.111
537.63	0.112
538.08	0.112
538.54	0.112
538.99	0.112
539.44	0.111
539.90	0.110
540.35	0.110
540.80	0.114
541.26	0.111
541.71	0.114
542.16	0.112
542.62	0.113
543.07	0.114
543.52	0.114
543.98	0.114
544.43	0.113
544.88	0.113
545.34	0.114
545.79	0.115
546.24	0.114
546.69	0.116
547.15	0.116
547.60	0.117
548.05	0.115
548.51	0.118
548.96	0.112
549.41	0.115
549.86	0.115
550.32	0.116
550.77	0.116
551.22	0.118
551.68	0.118
552.13	0.120
552.58	0.120
553.03	0.121
553.49	0.119
553.94	0.121
554.39	0.121
554.84	0.120
555.30	0.121
555.75	0.119
556.20	0.121
556.65	0.121
557.11	0.124
557.56	0.122
558.01	0.122
558.46	0.124
558.92	0.124
559.37	0.127
559.82	0.124
560.27	0.126
560.72	0.126
561.18	0.127
561.63	0.124
562.08	0.125
562.53	0.127
562.99	0.131
563.44	0.129
563.89	0.128
564.34	0.128
564.79	0.128
565.25	0.129
565.70	0.134
566.15	0.135
566.60	0.131
567.05	0.133
567.50	0.134
567.96	0.132
568.41	0.134
568.86	0.136
569.31	0.135
569.76	0.136
570.21	0.135
570.67	0.136
571.12	0.138
571.57	0.139
572.02	0.140
572.47	0.139
572.92	0.140
573.37	0.142
573.83	0.142
574.28	0.141
574.73	0.143
575.18	0.142
575.63	0.144
576.08	0.143
576.53	0.145
576.98	0.146
577.44	0.147
577.89	0.147
578.34	0.149
578.79	0.149
579.24	0.151
579.69	0.151
580.14	0.152
580.59	0.153
581.04	0.153
581.49	0.153
581.95	0.157
582.40	0.155
582.85	0.157
583.30	0.159
583.75	0.160
584.20	0.161
584.65	0.161
585.10	0.162
585.55	0.164
586.00	0.165
586.45	0.165
586.90	0.168
587.35	0.167
587.80	0.170
588.25	0.171
588.71	0.173
589.16	0.172
589.61	0.175
590.06	0.177
590.51	0.177
590.96	0.180
591.41	0.180
591.86	0.182
592.31	0.186
592.76	0.184
593.21	0.185
593.66	0.188
594.11	0.191
594.56	0.191
595.01	0.192
595.46	0.193
595.91	0.195
596.36	0.198
596.81	0.197
597.26	0.201
597.71	0.201
598.16	0.202
598.61	0.202
599.06	0.205
599.51	0.207
599.96	0.210
600.41	0.209
600.86	0.212
601.31	0.210
601.76	0.215
602.21	0.215
602.65	0.216
603.10	0.220
603.55	0.219
604.00	0.221
604.45	0.223
604.90	0.225
605.35	0.226
605.80	0.227
606.25	0.230
606.70	0.229
607.15	0.231
607.60	0.231
608.05	0.234
608.50	0.234
608.95	0.235
609.39	0.237
609.84	0.237
610.29	0.238
610.74	0.237
611.19	0.239
611.64	0.242
612.09	0.243
612.54	0.242
612.99	0.241
613.44	0.244
613.88	0.245
614.33	0.244
614.78	0.245
615.23	0.248
615.68	0.249
616.13	0.250
616.58	0.248
617.03	0.246
617.47	0.248
617.92	0.249
618.37	0.250
618.82	0.252
619.27	0.251
619.72	0.251
620.17	0.253
620.61	0.254
621.06	0.253
621.51	0.256
621.96	0.256
622.41	0.256
622.86	0.255
623.30	0.258
623.75	0.254
624.20	0.256
624.65	0.260
625.10	0.258
625.54	0.261
625.99	0.262
626.44	0.263
626.89	0.264
627.34	0.264
627.78	0.265
628.23	0.266
628.68	0.267
629.13	0.268
629.58	0.269
630.02	0.270
630.47	0.272
630.92	0.274
631.37	0.272
631.81	0.274
632.26	0.277
632.71	0.279
633.16	0.279
633.61	0.281
634.05	0.282
634.50	0.284
634.95	0.286
635.40	0.289
635.84	0.289
636.29	0.289
636.74	0.291
637.18	0.295
637.63	0.296
638.08	0.297
638.53	0.299
638.97	0.303
639.42	0.305
639.87	0.307
640.32	0.309
640.76	0.312
641.21	0.313
641.66	0.316
642.10	0.316
642.55	0.318
643.00	0.321
643.44	0.322
643.89	0.326
644.34	0.330
644.79	0.331
645.23	0.333
645.68	0.336
646.13	0.337
646.57	0.340
647.02	0.344
647.47	0.344
647.91	0.350
648.36	0.351
648.81	0.352
649.25	0.352
649.70	0.354
650.15	0.358
650.59	0.362
651.04	0.364
651.48	0.364
651.93	0.366
652.38	0.367
652.82	0.371
653.27	0.371
653.72	0.375
654.16	0.375
654.61	0.377
655.06	0.379
655.50	0.379
655.95	0.382
656.39	0.384
656.84	0.389
657.29	0.386
657.73	0.389
658.18	0.392
658.62	0.391
659.07	0.393
659.52	0.394
659.96	0.394
660.41	0.395
660.85	0.396
661.30	0.398
661.74	0.396
662.19	0.401
662.64	0.397
663.08	0.400
663.53	0.398
663.97	0.399
664.42	0.398
664.86	0.397
665.31	0.400
665.75	0.398
666.20	0.395
666.65	0.393
667.09	0.394
667.54	0.393
667.98	0.389
668.43	0.387
668.87	0.387
669.32	0.385
669.76	0.384
670.21	0.381
670.65	0.378
671.10	0.372
671.54	0.370
671.99	0.365
672.43	0.360
672.88	0.356
673.32	0.354
673.77	0.350
674.21	0.345
674.66	0.337
675.10	0.334
675.55	0.329
675.99	0.321
676.44	0.319
676.88	0.311
677.33	0.311
677.77	0.300
678.22	0.294
678.66	0.291
679.11	0.285
679.55	0.275
679.99	0.271
680.44	0.265
680.88	0.258
681.33	0.252
681.77	0.245
682.22	0.241
682.66	0.236
683.11	0.227
683.55	0.223
683.99	0.217
684.44	0.211
684.88	0.209
685.33	0.199
685.77	0.196
686.21	0.194
686.66	0.186
687.10	0.183
687.55	0.178
687.99	0.172
688.44	0.169
688.88	0.165
689.32	0.162
689.77	0.158
690.21	0.154
690.65	0.151
691.10	0.146
691.54	0.141
691.99	0.138
692.43	0.137
692.87	0.134
693.32	0.131
693.76	0.126
694.20	0.127
694.65	0.124
695.09	0.120
695.53	0.118
695.98	0.118
696.42	0.115
696.86	0.110
697.31	0.109
697.75	0.110
698.19	0.108
698.64	0.106
699.08	0.106
699.52	0.102
699.97	0.102
700.41	0.102
700.85	0.102
701.30	0.097
701.74	0.097
702.18	0.096
702.63	0.095
703.07	0.095
703.51	0.094
703.96	0.092
704.40	0.091
704.84	0.089
705.28	0.091
705.73	0.091
706.17	0.091
706.61	0.088
707.06	0.088
707.50	0.086
707.94	0.084
708.38	0.086
708.83	0.084
709.27	0.087
709.71	0.085
710.15	0.084
710.60	0.089
711.04	0.083
711.48	0.084
711.92	0.085
712.37	0.081
712.81	0.084
713.25	0.082
713.69	0.083
714.13	0.079
714.58	0.079
715.02	0.080
715.46	0.081
715.90	0.080
716.35	0.083
716.79	0.080
717.23	0.081
717.67	0.083
718.11	0.079
718.56	0.079
719.00	0.080
719.44	0.082
719.88	0.081
720.32	0.080
720.76	0.079
721.21	0.081
721.65	0.079
722.09	0.080
722.53	0.080
722.97	0.082
723.41	0.079
723.86	0.082
724.30	0.079
724.74	0.080
725.18	0.080
725.62	0.082
726.06	0.081
726.50	0.081
726.95	0.080
727.39	0.082
727.83	0.079
728.27	0.079
728.71	0.079
729.15	0.081
729.59	0.082
730.03	0.081
730.48	0.084
730.92	0.080
731.36	0.081
731.80	0.080
732.24	0.080
732.68	0.081
733.12	0.082
733.56	0.082
734.00	0.082
734.44	0.082
734.89	0.085
735.33	0.082
735.77	0.081
736.21	0.080
736.65	0.083
737.09	0.081
737.53	0.084
737.97	0.084
738.41	0.081
738.85	0.083
739.29	0.084
739.73	0.082
740.17	0.084
740.61	0.084
741.05	0.084
741.49	0.084
741.93	0.082
742.37	0.083
742.81	0.085
743.26	0.084
743.70	0.082
744.14	0.086
744.58	0.085
745.02	0.083
745.46	0.084
745.90	0.084
746.34	0.085
746.78	0.082
747.22	0.083
747.66	0.081
748.10	0.081
748.54	0.081
748.98	0.082
749.42	0.084
749.86	0.083
750.29	0.081
750.73	0.083
751.17	0.081
751.61	0.081
752.05	0.083
752.49	0.081
752.93	0.081
753.37	0.082
753.81	0.084
754.25	0.080
754.69	0.080
755.13	0.081
755.57	0.080
756.01	0.078
756.45	0.079
756.89	0.083
757.33	0.082
757.77	0.079
758.21	0.082
758.64	0.080
759.08	0.079
759.52	0.080
759.96	0.079
760.40	0.081
760.84	0.082
761.28	0.082
761.72	0.082
762.16	0.082
762.60	0.081
763.03	0.081
763.47	0.080
763.91	0.081
764.35	0.082
764.79	0.084
765.23	0.080
765.67	0.081
766.11	0.080
766.54	0.080
766.98	0.079
767.42	0.080
767.86	0.076
768.30	0.079
768.74	0.079
769.17	0.079
769.61	0.082
770.05	0.080
770.49	0.080
770.93	0.082
771.37	0.083
771.80	0.077
772.24	0.082
772.68	0.082
773.12	0.079
773.56	0.079
774.00	0.082
774.43	0.080
774.87	0.079
775.31	0.079
775.75	0.081
776.19	0.079
776.62	0.078
777.06	0.080
777.50	0.079
777.94	0.079
778.37	0.080
778.81	0.079
779.25	0.083
779.69	0.082
780.13	0.078
780.56	0.076
781.00	0.081
781.44	0.079
781.88	0.078
782.31	0.081
782.75	0.081
783.19	0.079
783.63	0.082
784.06	0.077
784.50	0.081
784.94	0.078
785.37	0.079
785.81	0.083
786.25	0.077
786.69	0.080
787.12	0.079
787.56	0.077
788.00	0.077
788.43	0.078
788.87	0.075
789.31	0.079
789.75	0.080
790.18	0.078
790.62	0.079
791.06	0.077
791.49	0.075
791.93	0.081
792.37	0.079
792.80	0.077
793.24	0.080
793.68	0.078
794.11	0.079
794.55	0.080
794.99	0.081
795.42	0.078
795.86	0.081
796.30	0.078
796.73	0.080
797.17	0.080
797.61	0.079
798.04	0.078
798.48	0.077
798.91	0.079
799.35	0.077
799.79	0.080
800.22	0.076
800.66	0.076
801.10	0.079
801.53	0.084
801.97	0.082
802.40	0.078
802.84	0.079
803.28	0.077
803.71	0.078
804.15	0.077
804.58	0.078
805.02	0.077
805.46	0.077
805.89	0.079
806.33	0.078
806.76	0.079
807.20	0.074
807.63	0.077
808.07	0.075
808.51	0.072
808.94	0.079
809.38	0.077
809.81	0.073
810.25	0.078
810.68	0.080
811.12	0.075
811.55	0.075
811.99	0.076
812.42	0.074
812.86	0.078
813.29	0.077
813.73	0.076
814.17	0.075
814.60	0.079
815.04	0.080
815.47	0.075
815.91	0.077
816.34	0.077
816.78	0.077
817.21	0.078
817.65	0.074
818.08	0.075
