SpectraSuite Data File
++++++++++++++++++++++++++++++++++++
Date: Tue Jul 11 14:16:59 CEST 2017
User: IPCE
Dark Spectrum Present: Yes
Reference Spectrum Present: Yes
Number of Sampled Component Spectra: 1
Spectrometers: HR+C0708
Integration Time (usec): 1000 (HR+C0708)
Spectra Averaged: 10 (HR+C0708)
Boxcar Smoothing: 0 (HR+C0708)
Correct for Electrical Dark: No (HR+C0708)
Strobe/Lamp Enabled: No (HR+C0708)
Correct for Detector Non-linearity: No (HR+C0708)
Correct for Stray Light: No (HR+C0708)
Number of Pixels in Processed Spectrum: 2048
>>>>>Begin Processed Spectral Data<<<<<
188.76	0.340
189.23	0.421
189.70	0.222
190.17	-0.000
190.64	0.097
191.12	0.308
191.59	0.240
192.06	0.358
192.53	-0.000
193.01	0.298
193.48	0.096
193.95	0.377
194.42	0.182
194.90	0.392
195.37	-0.026
195.84	0.593
196.31	-0.000
196.78	0.571
197.26	0.139
197.73	0.707
198.20	-0.035
198.67	1.000
199.14	-0.000
199.62	0.018
200.09	0.216
200.56	0.293
201.03	0.260
201.50	0.426
201.97	0.278
202.45	0.377
202.92	0.246
203.39	0.290
203.86	0.324
204.33	0.264
204.80	0.443
205.28	0.318
205.75	0.397
206.22	0.371
206.69	0.229
207.16	0.219
207.63	0.378
208.11	0.323
208.58	0.204
209.05	0.503
209.52	0.421
209.99	0.390
210.46	0.292
210.93	0.326
211.41	0.315
211.88	0.301
212.35	0.279
212.82	0.378
213.29	0.514
213.76	0.186
214.23	0.267
214.70	0.742
215.18	0.542
215.65	0.391
216.12	0.479
216.59	0.358
217.06	0.477
217.53	0.364
218.00	0.417
218.47	0.439
218.94	0.387
219.41	0.454
219.89	0.411
220.36	0.453
220.83	0.533
221.30	0.507
221.77	0.533
222.24	0.394
222.71	0.448
223.18	0.582
223.65	0.683
224.12	0.655
224.59	0.563
225.06	0.605
225.54	0.562
226.01	0.595
226.48	0.644
226.95	0.723
227.42	0.753
227.89	0.903
228.36	0.896
228.83	0.966
229.30	0.940
229.77	1.027
230.24	1.261
230.71	1.053
231.18	1.077
231.65	1.173
232.12	1.252
232.59	1.336
233.06	1.280
233.53	1.558
234.00	1.400
234.47	1.457
234.94	1.591
235.41	1.683
235.88	1.698
236.35	1.624
236.82	1.749
237.29	1.799
237.76	1.823
238.23	1.873
238.70	1.919
239.17	1.941
239.64	2.053
240.11	2.059
240.58	1.965
241.05	1.875
241.52	2.203
241.99	2.073
242.46	2.215
242.93	2.112
243.40	2.154
243.87	2.220
244.34	2.183
244.81	2.098
245.28	2.174
245.75	2.207
246.22	2.109
246.69	2.361
247.16	2.385
247.63	2.294
248.10	2.343
248.57	2.177
249.04	2.275
249.51	2.244
249.98	2.234
250.45	2.207
250.92	2.138
251.39	2.071
251.85	1.982
252.32	1.862
252.79	1.781
253.26	1.702
253.73	1.635
254.20	1.523
254.67	1.424
255.14	1.349
255.61	1.304
256.08	1.250
256.55	1.177
257.02	1.140
257.49	1.105
257.95	1.064
258.42	1.032
258.89	1.009
259.36	0.975
259.83	0.944
260.30	0.921
260.77	0.904
261.24	0.886
261.71	0.862
262.17	0.845
262.64	0.834
263.11	0.824
263.58	0.800
264.05	0.791
264.52	0.777
264.99	0.768
265.46	0.754
265.92	0.747
266.39	0.734
266.86	0.720
267.33	0.715
267.80	0.703
268.27	0.697
268.74	0.692
269.20	0.683
269.67	0.672
270.14	0.664
270.61	0.660
271.08	0.651
271.55	0.643
272.01	0.638
272.48	0.634
272.95	0.625
273.42	0.622
273.89	0.617
274.36	0.615
274.82	0.612
275.29	0.609
275.76	0.601
276.23	0.598
276.70	0.594
277.16	0.591
277.63	0.588
278.10	0.585
278.57	0.579
279.04	0.577
279.50	0.580
279.97	0.575
280.44	0.572
280.91	0.570
281.38	0.571
281.84	0.573
282.31	0.573
282.78	0.570
283.25	0.567
283.72	0.565
284.18	0.564
284.65	0.570
285.12	0.567
285.59	0.563
286.05	0.565
286.52	0.566
286.99	0.565
287.46	0.569
287.92	0.569
288.39	0.568
288.86	0.566
289.33	0.565
289.79	0.567
290.26	0.567
290.73	0.562
291.20	0.564
291.66	0.564
292.13	0.553
292.60	0.555
293.07	0.550
293.53	0.548
294.00	0.541
294.47	0.540
294.93	0.531
295.40	0.524
295.87	0.520
296.34	0.515
296.80	0.508
297.27	0.496
297.74	0.487
298.20	0.481
298.67	0.476
299.14	0.467
299.60	0.463
300.07	0.453
300.54	0.443
301.01	0.440
301.47	0.429
301.94	0.423
302.41	0.417
302.87	0.407
303.34	0.401
303.81	0.394
304.27	0.386
304.74	0.380
305.21	0.372
305.67	0.372
306.14	0.360
306.61	0.356
307.07	0.350
307.54	0.343
308.01	0.340
308.47	0.337
308.94	0.329
309.40	0.329
309.87	0.321
310.34	0.321
310.80	0.318
311.27	0.314
311.74	0.313
312.20	0.308
312.67	0.307
313.13	0.301
313.60	0.300
314.07	0.298
314.53	0.295
315.00	0.294
315.47	0.292
315.93	0.291
316.40	0.288
316.86	0.287
317.33	0.285
317.80	0.286
318.26	0.283
318.73	0.280
319.19	0.280
319.66	0.279
320.13	0.276
320.59	0.275
321.06	0.271
321.52	0.269
321.99	0.269
322.45	0.265
322.92	0.266
323.39	0.265
323.85	0.261
324.32	0.258
324.78	0.258
325.25	0.260
325.71	0.256
326.18	0.254
326.64	0.252
327.11	0.255
327.58	0.253
328.04	0.254
328.51	0.245
328.97	0.246
329.44	0.246
329.90	0.241
330.37	0.238
330.83	0.240
331.30	0.240
331.76	0.236
332.23	0.236
332.69	0.234
333.16	0.229
333.62	0.230
334.09	0.229
334.56	0.229
335.02	0.225
335.49	0.221
335.95	0.223
336.42	0.221
336.88	0.219
337.35	0.218
337.81	0.216
338.28	0.216
338.74	0.216
339.20	0.216
339.67	0.211
340.13	0.210
340.60	0.209
341.06	0.209
341.53	0.205
341.99	0.207
342.46	0.205
342.92	0.205
343.39	0.207
343.85	0.202
344.32	0.201
344.78	0.198
345.25	0.197
345.71	0.199
346.17	0.197
346.64	0.197
347.10	0.193
347.57	0.194
348.03	0.192
348.50	0.190
348.96	0.188
349.43	0.187
349.89	0.187
350.35	0.186
350.82	0.187
351.28	0.183
351.75	0.184
352.21	0.180
352.67	0.180
353.14	0.178
353.60	0.174
354.07	0.172
354.53	0.167
355.00	0.163
355.46	0.167
355.92	0.162
356.39	0.159
356.85	0.157
357.31	0.157
357.78	0.150
358.24	0.144
358.71	0.146
359.17	0.142
359.63	0.140
360.10	0.137
360.56	0.135
361.03	0.130
361.49	0.129
361.95	0.127
362.42	0.127
362.88	0.124
363.34	0.123
363.81	0.121
364.27	0.121
364.73	0.120
365.20	0.120
365.66	0.117
366.12	0.119
366.59	0.116
367.05	0.117
367.51	0.114
367.98	0.114
368.44	0.117
368.90	0.114
369.37	0.111
369.83	0.113
370.29	0.111
370.76	0.111
371.22	0.112
371.68	0.112
372.15	0.112
372.61	0.109
373.07	0.112
373.54	0.112
374.00	0.113
374.46	0.111
374.92	0.110
375.39	0.111
375.85	0.109
376.31	0.111
376.78	0.110
377.24	0.108
377.70	0.113
378.16	0.108
378.63	0.108
379.09	0.108
379.55	0.106
380.01	0.107
380.48	0.108
380.94	0.109
381.40	0.109
381.87	0.109
382.33	0.107
382.79	0.106
383.25	0.106
383.72	0.108
384.18	0.105
384.64	0.106
385.10	0.106
385.56	0.106
386.03	0.106
386.49	0.106
386.95	0.102
387.41	0.106
387.88	0.104
388.34	0.104
388.80	0.104
389.26	0.100
389.72	0.103
390.19	0.105
390.65	0.103
391.11	0.103
391.57	0.104
392.04	0.104
392.50	0.104
392.96	0.101
393.42	0.104
393.88	0.104
394.34	0.103
394.81	0.097
395.27	0.100
395.73	0.104
396.19	0.100
396.65	0.102
397.12	0.100
397.58	0.102
398.04	0.102
398.50	0.100
398.96	0.101
399.42	0.101
399.89	0.099
400.35	0.099
400.81	0.101
401.27	0.097
401.73	0.099
402.19	0.098
402.65	0.098
403.12	0.097
403.58	0.094
404.04	0.096
404.50	0.097
404.96	0.096
405.42	0.096
405.88	0.096
406.34	0.095
406.81	0.096
407.27	0.092
407.73	0.094
408.19	0.093
408.65	0.094
409.11	0.094
409.57	0.093
410.03	0.091
410.49	0.090
410.96	0.090
411.42	0.090
411.88	0.091
412.34	0.090
412.80	0.093
413.26	0.091
413.72	0.094
414.18	0.092
414.64	0.087
415.10	0.091
415.56	0.090
416.02	0.089
416.48	0.090
416.95	0.088
417.41	0.090
417.87	0.087
418.33	0.086
418.79	0.088
419.25	0.089
419.71	0.088
420.17	0.088
420.63	0.089
421.09	0.087
421.55	0.086
422.01	0.087
422.47	0.090
422.93	0.089
423.39	0.091
423.85	0.088
424.31	0.089
424.77	0.085
425.23	0.085
425.69	0.085
426.15	0.084
426.61	0.087
427.07	0.087
427.53	0.085
427.99	0.085
428.45	0.085
428.91	0.087
429.37	0.086
429.83	0.086
430.29	0.088
430.75	0.087
431.21	0.086
431.67	0.085
432.13	0.082
432.59	0.084
433.05	0.086
433.51	0.087
433.97	0.083
434.43	0.086
434.89	0.084
435.35	0.081
435.81	0.080
436.27	0.081
436.73	0.085
437.19	0.086
437.65	0.083
438.11	0.085
438.57	0.084
439.03	0.082
439.48	0.081
439.94	0.083
440.40	0.081
440.86	0.084
441.32	0.081
441.78	0.083
442.24	0.080
442.70	0.083
443.16	0.081
443.62	0.085
444.08	0.082
444.54	0.084
444.99	0.082
445.45	0.082
445.91	0.082
446.37	0.080
446.83	0.080
447.29	0.080
447.75	0.080
448.21	0.081
448.67	0.080
449.12	0.084
449.58	0.078
450.04	0.082
450.50	0.078
450.96	0.079
451.42	0.078
451.88	0.081
452.34	0.081
452.79	0.078
453.25	0.079
453.71	0.079
454.17	0.077
454.63	0.077
455.09	0.082
455.55	0.082
456.00	0.079
456.46	0.079
456.92	0.077
457.38	0.080
457.84	0.076
458.30	0.079
458.75	0.082
459.21	0.078
459.67	0.081
460.13	0.079
460.59	0.078
461.04	0.080
461.50	0.079
461.96	0.080
462.42	0.080
462.88	0.079
463.33	0.079
463.79	0.082
464.25	0.079
464.71	0.081
465.17	0.080
465.62	0.081
466.08	0.080
466.54	0.079
467.00	0.079
467.46	0.078
467.91	0.079
468.37	0.080
468.83	0.079
469.29	0.079
469.74	0.077
470.20	0.078
470.66	0.080
471.12	0.080
471.57	0.078
472.03	0.080
472.49	0.083
472.95	0.079
473.40	0.079
473.86	0.081
474.32	0.078
474.78	0.080
475.23	0.082
475.69	0.080
476.15	0.080
476.60	0.080
477.06	0.081
477.52	0.081
477.98	0.080
478.43	0.080
478.89	0.079
479.35	0.080
479.80	0.080
480.26	0.079
480.72	0.079
481.18	0.082
481.63	0.081
482.09	0.079
482.55	0.081
483.00	0.080
483.46	0.079
483.92	0.079
484.37	0.083
484.83	0.081
485.29	0.079
485.74	0.079
486.20	0.080
486.66	0.081
487.11	0.078
487.57	0.079
488.03	0.081
488.48	0.079
488.94	0.081
489.40	0.079
489.85	0.080
490.31	0.079
490.77	0.078
491.22	0.080
491.68	0.080
492.13	0.081
492.59	0.079
493.05	0.078
493.50	0.081
493.96	0.081
494.42	0.078
494.87	0.080
495.33	0.081
495.78	0.080
496.24	0.079
496.70	0.079
497.15	0.080
497.61	0.080
498.06	0.080
498.52	0.080
498.98	0.081
499.43	0.080
499.89	0.080
500.34	0.080
500.80	0.079
501.25	0.080
501.71	0.077
502.17	0.082
502.62	0.080
503.08	0.081
503.53	0.078
503.99	0.077
504.44	0.078
504.90	0.078
505.36	0.078
505.81	0.079
506.27	0.079
506.72	0.078
507.18	0.078
507.63	0.078
508.09	0.079
508.54	0.079
509.00	0.077
509.45	0.079
509.91	0.079
510.36	0.077
510.82	0.077
511.27	0.081
511.73	0.079
512.19	0.078
512.64	0.078
513.10	0.076
513.55	0.077
514.01	0.078
514.46	0.077
514.92	0.078
515.37	0.078
515.83	0.077
516.28	0.078
516.73	0.078
517.19	0.077
517.64	0.078
518.10	0.078
518.55	0.077
519.01	0.076
519.46	0.079
519.92	0.077
520.37	0.077
520.83	0.080
521.28	0.076
521.74	0.076
522.19	0.076
522.65	0.077
523.10	0.077
523.55	0.077
524.01	0.078
524.46	0.077
524.92	0.075
525.37	0.075
525.83	0.077
526.28	0.078
526.73	0.079
527.19	0.077
527.64	0.078
528.10	0.077
528.55	0.077
529.01	0.080
529.46	0.076
529.91	0.077
530.37	0.078
530.82	0.076
531.28	0.076
531.73	0.076
532.18	0.078
532.64	0.077
533.09	0.078
533.54	0.079
534.00	0.079
534.45	0.079
534.91	0.078
535.36	0.080
535.81	0.080
536.27	0.081
536.72	0.079
537.17	0.077
537.63	0.080
538.08	0.082
538.54	0.082
538.99	0.082
539.44	0.081
539.90	0.081
540.35	0.079
540.80	0.081
541.26	0.082
541.71	0.084
542.16	0.083
542.62	0.083
543.07	0.084
543.52	0.083
543.98	0.083
544.43	0.084
544.88	0.085
545.34	0.085
545.79	0.085
546.24	0.084
546.69	0.086
547.15	0.087
547.60	0.089
548.05	0.087
548.51	0.089
548.96	0.087
549.41	0.088
549.86	0.087
550.32	0.089
550.77	0.089
551.22	0.091
551.68	0.091
552.13	0.090
552.58	0.092
553.03	0.090
553.49	0.091
553.94	0.093
554.39	0.094
554.84	0.093
555.30	0.093
555.75	0.095
556.20	0.094
556.65	0.095
557.11	0.097
557.56	0.095
558.01	0.096
558.46	0.097
558.92	0.098
559.37	0.100
559.82	0.101
560.27	0.100
560.72	0.100
561.18	0.102
561.63	0.101
562.08	0.102
562.53	0.104
562.99	0.105
563.44	0.104
563.89	0.104
564.34	0.103
564.79	0.105
565.25	0.108
565.70	0.108
566.15	0.109
566.60	0.108
567.05	0.111
567.50	0.109
567.96	0.110
568.41	0.112
568.86	0.112
569.31	0.114
569.76	0.112
570.21	0.114
570.67	0.116
571.12	0.117
571.57	0.118
572.02	0.119
572.47	0.116
572.92	0.120
573.37	0.119
573.83	0.120
574.28	0.121
574.73	0.122
575.18	0.123
575.63	0.123
576.08	0.123
576.53	0.125
576.98	0.127
577.44	0.128
577.89	0.128
578.34	0.131
578.79	0.131
579.24	0.131
579.69	0.133
580.14	0.134
580.59	0.135
581.04	0.135
581.49	0.136
581.95	0.139
582.40	0.140
582.85	0.140
583.30	0.143
583.75	0.145
584.20	0.144
584.65	0.146
585.10	0.148
585.55	0.149
586.00	0.149
586.45	0.150
586.90	0.155
587.35	0.155
587.80	0.156
588.25	0.159
588.71	0.161
589.16	0.162
589.61	0.164
590.06	0.166
590.51	0.167
590.96	0.168
591.41	0.172
591.86	0.171
592.31	0.176
592.76	0.176
593.21	0.177
593.66	0.180
594.11	0.183
594.56	0.184
595.01	0.187
595.46	0.187
595.91	0.190
596.36	0.192
596.81	0.191
597.26	0.196
597.71	0.198
598.16	0.199
598.61	0.201
599.06	0.203
599.51	0.205
599.96	0.209
600.41	0.210
600.86	0.211
601.31	0.211
601.76	0.216
602.21	0.215
602.65	0.216
603.10	0.219
603.55	0.219
604.00	0.223
604.45	0.224
604.90	0.227
605.35	0.228
605.80	0.232
606.25	0.233
606.70	0.236
607.15	0.236
607.60	0.237
608.05	0.239
608.50	0.242
608.95	0.242
609.39	0.245
609.84	0.246
610.29	0.245
610.74	0.244
611.19	0.248
611.64	0.249
612.09	0.251
612.54	0.254
612.99	0.251
613.44	0.252
613.88	0.254
614.33	0.254
614.78	0.256
615.23	0.259
615.68	0.256
616.13	0.257
616.58	0.259
617.03	0.258
617.47	0.259
617.92	0.262
618.37	0.260
618.82	0.261
619.27	0.263
619.72	0.263
620.17	0.265
620.61	0.264
621.06	0.264
621.51	0.266
621.96	0.267
622.41	0.264
622.86	0.268
623.30	0.269
623.75	0.269
624.20	0.273
624.65	0.272
625.10	0.272
625.54	0.271
625.99	0.273
626.44	0.276
626.89	0.275
627.34	0.276
627.78	0.278
628.23	0.277
628.68	0.281
629.13	0.280
629.58	0.283
630.02	0.285
630.47	0.286
630.92	0.288
631.37	0.289
631.81	0.290
632.26	0.294
632.71	0.294
633.16	0.295
633.61	0.295
634.05	0.300
634.50	0.301
634.95	0.303
635.40	0.305
635.84	0.310
636.29	0.311
636.74	0.312
637.18	0.313
637.63	0.317
638.08	0.317
638.53	0.323
638.97	0.325
639.42	0.327
639.87	0.328
640.32	0.332
640.76	0.336
641.21	0.338
641.66	0.342
642.10	0.344
642.55	0.347
643.00	0.347
643.44	0.350
643.89	0.354
644.34	0.357
644.79	0.362
645.23	0.366
645.68	0.371
646.13	0.374
646.57	0.376
647.02	0.378
647.47	0.382
647.91	0.386
648.36	0.391
648.81	0.391
649.25	0.391
649.70	0.395
650.15	0.400
650.59	0.403
651.04	0.406
651.48	0.406
651.93	0.411
652.38	0.414
652.82	0.413
653.27	0.420
653.72	0.423
654.16	0.426
654.61	0.427
655.06	0.430
655.50	0.432
655.95	0.433
656.39	0.435
656.84	0.440
657.29	0.439
657.73	0.440
658.18	0.444
658.62	0.446
659.07	0.448
659.52	0.448
659.96	0.450
660.41	0.452
660.85	0.452
661.30	0.455
661.74	0.456
662.19	0.455
662.64	0.457
663.08	0.461
663.53	0.457
663.97	0.458
664.42	0.461
664.86	0.458
665.31	0.460
665.75	0.460
666.20	0.457
666.65	0.459
667.09	0.454
667.54	0.453
667.98	0.450
668.43	0.448
668.87	0.446
669.32	0.444
669.76	0.443
670.21	0.439
670.65	0.435
671.10	0.431
671.54	0.426
671.99	0.423
672.43	0.416
672.88	0.413
673.32	0.406
673.77	0.398
674.21	0.393
674.66	0.386
675.10	0.383
675.55	0.376
675.99	0.366
676.44	0.362
676.88	0.352
677.33	0.346
677.77	0.336
678.22	0.327
678.66	0.323
679.11	0.313
679.55	0.305
679.99	0.297
680.44	0.290
680.88	0.283
681.33	0.273
681.77	0.267
682.22	0.258
682.66	0.250
683.11	0.240
683.55	0.235
683.99	0.227
684.44	0.220
684.88	0.218
685.33	0.207
685.77	0.197
686.21	0.195
686.66	0.186
687.10	0.179
687.55	0.174
687.99	0.169
688.44	0.162
688.88	0.156
689.32	0.151
689.77	0.146
690.21	0.144
690.65	0.137
691.10	0.134
691.54	0.127
691.99	0.121
692.43	0.121
692.87	0.115
693.32	0.111
693.76	0.109
694.20	0.108
694.65	0.103
695.09	0.100
695.53	0.096
695.98	0.097
696.42	0.093
696.86	0.087
697.31	0.086
697.75	0.084
698.19	0.080
698.64	0.080
699.08	0.081
699.52	0.079
699.97	0.076
700.41	0.074
700.85	0.074
701.30	0.070
701.74	0.067
702.18	0.068
702.63	0.063
703.07	0.065
703.51	0.066
703.96	0.063
704.40	0.061
704.84	0.060
705.28	0.060
705.73	0.061
706.17	0.058
706.61	0.056
707.06	0.057
707.50	0.055
707.94	0.051
708.38	0.054
708.83	0.053
709.27	0.054
709.71	0.053
710.15	0.053
710.60	0.052
711.04	0.053
711.48	0.053
711.92	0.053
712.37	0.049
712.81	0.047
713.25	0.047
713.69	0.051
714.13	0.043
714.58	0.046
715.02	0.047
715.46	0.045
715.90	0.045
716.35	0.047
716.79	0.047
717.23	0.047
717.67	0.049
718.11	0.048
718.56	0.046
719.00	0.047
719.44	0.048
719.88	0.045
720.32	0.044
720.76	0.045
721.21	0.044
721.65	0.045
722.09	0.047
722.53	0.044
722.97	0.045
723.41	0.045
723.86	0.045
724.30	0.047
724.74	0.048
725.18	0.049
725.62	0.048
726.06	0.048
726.50	0.047
726.95	0.045
727.39	0.045
727.83	0.045
728.27	0.045
728.71	0.046
729.15	0.049
729.59	0.045
730.03	0.047
730.48	0.050
730.92	0.044
731.36	0.048
731.80	0.046
732.24	0.045
732.68	0.049
733.12	0.048
733.56	0.049
734.00	0.048
734.44	0.046
734.89	0.050
735.33	0.049
735.77	0.050
736.21	0.048
736.65	0.048
737.09	0.047
737.53	0.050
737.97	0.052
738.41	0.048
738.85	0.051
739.29	0.049
739.73	0.047
740.17	0.050
740.61	0.050
741.05	0.048
741.49	0.048
741.93	0.045
742.37	0.048
742.81	0.051
743.26	0.048
743.70	0.049
744.14	0.051
744.58	0.050
745.02	0.048
745.46	0.052
745.90	0.048
746.34	0.049
746.78	0.047
747.22	0.047
747.66	0.047
748.10	0.047
748.54	0.047
748.98	0.045
749.42	0.048
749.86	0.049
750.29	0.047
750.73	0.048
751.17	0.046
751.61	0.045
752.05	0.049
752.49	0.047
752.93	0.048
753.37	0.049
753.81	0.048
754.25	0.048
754.69	0.045
755.13	0.046
755.57	0.047
756.01	0.044
756.45	0.047
756.89	0.049
757.33	0.046
757.77	0.044
758.21	0.046
758.64	0.047
759.08	0.045
759.52	0.046
759.96	0.046
760.40	0.045
760.84	0.048
761.28	0.047
761.72	0.044
762.16	0.046
762.60	0.045
763.03	0.045
763.47	0.047
763.91	0.047
764.35	0.048
764.79	0.047
765.23	0.045
765.67	0.049
766.11	0.047
766.54	0.044
766.98	0.046
767.42	0.046
767.86	0.042
768.30	0.043
768.74	0.045
769.17	0.047
769.61	0.048
770.05	0.046
770.49	0.045
770.93	0.046
771.37	0.046
771.80	0.045
772.24	0.050
772.68	0.048
773.12	0.046
773.56	0.047
774.00	0.048
774.43	0.048
774.87	0.044
775.31	0.044
775.75	0.047
776.19	0.046
776.62	0.047
777.06	0.046
777.50	0.045
777.94	0.048
778.37	0.046
778.81	0.045
779.25	0.046
779.69	0.045
780.13	0.040
780.56	0.043
781.00	0.046
781.44	0.043
781.88	0.044
782.31	0.047
782.75	0.049
783.19	0.044
783.63	0.046
784.06	0.043
784.50	0.045
784.94	0.045
785.37	0.046
785.81	0.048
786.25	0.044
786.69	0.046
787.12	0.045
787.56	0.047
788.00	0.045
788.43	0.046
788.87	0.043
789.31	0.047
789.75	0.051
790.18	0.048
790.62	0.046
791.06	0.045
791.49	0.041
791.93	0.048
792.37	0.041
792.80	0.044
793.24	0.047
793.68	0.045
794.11	0.045
794.55	0.047
794.99	0.047
795.42	0.042
795.86	0.046
796.30	0.045
796.73	0.045
797.17	0.045
797.61	0.045
798.04	0.045
798.48	0.042
798.91	0.046
799.35	0.045
799.79	0.047
800.22	0.045
800.66	0.043
801.10	0.043
801.53	0.049
801.97	0.044
802.40	0.045
802.84	0.048
803.28	0.041
803.71	0.043
804.15	0.046
804.58	0.042
805.02	0.041
805.46	0.045
805.89	0.048
806.33	0.043
806.76	0.042
807.20	0.034
807.63	0.041
808.07	0.044
808.51	0.042
808.94	0.044
809.38	0.047
809.81	0.043
810.25	0.044
810.68	0.045
811.12	0.041
811.55	0.042
811.99	0.042
812.42	0.044
812.86	0.044
813.29	0.044
813.73	0.042
814.17	0.047
814.60	0.041
815.04	0.046
815.47	0.040
815.91	0.044
816.34	0.045
816.78	0.042
817.21	0.043
817.65	0.044
818.08	0.040
