SpectraSuite Data File
++++++++++++++++++++++++++++++++++++
Date: Tue Jul 11 14:11:59 CEST 2017
User: IPCE
Dark Spectrum Present: Yes
Reference Spectrum Present: Yes
Number of Sampled Component Spectra: 1
Spectrometers: HR+C0708
Integration Time (usec): 1000 (HR+C0708)
Spectra Averaged: 10 (HR+C0708)
Boxcar Smoothing: 0 (HR+C0708)
Correct for Electrical Dark: No (HR+C0708)
Strobe/Lamp Enabled: No (HR+C0708)
Correct for Detector Non-linearity: No (HR+C0708)
Correct for Stray Light: No (HR+C0708)
Number of Pixels in Processed Spectrum: 2048
>>>>>Begin Processed Spectral Data<<<<<
188.76	0.514
189.23	-0.000
189.70	0.891
190.17	0.510
190.64	0.314
191.12	0.086
191.59	0.171
192.06	0.022
192.53	-0.053
193.01	0.599
193.48	0.051
193.95	-0.203
194.42	0.528
194.90	0.444
195.37	0.245
195.84	0.845
196.31	0.658
196.78	0.394
197.26	0.100
197.73	0.116
198.20	0.851
198.67	-0.000
199.14	-0.254
199.62	0.176
200.09	0.204
200.56	0.194
201.03	0.371
201.50	0.347
201.97	0.488
202.45	0.289
202.92	0.288
203.39	0.454
203.86	0.217
204.33	0.197
204.80	0.334
205.28	0.292
205.75	0.286
206.22	0.287
206.69	0.504
207.16	0.227
207.63	0.255
208.11	0.359
208.58	0.347
209.05	0.434
209.52	0.300
209.99	0.381
210.46	0.283
210.93	0.257
211.41	0.403
211.88	0.397
212.35	0.264
212.82	0.353
213.29	0.440
213.76	0.231
214.23	0.184
214.70	0.378
215.18	0.369
215.65	0.451
216.12	0.305
216.59	0.375
217.06	0.659
217.53	0.284
218.00	0.346
218.47	0.542
218.94	0.357
219.41	0.313
219.89	0.362
220.36	0.490
220.83	0.292
221.30	0.412
221.77	0.460
222.24	0.504
222.71	0.376
223.18	0.397
223.65	0.779
224.12	0.555
224.59	0.485
225.06	0.477
225.54	0.615
226.01	0.523
226.48	0.532
226.95	0.687
227.42	0.820
227.89	0.767
228.36	0.829
228.83	0.995
229.30	1.000
229.77	0.941
230.24	1.144
230.71	1.171
231.18	1.189
231.65	1.104
232.12	1.332
232.59	1.307
233.06	1.278
233.53	1.506
234.00	1.573
234.47	1.476
234.94	1.460
235.41	1.587
235.88	1.640
236.35	1.631
236.82	1.755
237.29	1.968
237.76	1.792
238.23	1.797
238.70	1.811
239.17	1.983
239.64	2.041
240.11	1.992
240.58	1.931
241.05	1.963
241.52	2.138
241.99	2.045
242.46	2.233
242.93	2.108
243.40	2.095
243.87	2.190
244.34	2.140
244.81	2.229
245.28	2.280
245.75	2.173
246.22	2.057
246.69	2.081
247.16	2.270
247.63	2.330
248.10	2.249
248.57	2.090
249.04	2.339
249.51	2.229
249.98	2.196
250.45	2.157
250.92	2.094
251.39	2.057
251.85	1.954
252.32	1.918
252.79	1.788
253.26	1.688
253.73	1.634
254.20	1.525
254.67	1.429
255.14	1.366
255.61	1.303
256.08	1.253
256.55	1.200
257.02	1.151
257.49	1.114
257.95	1.080
258.42	1.042
258.89	1.014
259.36	0.984
259.83	0.963
260.30	0.936
260.77	0.918
261.24	0.895
261.71	0.877
262.17	0.861
262.64	0.845
263.11	0.838
263.58	0.813
264.05	0.803
264.52	0.791
264.99	0.778
265.46	0.765
265.92	0.761
266.39	0.746
266.86	0.738
267.33	0.726
267.80	0.720
268.27	0.711
268.74	0.700
269.20	0.690
269.67	0.683
270.14	0.680
270.61	0.674
271.08	0.664
271.55	0.659
272.01	0.651
272.48	0.642
272.95	0.641
273.42	0.634
273.89	0.632
274.36	0.624
274.82	0.617
275.29	0.616
275.76	0.616
276.23	0.610
276.70	0.608
277.16	0.606
277.63	0.603
278.10	0.595
278.57	0.596
279.04	0.589
279.50	0.591
279.97	0.587
280.44	0.586
280.91	0.584
281.38	0.586
281.84	0.583
282.31	0.578
282.78	0.580
283.25	0.582
283.72	0.578
284.18	0.578
284.65	0.578
285.12	0.579
285.59	0.581
286.05	0.581
286.52	0.577
286.99	0.578
287.46	0.582
287.92	0.579
288.39	0.582
288.86	0.578
289.33	0.579
289.79	0.581
290.26	0.579
290.73	0.576
291.20	0.575
291.66	0.580
292.13	0.571
292.60	0.565
293.07	0.562
293.53	0.561
294.00	0.556
294.47	0.550
294.93	0.544
295.40	0.539
295.87	0.532
296.34	0.525
296.80	0.522
297.27	0.511
297.74	0.503
298.20	0.496
298.67	0.492
299.14	0.478
299.60	0.470
300.07	0.464
300.54	0.456
301.01	0.451
301.47	0.438
301.94	0.429
302.41	0.426
302.87	0.418
303.34	0.410
303.81	0.398
304.27	0.397
304.74	0.387
305.21	0.380
305.67	0.374
306.14	0.374
306.61	0.367
307.07	0.360
307.54	0.354
308.01	0.348
308.47	0.344
308.94	0.341
309.40	0.335
309.87	0.330
310.34	0.330
310.80	0.326
311.27	0.320
311.74	0.318
312.20	0.318
312.67	0.313
313.13	0.310
313.60	0.307
314.07	0.306
314.53	0.302
315.00	0.298
315.47	0.299
315.93	0.299
316.40	0.296
316.86	0.293
317.33	0.294
317.80	0.288
318.26	0.287
318.73	0.285
319.19	0.284
319.66	0.285
320.13	0.279
320.59	0.278
321.06	0.276
321.52	0.275
321.99	0.275
322.45	0.271
322.92	0.270
323.39	0.265
323.85	0.265
324.32	0.266
324.78	0.263
325.25	0.262
325.71	0.261
326.18	0.257
326.64	0.258
327.11	0.256
327.58	0.254
328.04	0.250
328.51	0.249
328.97	0.249
329.44	0.248
329.90	0.247
330.37	0.245
330.83	0.245
331.30	0.241
331.76	0.240
332.23	0.239
332.69	0.236
333.16	0.231
333.62	0.234
334.09	0.231
334.56	0.230
335.02	0.226
335.49	0.225
335.95	0.226
336.42	0.223
336.88	0.219
337.35	0.222
337.81	0.222
338.28	0.216
338.74	0.219
339.20	0.219
339.67	0.215
340.13	0.214
340.60	0.210
341.06	0.213
341.53	0.210
341.99	0.206
342.46	0.209
342.92	0.207
343.39	0.210
343.85	0.202
344.32	0.204
344.78	0.202
345.25	0.199
345.71	0.200
346.17	0.202
346.64	0.199
347.10	0.195
347.57	0.194
348.03	0.192
348.50	0.188
348.96	0.188
349.43	0.187
349.89	0.187
350.35	0.183
350.82	0.184
351.28	0.179
351.75	0.180
352.21	0.175
352.67	0.177
353.14	0.176
353.60	0.168
354.07	0.168
354.53	0.164
355.00	0.162
355.46	0.162
355.92	0.155
356.39	0.151
356.85	0.149
357.31	0.150
357.78	0.142
358.24	0.137
358.71	0.138
359.17	0.131
359.63	0.131
360.10	0.129
360.56	0.123
361.03	0.121
361.49	0.118
361.95	0.117
362.42	0.116
362.88	0.114
363.34	0.112
363.81	0.110
364.27	0.111
364.73	0.109
365.20	0.107
365.66	0.108
366.12	0.106
366.59	0.104
367.05	0.105
367.51	0.102
367.98	0.101
368.44	0.103
368.90	0.102
369.37	0.103
369.83	0.103
370.29	0.105
370.76	0.100
371.22	0.099
371.68	0.100
372.15	0.101
372.61	0.098
373.07	0.100
373.54	0.098
374.00	0.099
374.46	0.099
374.92	0.098
375.39	0.099
375.85	0.096
376.31	0.098
376.78	0.097
377.24	0.098
377.70	0.100
378.16	0.098
378.63	0.098
379.09	0.094
379.55	0.097
380.01	0.095
380.48	0.098
380.94	0.098
381.40	0.096
381.87	0.097
382.33	0.096
382.79	0.096
383.25	0.095
383.72	0.097
384.18	0.094
384.64	0.097
385.10	0.095
385.56	0.091
386.03	0.096
386.49	0.092
386.95	0.091
387.41	0.094
387.88	0.093
388.34	0.092
388.80	0.093
389.26	0.091
389.72	0.093
390.19	0.094
390.65	0.091
391.11	0.091
391.57	0.092
392.04	0.090
392.50	0.092
392.96	0.092
393.42	0.091
393.88	0.090
394.34	0.091
394.81	0.089
395.27	0.091
395.73	0.092
396.19	0.088
396.65	0.091
397.12	0.090
397.58	0.090
398.04	0.090
398.50	0.089
398.96	0.092
399.42	0.091
399.89	0.091
400.35	0.090
400.81	0.088
401.27	0.086
401.73	0.087
402.19	0.087
402.65	0.084
403.12	0.087
403.58	0.083
404.04	0.084
404.50	0.085
404.96	0.084
405.42	0.085
405.88	0.083
406.34	0.086
406.81	0.082
407.27	0.079
407.73	0.085
408.19	0.081
408.65	0.082
409.11	0.082
409.57	0.081
410.03	0.082
410.49	0.082
410.96	0.077
411.42	0.077
411.88	0.078
412.34	0.079
412.80	0.081
413.26	0.080
413.72	0.081
414.18	0.078
414.64	0.078
415.10	0.077
415.56	0.078
416.02	0.076
416.48	0.077
416.95	0.079
417.41	0.079
417.87	0.076
418.33	0.078
418.79	0.077
419.25	0.078
419.71	0.079
420.17	0.077
420.63	0.077
421.09	0.076
421.55	0.074
422.01	0.076
422.47	0.077
422.93	0.078
423.39	0.079
423.85	0.079
424.31	0.075
424.77	0.076
425.23	0.077
425.69	0.073
426.15	0.074
426.61	0.078
427.07	0.077
427.53	0.074
427.99	0.074
428.45	0.074
428.91	0.074
429.37	0.075
429.83	0.073
430.29	0.076
430.75	0.074
431.21	0.075
431.67	0.075
432.13	0.074
432.59	0.073
433.05	0.074
433.51	0.074
433.97	0.072
434.43	0.074
434.89	0.074
435.35	0.071
435.81	0.071
436.27	0.071
436.73	0.074
437.19	0.073
437.65	0.070
438.11	0.072
438.57	0.071
439.03	0.070
439.48	0.069
439.94	0.072
440.40	0.071
440.86	0.070
441.32	0.070
441.78	0.071
442.24	0.069
442.70	0.071
443.16	0.071
443.62	0.075
444.08	0.069
444.54	0.071
444.99	0.070
445.45	0.072
445.91	0.072
446.37	0.069
446.83	0.071
447.29	0.070
447.75	0.071
448.21	0.068
448.67	0.066
449.12	0.073
449.58	0.068
450.04	0.071
450.50	0.066
450.96	0.070
451.42	0.068
451.88	0.070
452.34	0.071
452.79	0.069
453.25	0.070
453.71	0.069
454.17	0.067
454.63	0.066
455.09	0.071
455.55	0.069
456.00	0.070
456.46	0.070
456.92	0.065
457.38	0.068
457.84	0.068
458.30	0.068
458.75	0.069
459.21	0.068
459.67	0.072
460.13	0.070
460.59	0.067
461.04	0.068
461.50	0.069
461.96	0.069
462.42	0.067
462.88	0.067
463.33	0.068
463.79	0.070
464.25	0.069
464.71	0.069
465.17	0.068
465.62	0.068
466.08	0.069
466.54	0.069
467.00	0.069
467.46	0.069
467.91	0.067
468.37	0.070
468.83	0.070
469.29	0.069
469.74	0.067
470.20	0.069
470.66	0.071
471.12	0.070
471.57	0.071
472.03	0.069
472.49	0.070
472.95	0.069
473.40	0.071
473.86	0.071
474.32	0.070
474.78	0.068
475.23	0.070
475.69	0.069
476.15	0.070
476.60	0.071
477.06	0.071
477.52	0.069
477.98	0.069
478.43	0.068
478.89	0.071
479.35	0.069
479.80	0.071
480.26	0.067
480.72	0.069
481.18	0.072
481.63	0.073
482.09	0.067
482.55	0.071
483.00	0.071
483.46	0.072
483.92	0.067
484.37	0.072
484.83	0.069
485.29	0.071
485.74	0.069
486.20	0.070
486.66	0.069
487.11	0.067
487.57	0.070
488.03	0.071
488.48	0.070
488.94	0.071
489.40	0.071
489.85	0.070
490.31	0.068
490.77	0.067
491.22	0.071
491.68	0.069
492.13	0.071
492.59	0.071
493.05	0.069
493.50	0.072
493.96	0.070
494.42	0.070
494.87	0.071
495.33	0.070
495.78	0.069
496.24	0.072
496.70	0.071
497.15	0.070
497.61	0.071
498.06	0.069
498.52	0.070
498.98	0.071
499.43	0.070
499.89	0.068
500.34	0.069
500.80	0.069
501.25	0.071
501.71	0.069
502.17	0.072
502.62	0.070
503.08	0.071
503.53	0.070
503.99	0.069
504.44	0.069
504.90	0.069
505.36	0.071
505.81	0.069
506.27	0.070
506.72	0.071
507.18	0.070
507.63	0.068
508.09	0.069
508.54	0.067
509.00	0.069
509.45	0.069
509.91	0.069
510.36	0.069
510.82	0.068
511.27	0.071
511.73	0.072
512.19	0.069
512.64	0.070
513.10	0.068
513.55	0.068
514.01	0.069
514.46	0.069
514.92	0.069
515.37	0.069
515.83	0.068
516.28	0.068
516.73	0.069
517.19	0.067
517.64	0.068
518.10	0.068
518.55	0.068
519.01	0.066
519.46	0.068
519.92	0.068
520.37	0.067
520.83	0.070
521.28	0.067
521.74	0.068
522.19	0.068
522.65	0.067
523.10	0.069
523.55	0.068
524.01	0.068
524.46	0.069
524.92	0.065
525.37	0.066
525.83	0.067
526.28	0.068
526.73	0.067
527.19	0.068
527.64	0.069
528.10	0.068
528.55	0.068
529.01	0.069
529.46	0.069
529.91	0.067
530.37	0.069
530.82	0.069
531.28	0.069
531.73	0.069
532.18	0.068
532.64	0.067
533.09	0.072
533.54	0.070
534.00	0.071
534.45	0.072
534.91	0.069
535.36	0.071
535.81	0.071
536.27	0.071
536.72	0.072
537.17	0.071
537.63	0.073
538.08	0.072
538.54	0.074
538.99	0.075
539.44	0.073
539.90	0.072
540.35	0.073
540.80	0.074
541.26	0.073
541.71	0.075
542.16	0.075
542.62	0.075
543.07	0.075
543.52	0.077
543.98	0.075
544.43	0.076
544.88	0.075
545.34	0.078
545.79	0.076
546.24	0.077
546.69	0.078
547.15	0.079
547.60	0.080
548.05	0.079
548.51	0.080
548.96	0.079
549.41	0.079
549.86	0.079
550.32	0.081
550.77	0.082
551.22	0.082
551.68	0.081
552.13	0.082
552.58	0.084
553.03	0.086
553.49	0.084
553.94	0.086
554.39	0.087
554.84	0.085
555.30	0.087
555.75	0.087
556.20	0.086
556.65	0.088
557.11	0.090
557.56	0.086
558.01	0.088
558.46	0.090
558.92	0.091
559.37	0.091
559.82	0.092
560.27	0.093
560.72	0.093
561.18	0.094
561.63	0.094
562.08	0.094
562.53	0.095
562.99	0.097
563.44	0.097
563.89	0.096
564.34	0.095
564.79	0.099
565.25	0.098
565.70	0.102
566.15	0.102
566.60	0.101
567.05	0.102
567.50	0.103
567.96	0.103
568.41	0.105
568.86	0.104
569.31	0.104
569.76	0.106
570.21	0.107
570.67	0.109
571.12	0.109
571.57	0.110
572.02	0.111
572.47	0.110
572.92	0.114
573.37	0.113
573.83	0.114
574.28	0.114
574.73	0.114
575.18	0.115
575.63	0.118
576.08	0.116
576.53	0.120
576.98	0.120
577.44	0.122
577.89	0.123
578.34	0.124
578.79	0.124
579.24	0.126
579.69	0.127
580.14	0.128
580.59	0.130
581.04	0.130
581.49	0.131
581.95	0.131
582.40	0.134
582.85	0.136
583.30	0.136
583.75	0.138
584.20	0.139
584.65	0.141
585.10	0.142
585.55	0.143
586.00	0.144
586.45	0.147
586.90	0.149
587.35	0.150
587.80	0.151
588.25	0.153
588.71	0.155
589.16	0.156
589.61	0.159
590.06	0.161
590.51	0.162
590.96	0.164
591.41	0.167
591.86	0.167
592.31	0.171
592.76	0.172
593.21	0.172
593.66	0.176
594.11	0.180
594.56	0.180
595.01	0.181
595.46	0.184
595.91	0.187
596.36	0.189
596.81	0.188
597.26	0.192
597.71	0.195
598.16	0.196
598.61	0.197
599.06	0.199
599.51	0.199
599.96	0.205
600.41	0.207
600.86	0.207
601.31	0.207
601.76	0.214
602.21	0.212
602.65	0.217
603.10	0.217
603.55	0.218
604.00	0.222
604.45	0.224
604.90	0.225
605.35	0.226
605.80	0.229
606.25	0.231
606.70	0.233
607.15	0.233
607.60	0.235
608.05	0.238
608.50	0.236
608.95	0.242
609.39	0.241
609.84	0.244
610.29	0.245
610.74	0.244
611.19	0.244
611.64	0.247
612.09	0.250
612.54	0.248
612.99	0.249
613.44	0.250
613.88	0.250
614.33	0.253
614.78	0.253
615.23	0.256
615.68	0.255
616.13	0.255
616.58	0.258
617.03	0.257
617.47	0.258
617.92	0.259
618.37	0.259
618.82	0.260
619.27	0.261
619.72	0.261
620.17	0.264
620.61	0.261
621.06	0.262
621.51	0.266
621.96	0.265
622.41	0.266
622.86	0.267
623.30	0.266
623.75	0.267
624.20	0.267
624.65	0.269
625.10	0.272
625.54	0.271
625.99	0.271
626.44	0.274
626.89	0.274
627.34	0.276
627.78	0.277
628.23	0.277
628.68	0.279
629.13	0.279
629.58	0.281
630.02	0.283
630.47	0.285
630.92	0.287
631.37	0.288
631.81	0.288
632.26	0.291
632.71	0.293
633.16	0.294
633.61	0.296
634.05	0.299
634.50	0.301
634.95	0.305
635.40	0.306
635.84	0.307
636.29	0.310
636.74	0.310
637.18	0.315
637.63	0.318
638.08	0.319
638.53	0.323
638.97	0.323
639.42	0.327
639.87	0.331
640.32	0.336
640.76	0.336
641.21	0.340
641.66	0.342
642.10	0.346
642.55	0.347
643.00	0.352
643.44	0.354
643.89	0.355
644.34	0.361
644.79	0.365
645.23	0.368
645.68	0.373
646.13	0.375
646.57	0.377
647.02	0.383
647.47	0.383
647.91	0.389
648.36	0.392
648.81	0.393
649.25	0.397
649.70	0.400
650.15	0.404
650.59	0.408
651.04	0.411
651.48	0.412
651.93	0.415
652.38	0.417
652.82	0.420
653.27	0.424
653.72	0.426
654.16	0.430
654.61	0.431
655.06	0.433
655.50	0.435
655.95	0.437
656.39	0.439
656.84	0.445
657.29	0.446
657.73	0.448
658.18	0.451
658.62	0.451
659.07	0.453
659.52	0.453
659.96	0.455
660.41	0.458
660.85	0.460
661.30	0.462
661.74	0.461
662.19	0.459
662.64	0.464
663.08	0.466
663.53	0.466
663.97	0.464
664.42	0.466
664.86	0.466
665.31	0.471
665.75	0.467
666.20	0.466
666.65	0.467
667.09	0.464
667.54	0.461
667.98	0.457
668.43	0.457
668.87	0.456
669.32	0.451
669.76	0.448
670.21	0.444
670.65	0.437
671.10	0.438
671.54	0.433
671.99	0.429
672.43	0.423
672.88	0.416
673.32	0.410
673.77	0.404
674.21	0.399
674.66	0.393
675.10	0.384
675.55	0.378
675.99	0.371
676.44	0.366
676.88	0.357
677.33	0.350
677.77	0.341
678.22	0.331
678.66	0.324
679.11	0.316
679.55	0.310
679.99	0.297
680.44	0.293
680.88	0.284
681.33	0.276
681.77	0.265
682.22	0.258
682.66	0.249
683.11	0.243
683.55	0.231
683.99	0.227
684.44	0.220
684.88	0.213
685.33	0.205
685.77	0.198
686.21	0.194
686.66	0.185
687.10	0.180
687.55	0.172
687.99	0.165
688.44	0.161
688.88	0.156
689.32	0.148
689.77	0.142
690.21	0.139
690.65	0.136
691.10	0.128
691.54	0.124
691.99	0.118
692.43	0.116
692.87	0.112
693.32	0.109
693.76	0.103
694.20	0.102
694.65	0.100
695.09	0.096
695.53	0.092
695.98	0.090
696.42	0.087
696.86	0.082
697.31	0.081
697.75	0.079
698.19	0.075
698.64	0.074
699.08	0.075
699.52	0.072
699.97	0.070
700.41	0.070
700.85	0.067
701.30	0.063
701.74	0.060
702.18	0.062
702.63	0.060
703.07	0.058
703.51	0.059
703.96	0.058
704.40	0.056
704.84	0.053
705.28	0.053
705.73	0.051
706.17	0.052
706.61	0.050
707.06	0.051
707.50	0.048
707.94	0.046
708.38	0.047
708.83	0.048
709.27	0.046
709.71	0.045
710.15	0.046
710.60	0.046
711.04	0.045
711.48	0.044
711.92	0.045
712.37	0.041
712.81	0.042
713.25	0.041
713.69	0.043
714.13	0.038
714.58	0.039
715.02	0.040
715.46	0.038
715.90	0.040
716.35	0.043
716.79	0.040
717.23	0.043
717.67	0.040
718.11	0.040
718.56	0.039
719.00	0.039
719.44	0.039
719.88	0.040
720.32	0.038
720.76	0.039
721.21	0.039
721.65	0.039
722.09	0.041
722.53	0.038
722.97	0.040
723.41	0.038
723.86	0.038
724.30	0.040
724.74	0.040
725.18	0.039
725.62	0.042
726.06	0.040
726.50	0.040
726.95	0.039
727.39	0.038
727.83	0.041
728.27	0.039
728.71	0.040
729.15	0.040
729.59	0.041
730.03	0.040
730.48	0.044
730.92	0.040
731.36	0.040
731.80	0.039
732.24	0.042
732.68	0.041
733.12	0.043
733.56	0.043
734.00	0.039
734.44	0.040
734.89	0.041
735.33	0.043
735.77	0.041
736.21	0.038
736.65	0.041
737.09	0.042
737.53	0.044
737.97	0.043
738.41	0.042
738.85	0.044
739.29	0.045
739.73	0.041
740.17	0.043
740.61	0.040
741.05	0.040
741.49	0.043
741.93	0.041
742.37	0.042
742.81	0.041
743.26	0.041
743.70	0.042
744.14	0.044
744.58	0.040
745.02	0.043
745.46	0.045
745.90	0.045
746.34	0.041
746.78	0.042
747.22	0.040
747.66	0.041
748.10	0.042
748.54	0.040
748.98	0.041
749.42	0.042
749.86	0.043
750.29	0.043
750.73	0.043
751.17	0.042
751.61	0.040
752.05	0.043
752.49	0.040
752.93	0.042
753.37	0.041
753.81	0.042
754.25	0.042
754.69	0.041
755.13	0.040
755.57	0.040
756.01	0.040
756.45	0.042
756.89	0.046
757.33	0.040
757.77	0.039
758.21	0.042
758.64	0.042
759.08	0.038
759.52	0.043
759.96	0.038
760.40	0.040
760.84	0.043
761.28	0.040
761.72	0.041
762.16	0.038
762.60	0.040
763.03	0.040
763.47	0.038
763.91	0.042
764.35	0.041
764.79	0.042
765.23	0.038
765.67	0.043
766.11	0.041
766.54	0.039
766.98	0.040
767.42	0.041
767.86	0.038
768.30	0.041
768.74	0.036
769.17	0.037
769.61	0.043
770.05	0.039
770.49	0.040
770.93	0.042
771.37	0.038
771.80	0.039
772.24	0.040
772.68	0.042
773.12	0.041
773.56	0.040
774.00	0.039
774.43	0.041
774.87	0.039
775.31	0.042
775.75	0.042
776.19	0.039
776.62	0.040
777.06	0.039
777.50	0.039
777.94	0.038
778.37	0.040
778.81	0.039
779.25	0.045
779.69	0.039
780.13	0.037
780.56	0.039
781.00	0.041
781.44	0.039
781.88	0.040
782.31	0.042
782.75	0.041
783.19	0.041
783.63	0.040
784.06	0.037
784.50	0.037
784.94	0.038
785.37	0.041
785.81	0.042
786.25	0.039
786.69	0.041
787.12	0.042
787.56	0.041
788.00	0.039
788.43	0.039
788.87	0.036
789.31	0.041
789.75	0.042
790.18	0.040
790.62	0.041
791.06	0.038
791.49	0.035
791.93	0.041
792.37	0.039
792.80	0.041
793.24	0.039
793.68	0.040
794.11	0.037
794.55	0.039
794.99	0.040
795.42	0.035
795.86	0.040
796.30	0.037
796.73	0.040
797.17	0.040
797.61	0.037
798.04	0.039
798.48	0.039
798.91	0.040
799.35	0.036
799.79	0.042
800.22	0.036
800.66	0.036
801.10	0.038
801.53	0.044
801.97	0.041
802.40	0.037
802.84	0.038
803.28	0.036
803.71	0.036
804.15	0.039
804.58	0.043
805.02	0.036
805.46	0.039
805.89	0.042
806.33	0.038
806.76	0.038
807.20	0.035
807.63	0.038
808.07	0.038
808.51	0.033
808.94	0.041
809.38	0.039
809.81	0.034
810.25	0.039
810.68	0.038
811.12	0.036
811.55	0.039
811.99	0.034
812.42	0.041
812.86	0.039
813.29	0.038
813.73	0.038
814.17	0.039
814.60	0.037
815.04	0.038
815.47	0.038
815.91	0.040
816.34	0.040
816.78	0.040
817.21	0.036
817.65	0.038
818.08	0.036
