SpectraSuite Data File
++++++++++++++++++++++++++++++++++++
Date: Tue Jul 11 14:06:29 CEST 2017
User: IPCE
Dark Spectrum Present: Yes
Reference Spectrum Present: Yes
Number of Sampled Component Spectra: 1
Spectrometers: HR+C0708
Integration Time (usec): 1000 (HR+C0708)
Spectra Averaged: 10 (HR+C0708)
Boxcar Smoothing: 0 (HR+C0708)
Correct for Electrical Dark: No (HR+C0708)
Strobe/Lamp Enabled: No (HR+C0708)
Correct for Detector Non-linearity: No (HR+C0708)
Correct for Stray Light: No (HR+C0708)
Number of Pixels in Processed Spectrum: 2048
>>>>>Begin Processed Spectral Data<<<<<
188.76	0.096
189.23	-0.000
189.70	0.483
190.17	0.314
190.64	0.182
191.12	0.159
191.59	0.244
192.06	0.181
192.53	0.284
193.01	0.304
193.48	-0.078
193.95	-0.261
194.42	0.352
194.90	0.202
195.37	-0.204
195.84	1.991
196.31	0.482
196.78	0.443
197.26	0.337
197.73	0.075
198.20	0.675
198.67	-0.342
199.14	-0.301
199.62	0.778
200.09	0.231
200.56	0.152
201.03	0.386
201.50	0.343
201.97	0.396
202.45	0.255
202.92	0.273
203.39	0.608
203.86	0.428
204.33	0.230
204.80	0.396
205.28	0.378
205.75	0.207
206.22	0.368
206.69	0.422
207.16	0.161
207.63	0.309
208.11	0.392
208.58	0.395
209.05	0.461
209.52	0.243
209.99	0.558
210.46	0.279
210.93	0.250
211.41	0.378
211.88	0.283
212.35	0.307
212.82	0.385
213.29	0.448
213.76	0.539
214.23	0.276
214.70	0.271
215.18	0.360
215.65	0.409
216.12	0.305
216.59	0.535
217.06	0.436
217.53	0.262
218.00	0.293
218.47	0.437
218.94	0.491
219.41	0.368
219.89	0.376
220.36	0.505
220.83	0.443
221.30	0.363
221.77	0.414
222.24	0.539
222.71	0.383
223.18	0.478
223.65	0.693
224.12	0.673
224.59	0.416
225.06	0.494
225.54	0.593
226.01	0.643
226.48	0.581
226.95	0.867
227.42	0.779
227.89	0.683
228.36	0.929
228.83	1.007
229.30	1.077
229.77	0.990
230.24	1.078
230.71	1.284
231.18	1.110
231.65	1.119
232.12	1.353
232.59	1.423
233.06	1.231
233.53	1.648
234.00	1.406
234.47	1.528
234.94	1.533
235.41	1.578
235.88	1.831
236.35	1.603
236.82	1.617
237.29	1.921
237.76	1.776
238.23	1.743
238.70	1.819
239.17	1.967
239.64	2.201
240.11	1.926
240.58	1.936
241.05	2.115
241.52	2.026
241.99	1.944
242.46	2.256
242.93	2.172
243.40	2.090
243.87	2.146
244.34	2.253
244.81	2.095
245.28	2.179
245.75	2.210
246.22	2.178
246.69	2.131
247.16	2.247
247.63	2.528
248.10	2.291
248.57	2.068
249.04	2.404
249.51	2.285
249.98	2.219
250.45	2.213
250.92	2.106
251.39	2.155
251.85	2.020
252.32	1.893
252.79	1.835
253.26	1.747
253.73	1.627
254.20	1.559
254.67	1.507
255.14	1.395
255.61	1.367
256.08	1.303
256.55	1.242
257.02	1.179
257.49	1.156
257.95	1.125
258.42	1.090
258.89	1.052
259.36	1.030
259.83	1.003
260.30	0.977
260.77	0.963
261.24	0.938
261.71	0.922
262.17	0.899
262.64	0.888
263.11	0.875
263.58	0.854
264.05	0.844
264.52	0.835
264.99	0.821
265.46	0.804
265.92	0.802
266.39	0.791
266.86	0.777
267.33	0.765
267.80	0.758
268.27	0.755
268.74	0.742
269.20	0.733
269.67	0.728
270.14	0.720
270.61	0.715
271.08	0.708
271.55	0.695
272.01	0.692
272.48	0.684
272.95	0.679
273.42	0.675
273.89	0.665
274.36	0.666
274.82	0.663
275.29	0.658
275.76	0.649
276.23	0.646
276.70	0.643
277.16	0.642
277.63	0.639
278.10	0.638
278.57	0.631
279.04	0.628
279.50	0.629
279.97	0.628
280.44	0.623
280.91	0.622
281.38	0.625
281.84	0.623
282.31	0.617
282.78	0.620
283.25	0.620
283.72	0.620
284.18	0.617
284.65	0.622
285.12	0.617
285.59	0.615
286.05	0.618
286.52	0.622
286.99	0.621
287.46	0.620
287.92	0.619
288.39	0.619
288.86	0.622
289.33	0.619
289.79	0.616
290.26	0.620
290.73	0.616
291.20	0.613
291.66	0.617
292.13	0.607
292.60	0.604
293.07	0.601
293.53	0.600
294.00	0.594
294.47	0.589
294.93	0.586
295.40	0.580
295.87	0.568
296.34	0.565
296.80	0.562
297.27	0.551
297.74	0.539
298.20	0.536
298.67	0.527
299.14	0.518
299.60	0.510
300.07	0.502
300.54	0.490
301.01	0.487
301.47	0.472
301.94	0.467
302.41	0.460
302.87	0.449
303.34	0.445
303.81	0.440
304.27	0.429
304.74	0.419
305.21	0.415
305.67	0.411
306.14	0.405
306.61	0.396
307.07	0.394
307.54	0.385
308.01	0.379
308.47	0.377
308.94	0.373
309.40	0.366
309.87	0.362
310.34	0.358
310.80	0.358
311.27	0.350
311.74	0.348
312.20	0.347
312.67	0.343
313.13	0.336
313.60	0.338
314.07	0.337
314.53	0.330
315.00	0.328
315.47	0.327
315.93	0.326
316.40	0.324
316.86	0.321
317.33	0.322
317.80	0.316
318.26	0.314
318.73	0.312
319.19	0.312
319.66	0.307
320.13	0.307
320.59	0.306
321.06	0.305
321.52	0.301
321.99	0.299
322.45	0.297
322.92	0.295
323.39	0.293
323.85	0.291
324.32	0.288
324.78	0.285
325.25	0.289
325.71	0.284
326.18	0.286
326.64	0.280
327.11	0.279
327.58	0.280
328.04	0.276
328.51	0.272
328.97	0.271
329.44	0.273
329.90	0.268
330.37	0.263
330.83	0.265
331.30	0.263
331.76	0.259
332.23	0.258
332.69	0.256
333.16	0.254
333.62	0.254
334.09	0.254
334.56	0.256
335.02	0.249
335.49	0.243
335.95	0.247
336.42	0.245
336.88	0.240
337.35	0.242
337.81	0.242
338.28	0.236
338.74	0.239
339.20	0.237
339.67	0.238
340.13	0.235
340.60	0.234
341.06	0.233
341.53	0.232
341.99	0.229
342.46	0.229
342.92	0.229
343.39	0.227
343.85	0.220
344.32	0.221
344.78	0.221
345.25	0.220
345.71	0.223
346.17	0.223
346.64	0.216
347.10	0.216
347.57	0.214
348.03	0.213
348.50	0.207
348.96	0.207
349.43	0.205
349.89	0.205
350.35	0.198
350.82	0.201
351.28	0.199
351.75	0.198
352.21	0.189
352.67	0.191
353.14	0.188
353.60	0.183
354.07	0.175
354.53	0.179
355.00	0.172
355.46	0.164
355.92	0.165
356.39	0.162
356.85	0.154
357.31	0.156
357.78	0.144
358.24	0.140
358.71	0.138
359.17	0.133
359.63	0.128
360.10	0.127
360.56	0.117
361.03	0.118
361.49	0.115
361.95	0.109
362.42	0.111
362.88	0.109
363.34	0.107
363.81	0.104
364.27	0.104
364.73	0.104
365.20	0.100
365.66	0.101
366.12	0.103
366.59	0.098
367.05	0.100
367.51	0.097
367.98	0.096
368.44	0.097
368.90	0.096
369.37	0.093
369.83	0.098
370.29	0.099
370.76	0.092
371.22	0.094
371.68	0.094
372.15	0.093
372.61	0.092
373.07	0.094
373.54	0.093
374.00	0.095
374.46	0.092
374.92	0.094
375.39	0.092
375.85	0.089
376.31	0.091
376.78	0.093
377.24	0.092
377.70	0.091
378.16	0.091
378.63	0.091
379.09	0.089
379.55	0.093
380.01	0.090
380.48	0.090
380.94	0.090
381.40	0.091
381.87	0.091
382.33	0.089
382.79	0.089
383.25	0.090
383.72	0.089
384.18	0.087
384.64	0.085
385.10	0.088
385.56	0.086
386.03	0.087
386.49	0.089
386.95	0.086
387.41	0.088
387.88	0.083
388.34	0.087
388.80	0.087
389.26	0.083
389.72	0.086
390.19	0.086
390.65	0.086
391.11	0.085
391.57	0.085
392.04	0.083
392.50	0.086
392.96	0.085
393.42	0.085
393.88	0.085
394.34	0.084
394.81	0.084
395.27	0.082
395.73	0.083
396.19	0.083
396.65	0.083
397.12	0.080
397.58	0.081
398.04	0.084
398.50	0.082
398.96	0.084
399.42	0.084
399.89	0.081
400.35	0.081
400.81	0.081
401.27	0.080
401.73	0.081
402.19	0.081
402.65	0.077
403.12	0.078
403.58	0.075
404.04	0.076
404.50	0.076
404.96	0.077
405.42	0.075
405.88	0.077
406.34	0.076
406.81	0.075
407.27	0.075
407.73	0.075
408.19	0.074
408.65	0.074
409.11	0.074
409.57	0.077
410.03	0.074
410.49	0.072
410.96	0.070
411.42	0.070
411.88	0.071
412.34	0.073
412.80	0.071
413.26	0.073
413.72	0.074
414.18	0.070
414.64	0.069
415.10	0.071
415.56	0.070
416.02	0.069
416.48	0.072
416.95	0.071
417.41	0.071
417.87	0.066
418.33	0.072
418.79	0.070
419.25	0.069
419.71	0.071
420.17	0.069
420.63	0.069
421.09	0.068
421.55	0.068
422.01	0.068
422.47	0.070
422.93	0.069
423.39	0.071
423.85	0.071
424.31	0.069
424.77	0.068
425.23	0.068
425.69	0.064
426.15	0.067
426.61	0.069
427.07	0.068
427.53	0.068
427.99	0.068
428.45	0.069
428.91	0.065
429.37	0.065
429.83	0.067
430.29	0.070
430.75	0.069
431.21	0.066
431.67	0.068
432.13	0.068
432.59	0.067
433.05	0.067
433.51	0.068
433.97	0.066
434.43	0.065
434.89	0.067
435.35	0.063
435.81	0.063
436.27	0.062
436.73	0.066
437.19	0.068
437.65	0.066
438.11	0.063
438.57	0.064
439.03	0.060
439.48	0.061
439.94	0.066
440.40	0.064
440.86	0.064
441.32	0.060
441.78	0.063
442.24	0.063
442.70	0.064
443.16	0.066
443.62	0.068
444.08	0.061
444.54	0.063
444.99	0.060
445.45	0.066
445.91	0.062
446.37	0.060
446.83	0.064
447.29	0.062
447.75	0.062
448.21	0.061
448.67	0.061
449.12	0.063
449.58	0.060
450.04	0.062
450.50	0.062
450.96	0.059
451.42	0.061
451.88	0.062
452.34	0.061
452.79	0.058
453.25	0.062
453.71	0.058
454.17	0.059
454.63	0.061
455.09	0.064
455.55	0.064
456.00	0.062
456.46	0.059
456.92	0.058
457.38	0.059
457.84	0.060
458.30	0.061
458.75	0.063
459.21	0.061
459.67	0.061
460.13	0.060
460.59	0.061
461.04	0.060
461.50	0.062
461.96	0.061
462.42	0.062
462.88	0.061
463.33	0.059
463.79	0.061
464.25	0.060
464.71	0.061
465.17	0.061
465.62	0.064
466.08	0.060
466.54	0.061
467.00	0.062
467.46	0.060
467.91	0.061
468.37	0.061
468.83	0.062
469.29	0.062
469.74	0.059
470.20	0.062
470.66	0.066
471.12	0.062
471.57	0.062
472.03	0.063
472.49	0.062
472.95	0.063
473.40	0.062
473.86	0.064
474.32	0.062
474.78	0.062
475.23	0.063
475.69	0.061
476.15	0.063
476.60	0.065
477.06	0.062
477.52	0.060
477.98	0.062
478.43	0.062
478.89	0.062
479.35	0.062
479.80	0.063
480.26	0.058
480.72	0.061
481.18	0.064
481.63	0.064
482.09	0.061
482.55	0.061
483.00	0.062
483.46	0.062
483.92	0.062
484.37	0.063
484.83	0.061
485.29	0.065
485.74	0.062
486.20	0.062
486.66	0.064
487.11	0.061
487.57	0.062
488.03	0.062
488.48	0.062
488.94	0.062
489.40	0.062
489.85	0.064
490.31	0.062
490.77	0.060
491.22	0.063
491.68	0.061
492.13	0.062
492.59	0.062
493.05	0.064
493.50	0.065
493.96	0.062
494.42	0.062
494.87	0.063
495.33	0.062
495.78	0.062
496.24	0.063
496.70	0.064
497.15	0.065
497.61	0.064
498.06	0.065
498.52	0.062
498.98	0.063
499.43	0.064
499.89	0.064
500.34	0.064
500.80	0.061
501.25	0.063
501.71	0.062
502.17	0.063
502.62	0.063
503.08	0.063
503.53	0.062
503.99	0.062
504.44	0.061
504.90	0.060
505.36	0.063
505.81	0.063
506.27	0.062
506.72	0.065
507.18	0.064
507.63	0.060
508.09	0.063
508.54	0.061
509.00	0.061
509.45	0.061
509.91	0.060
510.36	0.063
510.82	0.061
511.27	0.063
511.73	0.064
512.19	0.063
512.64	0.062
513.10	0.063
513.55	0.061
514.01	0.061
514.46	0.063
514.92	0.063
515.37	0.061
515.83	0.063
516.28	0.062
516.73	0.063
517.19	0.062
517.64	0.059
518.10	0.062
518.55	0.060
519.01	0.061
519.46	0.062
519.92	0.062
520.37	0.062
520.83	0.065
521.28	0.061
521.74	0.061
522.19	0.061
522.65	0.059
523.10	0.064
523.55	0.061
524.01	0.059
524.46	0.062
524.92	0.060
525.37	0.060
525.83	0.063
526.28	0.064
526.73	0.063
527.19	0.061
527.64	0.061
528.10	0.064
528.55	0.064
529.01	0.062
529.46	0.061
529.91	0.062
530.37	0.062
530.82	0.063
531.28	0.063
531.73	0.063
532.18	0.064
532.64	0.061
533.09	0.064
533.54	0.065
534.00	0.062
534.45	0.065
534.91	0.065
535.36	0.065
535.81	0.062
536.27	0.065
536.72	0.067
537.17	0.065
537.63	0.065
538.08	0.066
538.54	0.067
538.99	0.068
539.44	0.066
539.90	0.067
540.35	0.067
540.80	0.067
541.26	0.067
541.71	0.071
542.16	0.068
542.62	0.069
543.07	0.071
543.52	0.071
543.98	0.066
544.43	0.070
544.88	0.070
545.34	0.072
545.79	0.071
546.24	0.071
546.69	0.072
547.15	0.073
547.60	0.073
548.05	0.072
548.51	0.073
548.96	0.072
549.41	0.074
549.86	0.073
550.32	0.074
550.77	0.074
551.22	0.077
551.68	0.076
552.13	0.077
552.58	0.079
553.03	0.079
553.49	0.078
553.94	0.078
554.39	0.081
554.84	0.079
555.30	0.081
555.75	0.082
556.20	0.082
556.65	0.082
557.11	0.083
557.56	0.081
558.01	0.085
558.46	0.086
558.92	0.083
559.37	0.088
559.82	0.088
560.27	0.088
560.72	0.087
561.18	0.089
561.63	0.088
562.08	0.088
562.53	0.090
562.99	0.094
563.44	0.092
563.89	0.092
564.34	0.092
564.79	0.093
565.25	0.094
565.70	0.096
566.15	0.098
566.60	0.097
567.05	0.100
567.50	0.099
567.96	0.099
568.41	0.100
568.86	0.099
569.31	0.101
569.76	0.100
570.21	0.100
570.67	0.105
571.12	0.106
571.57	0.106
572.02	0.109
572.47	0.106
572.92	0.110
573.37	0.109
573.83	0.109
574.28	0.110
574.73	0.112
575.18	0.112
575.63	0.114
576.08	0.112
576.53	0.114
576.98	0.115
577.44	0.120
577.89	0.118
578.34	0.121
578.79	0.120
579.24	0.123
579.69	0.124
580.14	0.124
580.59	0.126
581.04	0.126
581.49	0.127
581.95	0.130
582.40	0.131
582.85	0.132
583.30	0.133
583.75	0.135
584.20	0.137
584.65	0.140
585.10	0.138
585.55	0.142
586.00	0.142
586.45	0.144
586.90	0.147
587.35	0.148
587.80	0.150
588.25	0.151
588.71	0.153
589.16	0.155
589.61	0.157
590.06	0.160
590.51	0.161
590.96	0.164
591.41	0.166
591.86	0.165
592.31	0.168
592.76	0.170
593.21	0.172
593.66	0.174
594.11	0.178
594.56	0.179
595.01	0.181
595.46	0.183
595.91	0.189
596.36	0.187
596.81	0.189
597.26	0.192
597.71	0.195
598.16	0.197
598.61	0.198
599.06	0.199
599.51	0.202
599.96	0.204
600.41	0.207
600.86	0.207
601.31	0.206
601.76	0.214
602.21	0.212
602.65	0.215
603.10	0.218
603.55	0.218
604.00	0.223
604.45	0.223
604.90	0.228
605.35	0.228
605.80	0.232
606.25	0.231
606.70	0.235
607.15	0.236
607.60	0.236
608.05	0.239
608.50	0.240
608.95	0.243
609.39	0.244
609.84	0.246
610.29	0.248
610.74	0.244
611.19	0.248
611.64	0.253
612.09	0.252
612.54	0.253
612.99	0.250
613.44	0.254
613.88	0.254
614.33	0.256
614.78	0.256
615.23	0.259
615.68	0.257
616.13	0.258
616.58	0.262
617.03	0.259
617.47	0.260
617.92	0.261
618.37	0.262
618.82	0.264
619.27	0.262
619.72	0.261
620.17	0.265
620.61	0.265
621.06	0.265
621.51	0.270
621.96	0.268
622.41	0.267
622.86	0.271
623.30	0.270
623.75	0.269
624.20	0.272
624.65	0.272
625.10	0.274
625.54	0.275
625.99	0.276
626.44	0.278
626.89	0.278
627.34	0.279
627.78	0.281
628.23	0.280
628.68	0.283
629.13	0.282
629.58	0.284
630.02	0.287
630.47	0.288
630.92	0.291
631.37	0.291
631.81	0.292
632.26	0.294
632.71	0.296
633.16	0.297
633.61	0.300
634.05	0.302
634.50	0.303
634.95	0.306
635.40	0.310
635.84	0.309
636.29	0.315
636.74	0.316
637.18	0.319
637.63	0.321
638.08	0.323
638.53	0.327
638.97	0.329
639.42	0.333
639.87	0.338
640.32	0.340
640.76	0.341
641.21	0.343
641.66	0.347
642.10	0.350
642.55	0.353
643.00	0.357
643.44	0.359
643.89	0.364
644.34	0.366
644.79	0.371
645.23	0.374
645.68	0.379
646.13	0.380
646.57	0.386
647.02	0.385
647.47	0.393
647.91	0.395
648.36	0.400
648.81	0.403
649.25	0.405
649.70	0.407
650.15	0.411
650.59	0.415
651.04	0.421
651.48	0.422
651.93	0.422
652.38	0.427
652.82	0.431
653.27	0.435
653.72	0.439
654.16	0.438
654.61	0.441
655.06	0.443
655.50	0.447
655.95	0.445
656.39	0.454
656.84	0.456
657.29	0.456
657.73	0.458
658.18	0.462
658.62	0.462
659.07	0.465
659.52	0.469
659.96	0.470
660.41	0.469
660.85	0.470
661.30	0.475
661.74	0.474
662.19	0.476
662.64	0.477
663.08	0.478
663.53	0.482
663.97	0.479
664.42	0.481
664.86	0.481
665.31	0.481
665.75	0.480
666.20	0.478
666.65	0.477
667.09	0.477
667.54	0.475
667.98	0.470
668.43	0.473
668.87	0.468
669.32	0.466
669.76	0.463
670.21	0.458
670.65	0.454
671.10	0.452
671.54	0.446
671.99	0.442
672.43	0.433
672.88	0.431
673.32	0.423
673.77	0.416
674.21	0.412
674.66	0.402
675.10	0.396
675.55	0.389
675.99	0.381
676.44	0.374
676.88	0.367
677.33	0.360
677.77	0.347
678.22	0.338
678.66	0.333
679.11	0.324
679.55	0.315
679.99	0.306
680.44	0.299
680.88	0.290
681.33	0.280
681.77	0.272
682.22	0.265
682.66	0.253
683.11	0.246
683.55	0.237
683.99	0.229
684.44	0.223
684.88	0.216
685.33	0.208
685.77	0.202
686.21	0.194
686.66	0.185
687.10	0.179
687.55	0.173
687.99	0.166
688.44	0.159
688.88	0.154
689.32	0.148
689.77	0.143
690.21	0.140
690.65	0.135
691.10	0.128
691.54	0.124
691.99	0.117
692.43	0.114
692.87	0.111
693.32	0.109
693.76	0.102
694.20	0.103
694.65	0.097
695.09	0.093
695.53	0.091
695.98	0.087
696.42	0.084
696.86	0.078
697.31	0.078
697.75	0.076
698.19	0.073
698.64	0.070
699.08	0.073
699.52	0.069
699.97	0.067
700.41	0.066
700.85	0.063
701.30	0.061
701.74	0.057
702.18	0.058
702.63	0.056
703.07	0.056
703.51	0.055
703.96	0.054
704.40	0.051
704.84	0.049
705.28	0.050
705.73	0.048
706.17	0.049
706.61	0.047
707.06	0.047
707.50	0.046
707.94	0.041
708.38	0.042
708.83	0.041
709.27	0.044
709.71	0.041
710.15	0.041
710.60	0.043
711.04	0.041
711.48	0.040
711.92	0.039
712.37	0.039
712.81	0.035
713.25	0.038
713.69	0.039
714.13	0.035
714.58	0.035
715.02	0.036
715.46	0.035
715.90	0.035
716.35	0.038
716.79	0.034
717.23	0.035
717.67	0.037
718.11	0.037
718.56	0.033
719.00	0.034
719.44	0.036
719.88	0.033
720.32	0.034
720.76	0.036
721.21	0.034
721.65	0.035
722.09	0.036
722.53	0.036
722.97	0.034
723.41	0.034
723.86	0.036
724.30	0.034
724.74	0.036
725.18	0.034
725.62	0.038
726.06	0.036
726.50	0.036
726.95	0.035
727.39	0.035
727.83	0.035
728.27	0.033
728.71	0.035
729.15	0.036
729.59	0.036
730.03	0.036
730.48	0.038
730.92	0.033
731.36	0.036
731.80	0.034
732.24	0.037
732.68	0.038
733.12	0.040
733.56	0.036
734.00	0.036
734.44	0.038
734.89	0.038
735.33	0.037
735.77	0.038
736.21	0.035
736.65	0.037
737.09	0.035
737.53	0.039
737.97	0.040
738.41	0.037
738.85	0.039
739.29	0.038
739.73	0.037
740.17	0.037
740.61	0.039
741.05	0.038
741.49	0.039
741.93	0.037
742.37	0.037
742.81	0.040
743.26	0.039
743.70	0.036
744.14	0.040
744.58	0.040
745.02	0.038
745.46	0.041
745.90	0.037
746.34	0.038
746.78	0.037
747.22	0.036
747.66	0.037
748.10	0.035
748.54	0.036
748.98	0.037
749.42	0.039
749.86	0.037
750.29	0.038
750.73	0.040
751.17	0.038
751.61	0.037
752.05	0.038
752.49	0.037
752.93	0.037
753.37	0.038
753.81	0.039
754.25	0.038
754.69	0.036
755.13	0.036
755.57	0.038
756.01	0.034
756.45	0.036
756.89	0.040
757.33	0.038
757.77	0.035
758.21	0.038
758.64	0.036
759.08	0.035
759.52	0.037
759.96	0.035
760.40	0.035
760.84	0.038
761.28	0.039
761.72	0.033
762.16	0.038
762.60	0.036
763.03	0.035
763.47	0.034
763.91	0.037
764.35	0.035
764.79	0.036
765.23	0.037
765.67	0.038
766.11	0.038
766.54	0.035
766.98	0.036
767.42	0.036
767.86	0.035
768.30	0.033
768.74	0.034
769.17	0.038
769.61	0.037
770.05	0.034
770.49	0.037
770.93	0.038
771.37	0.033
771.80	0.035
772.24	0.038
772.68	0.039
773.12	0.036
773.56	0.037
774.00	0.038
774.43	0.038
774.87	0.034
775.31	0.036
775.75	0.034
776.19	0.035
776.62	0.038
777.06	0.034
777.50	0.036
777.94	0.039
778.37	0.038
778.81	0.035
779.25	0.037
779.69	0.036
780.13	0.033
780.56	0.036
781.00	0.034
781.44	0.036
781.88	0.035
782.31	0.037
782.75	0.035
783.19	0.039
783.63	0.038
784.06	0.033
784.50	0.034
784.94	0.036
785.37	0.038
785.81	0.038
786.25	0.035
786.69	0.037
787.12	0.036
787.56	0.038
788.00	0.034
788.43	0.036
788.87	0.036
789.31	0.036
789.75	0.037
790.18	0.034
790.62	0.035
791.06	0.035
791.49	0.033
791.93	0.035
792.37	0.034
792.80	0.037
793.24	0.034
793.68	0.034
794.11	0.032
794.55	0.035
794.99	0.035
795.42	0.034
795.86	0.034
796.30	0.035
796.73	0.039
797.17	0.034
797.61	0.034
798.04	0.035
798.48	0.038
798.91	0.039
799.35	0.034
799.79	0.036
800.22	0.032
800.66	0.036
801.10	0.034
801.53	0.040
801.97	0.037
802.40	0.037
802.84	0.035
803.28	0.035
803.71	0.034
804.15	0.039
804.58	0.037
805.02	0.035
805.46	0.035
805.89	0.036
806.33	0.032
806.76	0.038
807.20	0.030
807.63	0.036
808.07	0.037
808.51	0.034
808.94	0.036
809.38	0.036
809.81	0.034
810.25	0.034
810.68	0.035
811.12	0.033
811.55	0.034
811.99	0.038
812.42	0.033
812.86	0.034
813.29	0.039
813.73	0.030
814.17	0.035
814.60	0.033
815.04	0.033
815.47	0.036
815.91	0.033
816.34	0.036
816.78	0.039
817.21	0.034
817.65	0.034
818.08	0.037
