SpectraSuite Data File
++++++++++++++++++++++++++++++++++++
Date: Tue Jul 11 13:38:59 CEST 2017
User: IPCE
Dark Spectrum Present: Yes
Reference Spectrum Present: Yes
Number of Sampled Component Spectra: 1
Spectrometers: HR+C0708
Integration Time (usec): 1000 (HR+C0708)
Spectra Averaged: 10 (HR+C0708)
Boxcar Smoothing: 0 (HR+C0708)
Correct for Electrical Dark: No (HR+C0708)
Strobe/Lamp Enabled: No (HR+C0708)
Correct for Detector Non-linearity: No (HR+C0708)
Correct for Stray Light: No (HR+C0708)
Number of Pixels in Processed Spectrum: 2048
>>>>>Begin Processed Spectral Data<<<<<
188.76	0.270
189.23	-0.109
189.70	0.238
190.17	0.108
190.64	0.097
191.12	0.923
191.59	0.509
192.06	0.061
192.53	0.368
193.01	0.444
193.48	0.160
193.95	-0.034
194.42	0.065
194.90	0.314
195.37	0.190
195.84	0.338
196.31	0.959
196.78	0.306
197.26	0.026
197.73	0.184
198.20	-0.140
198.67	-0.322
199.14	-0.000
199.62	-0.018
200.09	0.494
200.56	0.301
201.03	0.354
201.50	0.489
201.97	0.440
202.45	0.564
202.92	0.618
203.39	0.578
203.86	0.474
204.33	0.443
204.80	0.426
205.28	0.633
205.75	0.409
206.22	0.363
206.69	0.577
207.16	0.324
207.63	0.389
208.11	0.440
208.58	0.711
209.05	0.551
209.52	0.437
209.99	0.512
210.46	0.698
210.93	0.446
211.41	0.469
211.88	0.653
212.35	0.399
212.82	0.344
213.29	0.604
213.76	0.576
214.23	0.437
214.70	0.632
215.18	0.439
215.65	0.745
216.12	0.623
216.59	0.302
217.06	1.244
217.53	0.425
218.00	0.481
218.47	0.661
218.94	0.581
219.41	0.393
219.89	0.477
220.36	0.530
220.83	0.617
221.30	0.621
221.77	0.596
222.24	0.598
222.71	0.517
223.18	0.590
223.65	0.804
224.12	0.849
224.59	0.576
225.06	0.636
225.54	0.798
226.01	0.881
226.48	0.727
226.95	0.929
227.42	1.194
227.89	0.876
228.36	0.845
228.83	1.122
229.30	1.106
229.77	0.987
230.24	1.340
230.71	1.202
231.18	1.254
231.65	1.350
232.12	1.353
232.59	1.456
233.06	1.478
233.53	1.652
234.00	1.496
234.47	1.738
234.94	1.553
235.41	1.819
235.88	1.756
236.35	1.799
236.82	1.831
237.29	1.971
237.76	2.077
238.23	1.957
238.70	1.976
239.17	2.272
239.64	2.295
240.11	2.030
240.58	2.180
241.05	2.113
241.52	2.129
241.99	2.183
242.46	2.328
242.93	2.217
243.40	2.316
243.87	2.312
244.34	2.418
244.81	2.238
245.28	2.272
245.75	2.547
246.22	2.255
246.69	2.229
247.16	2.526
247.63	2.398
248.10	2.472
248.57	2.320
249.04	2.292
249.51	2.322
249.98	2.610
250.45	2.364
250.92	2.468
251.39	2.675
251.85	2.447
252.32	2.512
252.79	2.398
253.26	2.434
253.73	2.601
254.20	2.497
254.67	2.640
255.14	2.560
255.61	2.534
256.08	2.855
256.55	2.450
257.02	2.385
257.49	2.619
257.95	2.622
258.42	2.604
258.89	2.550
259.36	2.469
259.83	2.692
260.30	2.631
260.77	2.667
261.24	2.807
261.71	2.671
262.17	2.589
262.64	2.653
263.11	2.676
263.58	2.515
264.05	2.637
264.52	2.571
264.99	2.867
265.46	2.586
265.92	2.526
266.39	2.711
266.86	2.582
267.33	2.566
267.80	2.862
268.27	2.783
268.74	2.695
269.20	2.678
269.67	2.598
270.14	2.722
270.61	2.649
271.08	2.495
271.55	2.661
272.01	2.618
272.48	2.529
272.95	2.790
273.42	2.623
273.89	2.539
274.36	2.499
274.82	2.565
275.29	2.749
275.76	2.554
276.23	2.363
276.70	2.656
277.16	2.569
277.63	2.508
278.10	2.664
278.57	2.523
279.04	2.507
279.50	2.528
279.97	2.476
280.44	2.689
280.91	2.462
281.38	2.425
281.84	2.834
282.31	2.545
282.78	2.430
283.25	2.625
283.72	2.460
284.18	2.537
284.65	2.598
285.12	2.580
285.59	2.541
286.05	2.456
286.52	2.499
286.99	3.038
287.46	2.587
287.92	2.554
288.39	2.739
288.86	2.598
289.33	2.390
289.79	2.596
290.26	2.511
290.73	2.547
291.20	2.524
291.66	2.586
292.13	2.646
292.60	2.419
293.07	2.459
293.53	2.639
294.00	2.506
294.47	2.415
294.93	2.561
295.40	2.516
295.87	2.483
296.34	2.533
296.80	2.494
297.27	2.431
297.74	2.419
298.20	2.485
298.67	2.537
299.14	2.398
299.60	2.424
300.07	2.647
300.54	2.408
301.01	2.386
301.47	2.463
301.94	2.420
302.41	2.460
302.87	2.476
303.34	2.439
303.81	2.468
304.27	2.413
304.74	2.381
305.21	2.399
305.67	2.445
306.14	2.318
306.61	2.330
307.07	2.278
307.54	2.457
308.01	2.354
308.47	2.331
308.94	2.401
309.40	2.394
309.87	2.304
310.34	2.431
310.80	2.308
311.27	2.414
311.74	2.511
312.20	2.294
312.67	2.405
313.13	2.392
313.60	2.278
314.07	2.456
314.53	2.284
315.00	2.345
315.47	2.464
315.93	2.396
316.40	2.334
316.86	2.444
317.33	2.368
317.80	2.421
318.26	2.337
318.73	2.351
319.19	2.377
319.66	2.321
320.13	2.276
320.59	2.336
321.06	2.303
321.52	2.181
321.99	2.226
322.45	2.252
322.92	2.228
323.39	2.231
323.85	2.112
324.32	2.179
324.78	2.127
325.25	2.205
325.71	2.180
326.18	2.179
326.64	2.148
327.11	2.166
327.58	2.139
328.04	2.224
328.51	2.106
328.97	2.110
329.44	2.194
329.90	2.110
330.37	2.115
330.83	2.157
331.30	2.111
331.76	2.076
332.23	2.130
332.69	2.124
333.16	2.151
333.62	2.199
334.09	2.184
334.56	2.246
335.02	2.098
335.49	2.068
335.95	2.128
336.42	2.078
336.88	2.107
337.35	2.169
337.81	2.204
338.28	2.036
338.74	2.119
339.20	2.088
339.67	2.116
340.13	2.120
340.60	2.095
341.06	2.157
341.53	2.132
341.99	2.065
342.46	2.116
342.92	2.085
343.39	2.042
343.85	2.029
344.32	2.089
344.78	2.041
345.25	1.986
345.71	1.959
346.17	1.996
346.64	1.942
347.10	1.868
347.57	1.947
348.03	1.867
348.50	1.891
348.96	1.795
349.43	1.783
349.89	1.782
350.35	1.732
350.82	1.689
351.28	1.666
351.75	1.613
352.21	1.543
352.67	1.518
353.14	1.458
353.60	1.405
354.07	1.367
354.53	1.304
355.00	1.243
355.46	1.190
355.92	1.122
356.39	1.055
356.85	0.975
357.31	0.914
357.78	0.834
358.24	0.774
358.71	0.705
359.17	0.641
359.63	0.588
360.10	0.543
360.56	0.493
361.03	0.449
361.49	0.417
361.95	0.383
362.42	0.359
362.88	0.337
363.34	0.315
363.81	0.294
364.27	0.280
364.73	0.266
365.20	0.253
365.66	0.244
366.12	0.238
366.59	0.227
367.05	0.222
367.51	0.215
367.98	0.208
368.44	0.203
368.90	0.201
369.37	0.198
369.83	0.196
370.29	0.193
370.76	0.186
371.22	0.190
371.68	0.187
372.15	0.183
372.61	0.181
373.07	0.183
373.54	0.178
374.00	0.178
374.46	0.176
374.92	0.175
375.39	0.173
375.85	0.170
376.31	0.172
376.78	0.170
377.24	0.166
377.70	0.167
378.16	0.169
378.63	0.167
379.09	0.163
379.55	0.165
380.01	0.161
380.48	0.162
380.94	0.161
381.40	0.160
381.87	0.161
382.33	0.158
382.79	0.157
383.25	0.157
383.72	0.156
384.18	0.153
384.64	0.154
385.10	0.153
385.56	0.151
386.03	0.153
386.49	0.150
386.95	0.149
387.41	0.149
387.88	0.147
388.34	0.150
388.80	0.147
389.26	0.142
389.72	0.148
390.19	0.149
390.65	0.143
391.11	0.145
391.57	0.143
392.04	0.141
392.50	0.142
392.96	0.141
393.42	0.143
393.88	0.142
394.34	0.140
394.81	0.141
395.27	0.137
395.73	0.141
396.19	0.138
396.65	0.139
397.12	0.137
397.58	0.138
398.04	0.135
398.50	0.138
398.96	0.134
399.42	0.134
399.89	0.134
400.35	0.133
400.81	0.134
401.27	0.129
401.73	0.133
402.19	0.132
402.65	0.128
403.12	0.127
403.58	0.128
404.04	0.128
404.50	0.126
404.96	0.126
405.42	0.126
405.88	0.127
406.34	0.126
406.81	0.126
407.27	0.123
407.73	0.123
408.19	0.120
408.65	0.122
409.11	0.121
409.57	0.120
410.03	0.121
410.49	0.116
410.96	0.116
411.42	0.119
411.88	0.119
412.34	0.115
412.80	0.118
413.26	0.116
413.72	0.116
414.18	0.115
414.64	0.111
415.10	0.116
415.56	0.114
416.02	0.110
416.48	0.114
416.95	0.114
417.41	0.114
417.87	0.112
418.33	0.109
418.79	0.111
419.25	0.112
419.71	0.113
420.17	0.111
420.63	0.109
421.09	0.109
421.55	0.108
422.01	0.109
422.47	0.110
422.93	0.109
423.39	0.111
423.85	0.108
424.31	0.111
424.77	0.106
425.23	0.106
425.69	0.104
426.15	0.106
426.61	0.106
427.07	0.107
427.53	0.104
427.99	0.107
428.45	0.106
428.91	0.105
429.37	0.103
429.83	0.105
430.29	0.107
430.75	0.105
431.21	0.104
431.67	0.105
432.13	0.102
432.59	0.099
433.05	0.103
433.51	0.101
433.97	0.102
434.43	0.102
434.89	0.101
435.35	0.099
435.81	0.095
436.27	0.096
436.73	0.102
437.19	0.100
437.65	0.097
438.11	0.098
438.57	0.098
439.03	0.098
439.48	0.096
439.94	0.096
440.40	0.097
440.86	0.096
441.32	0.094
441.78	0.094
442.24	0.092
442.70	0.092
443.16	0.094
443.62	0.098
444.08	0.090
444.54	0.092
444.99	0.093
445.45	0.096
445.91	0.091
446.37	0.091
446.83	0.093
447.29	0.092
447.75	0.087
448.21	0.092
448.67	0.086
449.12	0.093
449.58	0.088
450.04	0.088
450.50	0.091
450.96	0.089
451.42	0.087
451.88	0.089
452.34	0.089
452.79	0.085
453.25	0.087
453.71	0.088
454.17	0.085
454.63	0.084
455.09	0.087
455.55	0.092
456.00	0.086
456.46	0.086
456.92	0.084
457.38	0.086
457.84	0.085
458.30	0.086
458.75	0.087
459.21	0.085
459.67	0.086
460.13	0.084
460.59	0.086
461.04	0.084
461.50	0.083
461.96	0.084
462.42	0.083
462.88	0.085
463.33	0.085
463.79	0.086
464.25	0.083
464.71	0.082
465.17	0.083
465.62	0.084
466.08	0.084
466.54	0.083
467.00	0.085
467.46	0.081
467.91	0.080
468.37	0.083
468.83	0.084
469.29	0.082
469.74	0.083
470.20	0.082
470.66	0.083
471.12	0.083
471.57	0.081
472.03	0.082
472.49	0.083
472.95	0.082
473.40	0.082
473.86	0.082
474.32	0.082
474.78	0.083
475.23	0.082
475.69	0.078
476.15	0.080
476.60	0.080
477.06	0.082
477.52	0.081
477.98	0.079
478.43	0.081
478.89	0.080
479.35	0.079
479.80	0.080
480.26	0.078
480.72	0.079
481.18	0.082
481.63	0.080
482.09	0.078
482.55	0.082
483.00	0.080
483.46	0.079
483.92	0.075
484.37	0.080
484.83	0.078
485.29	0.079
485.74	0.079
486.20	0.079
486.66	0.079
487.11	0.077
487.57	0.077
488.03	0.080
488.48	0.077
488.94	0.080
489.40	0.077
489.85	0.078
490.31	0.078
490.77	0.076
491.22	0.076
491.68	0.076
492.13	0.078
492.59	0.077
493.05	0.077
493.50	0.077
493.96	0.076
494.42	0.077
494.87	0.078
495.33	0.077
495.78	0.076
496.24	0.075
496.70	0.076
497.15	0.075
497.61	0.077
498.06	0.074
498.52	0.076
498.98	0.076
499.43	0.075
499.89	0.075
500.34	0.077
500.80	0.074
501.25	0.075
501.71	0.074
502.17	0.075
502.62	0.075
503.08	0.075
503.53	0.076
503.99	0.074
504.44	0.074
504.90	0.074
505.36	0.074
505.81	0.074
506.27	0.075
506.72	0.075
507.18	0.076
507.63	0.072
508.09	0.074
508.54	0.073
509.00	0.072
509.45	0.073
509.91	0.073
510.36	0.074
510.82	0.070
511.27	0.074
511.73	0.074
512.19	0.074
512.64	0.072
513.10	0.069
513.55	0.072
514.01	0.073
514.46	0.073
514.92	0.072
515.37	0.071
515.83	0.072
516.28	0.073
516.73	0.070
517.19	0.071
517.64	0.072
518.10	0.071
518.55	0.070
519.01	0.073
519.46	0.071
519.92	0.069
520.37	0.071
520.83	0.070
521.28	0.070
521.74	0.070
522.19	0.068
522.65	0.069
523.10	0.072
523.55	0.070
524.01	0.069
524.46	0.070
524.92	0.068
525.37	0.068
525.83	0.070
526.28	0.071
526.73	0.069
527.19	0.068
527.64	0.070
528.10	0.071
528.55	0.069
529.01	0.072
529.46	0.069
529.91	0.069
530.37	0.072
530.82	0.070
531.28	0.068
531.73	0.069
532.18	0.069
532.64	0.072
533.09	0.069
533.54	0.070
534.00	0.069
534.45	0.070
534.91	0.068
535.36	0.069
535.81	0.072
536.27	0.073
536.72	0.069
537.17	0.070
537.63	0.072
538.08	0.071
538.54	0.071
538.99	0.072
539.44	0.071
539.90	0.071
540.35	0.068
540.80	0.071
541.26	0.072
541.71	0.072
542.16	0.072
542.62	0.072
543.07	0.073
543.52	0.074
543.98	0.073
544.43	0.073
544.88	0.074
545.34	0.074
545.79	0.073
546.24	0.074
546.69	0.075
547.15	0.073
547.60	0.074
548.05	0.072
548.51	0.076
548.96	0.074
549.41	0.075
549.86	0.075
550.32	0.075
550.77	0.074
551.22	0.077
551.68	0.077
552.13	0.076
552.58	0.077
553.03	0.075
553.49	0.077
553.94	0.077
554.39	0.079
554.84	0.076
555.30	0.078
555.75	0.078
556.20	0.080
556.65	0.079
557.11	0.079
557.56	0.078
558.01	0.078
558.46	0.081
558.92	0.082
559.37	0.083
559.82	0.084
560.27	0.082
560.72	0.081
561.18	0.084
561.63	0.082
562.08	0.083
562.53	0.083
562.99	0.087
563.44	0.083
563.89	0.084
564.34	0.084
564.79	0.084
565.25	0.086
565.70	0.089
566.15	0.089
566.60	0.087
567.05	0.088
567.50	0.089
567.96	0.089
568.41	0.089
568.86	0.091
569.31	0.091
569.76	0.089
570.21	0.091
570.67	0.093
571.12	0.093
571.57	0.093
572.02	0.094
572.47	0.093
572.92	0.095
573.37	0.094
573.83	0.096
574.28	0.097
574.73	0.098
575.18	0.097
575.63	0.098
576.08	0.097
576.53	0.098
576.98	0.096
577.44	0.100
577.89	0.101
578.34	0.103
578.79	0.100
579.24	0.103
579.69	0.104
580.14	0.104
580.59	0.104
581.04	0.104
581.49	0.105
581.95	0.107
582.40	0.108
582.85	0.109
583.30	0.109
583.75	0.111
584.20	0.111
584.65	0.113
585.10	0.114
585.55	0.114
586.00	0.116
586.45	0.116
586.90	0.118
587.35	0.118
587.80	0.121
588.25	0.121
588.71	0.122
589.16	0.123
589.61	0.124
590.06	0.126
590.51	0.126
590.96	0.128
591.41	0.130
591.86	0.129
592.31	0.133
592.76	0.131
593.21	0.133
593.66	0.135
594.11	0.138
594.56	0.137
595.01	0.140
595.46	0.143
595.91	0.144
596.36	0.144
596.81	0.146
597.26	0.147
597.71	0.148
598.16	0.149
598.61	0.150
599.06	0.152
599.51	0.153
599.96	0.157
600.41	0.159
600.86	0.157
601.31	0.157
601.76	0.162
602.21	0.160
602.65	0.163
603.10	0.161
603.55	0.164
604.00	0.164
604.45	0.168
604.90	0.173
605.35	0.169
605.80	0.171
606.25	0.173
606.70	0.174
607.15	0.175
607.60	0.175
608.05	0.178
608.50	0.179
608.95	0.179
609.39	0.181
609.84	0.182
610.29	0.182
610.74	0.182
611.19	0.182
611.64	0.184
612.09	0.186
612.54	0.188
612.99	0.186
613.44	0.187
613.88	0.186
614.33	0.187
614.78	0.189
615.23	0.191
615.68	0.189
616.13	0.190
616.58	0.193
617.03	0.190
617.47	0.191
617.92	0.190
618.37	0.191
618.82	0.192
619.27	0.193
619.72	0.192
620.17	0.193
620.61	0.193
621.06	0.194
621.51	0.198
621.96	0.195
622.41	0.196
622.86	0.197
623.30	0.196
623.75	0.197
624.20	0.196
624.65	0.199
625.10	0.197
625.54	0.198
625.99	0.198
626.44	0.201
626.89	0.202
627.34	0.202
627.78	0.202
628.23	0.203
628.68	0.203
629.13	0.204
629.58	0.203
630.02	0.208
630.47	0.208
630.92	0.208
631.37	0.209
631.81	0.211
632.26	0.211
632.71	0.214
633.16	0.214
633.61	0.213
634.05	0.217
634.50	0.220
634.95	0.219
635.40	0.222
635.84	0.222
636.29	0.223
636.74	0.227
637.18	0.228
637.63	0.230
638.08	0.230
638.53	0.235
638.97	0.235
639.42	0.236
639.87	0.240
640.32	0.241
640.76	0.244
641.21	0.245
641.66	0.247
642.10	0.251
642.55	0.250
643.00	0.255
643.44	0.256
643.89	0.259
644.34	0.261
644.79	0.265
645.23	0.267
645.68	0.269
646.13	0.271
646.57	0.274
647.02	0.275
647.47	0.279
647.91	0.281
648.36	0.287
648.81	0.287
649.25	0.286
649.70	0.289
650.15	0.291
650.59	0.295
651.04	0.296
651.48	0.296
651.93	0.301
652.38	0.301
652.82	0.305
653.27	0.307
653.72	0.312
654.16	0.310
654.61	0.315
655.06	0.314
655.50	0.318
655.95	0.314
656.39	0.320
656.84	0.324
657.29	0.323
657.73	0.325
658.18	0.332
658.62	0.328
659.07	0.333
659.52	0.331
659.96	0.334
660.41	0.335
660.85	0.335
661.30	0.338
661.74	0.337
662.19	0.336
662.64	0.342
663.08	0.342
663.53	0.344
663.97	0.341
664.42	0.342
664.86	0.341
665.31	0.346
665.75	0.341
666.20	0.342
666.65	0.343
667.09	0.339
667.54	0.338
667.98	0.336
668.43	0.337
668.87	0.336
669.32	0.335
669.76	0.332
670.21	0.329
670.65	0.326
671.10	0.324
671.54	0.319
671.99	0.317
672.43	0.313
672.88	0.311
673.32	0.307
673.77	0.301
674.21	0.299
674.66	0.292
675.10	0.288
675.55	0.283
675.99	0.277
676.44	0.276
676.88	0.268
677.33	0.263
677.77	0.254
678.22	0.249
678.66	0.247
679.11	0.239
679.55	0.232
679.99	0.225
680.44	0.220
680.88	0.216
681.33	0.208
681.77	0.201
682.22	0.198
682.66	0.190
683.11	0.184
683.55	0.177
683.99	0.173
684.44	0.167
684.88	0.165
685.33	0.158
685.77	0.151
686.21	0.148
686.66	0.143
687.10	0.139
687.55	0.134
687.99	0.128
688.44	0.127
688.88	0.121
689.32	0.116
689.77	0.111
690.21	0.112
690.65	0.107
691.10	0.102
691.54	0.098
691.99	0.097
692.43	0.094
692.87	0.090
693.32	0.086
693.76	0.085
694.20	0.083
694.65	0.082
695.09	0.079
695.53	0.077
695.98	0.078
696.42	0.072
696.86	0.069
697.31	0.069
697.75	0.067
698.19	0.064
698.64	0.063
699.08	0.066
699.52	0.062
699.97	0.060
700.41	0.060
700.85	0.060
701.30	0.056
701.74	0.054
702.18	0.056
702.63	0.052
703.07	0.052
703.51	0.054
703.96	0.052
704.40	0.051
704.84	0.049
705.28	0.048
705.73	0.048
706.17	0.049
706.61	0.047
707.06	0.048
707.50	0.045
707.94	0.044
708.38	0.045
708.83	0.045
709.27	0.047
709.71	0.044
710.15	0.045
710.60	0.047
711.04	0.044
711.48	0.044
711.92	0.047
712.37	0.043
712.81	0.041
713.25	0.041
713.69	0.044
714.13	0.040
714.58	0.039
715.02	0.041
715.46	0.041
715.90	0.041
716.35	0.042
716.79	0.042
717.23	0.041
717.67	0.043
718.11	0.041
718.56	0.040
719.00	0.041
719.44	0.041
719.88	0.039
720.32	0.039
720.76	0.039
721.21	0.040
721.65	0.042
722.09	0.042
722.53	0.041
722.97	0.041
723.41	0.041
723.86	0.042
724.30	0.041
724.74	0.041
725.18	0.042
725.62	0.044
726.06	0.042
726.50	0.041
726.95	0.040
727.39	0.043
727.83	0.041
728.27	0.040
728.71	0.042
729.15	0.045
729.59	0.040
730.03	0.040
730.48	0.045
730.92	0.041
731.36	0.042
731.80	0.039
732.24	0.041
732.68	0.043
733.12	0.042
733.56	0.043
734.00	0.044
734.44	0.043
734.89	0.044
735.33	0.045
735.77	0.043
736.21	0.043
736.65	0.041
737.09	0.041
737.53	0.047
737.97	0.044
738.41	0.043
738.85	0.049
739.29	0.044
739.73	0.043
740.17	0.044
740.61	0.043
741.05	0.044
741.49	0.044
741.93	0.042
742.37	0.043
742.81	0.046
743.26	0.045
743.70	0.042
744.14	0.047
744.58	0.046
745.02	0.042
745.46	0.046
745.90	0.044
746.34	0.042
746.78	0.041
747.22	0.043
747.66	0.044
748.10	0.045
748.54	0.043
748.98	0.043
749.42	0.046
749.86	0.048
750.29	0.046
750.73	0.045
751.17	0.044
751.61	0.041
752.05	0.045
752.49	0.042
752.93	0.042
753.37	0.045
753.81	0.046
754.25	0.042
754.69	0.043
755.13	0.042
755.57	0.041
756.01	0.042
756.45	0.043
756.89	0.047
757.33	0.042
757.77	0.041
758.21	0.044
758.64	0.042
759.08	0.042
759.52	0.041
759.96	0.042
760.40	0.041
760.84	0.043
761.28	0.042
761.72	0.042
762.16	0.041
762.60	0.042
763.03	0.042
763.47	0.040
763.91	0.044
764.35	0.043
764.79	0.044
765.23	0.042
765.67	0.046
766.11	0.042
766.54	0.041
766.98	0.041
767.42	0.041
767.86	0.042
768.30	0.041
768.74	0.041
769.17	0.042
769.61	0.045
770.05	0.043
770.49	0.042
770.93	0.042
771.37	0.043
771.80	0.039
772.24	0.044
772.68	0.045
773.12	0.041
773.56	0.044
774.00	0.042
774.43	0.042
774.87	0.042
775.31	0.042
775.75	0.041
776.19	0.042
776.62	0.043
777.06	0.038
777.50	0.042
777.94	0.045
778.37	0.043
778.81	0.042
779.25	0.042
779.69	0.044
780.13	0.037
780.56	0.043
781.00	0.042
781.44	0.040
781.88	0.045
782.31	0.044
782.75	0.043
783.19	0.042
783.63	0.044
784.06	0.040
784.50	0.042
784.94	0.040
785.37	0.044
785.81	0.042
786.25	0.037
786.69	0.041
787.12	0.042
787.56	0.041
788.00	0.042
788.43	0.041
788.87	0.040
789.31	0.044
789.75	0.043
790.18	0.040
790.62	0.042
791.06	0.040
791.49	0.038
791.93	0.044
792.37	0.037
792.80	0.044
793.24	0.039
793.68	0.040
794.11	0.039
794.55	0.041
794.99	0.042
795.42	0.038
795.86	0.041
796.30	0.041
796.73	0.042
797.17	0.041
797.61	0.038
798.04	0.041
798.48	0.039
798.91	0.042
799.35	0.041
799.79	0.038
800.22	0.039
800.66	0.038
801.10	0.042
801.53	0.045
801.97	0.040
802.40	0.040
802.84	0.042
803.28	0.038
803.71	0.040
804.15	0.041
804.58	0.042
805.02	0.038
805.46	0.041
805.89	0.045
806.33	0.039
806.76	0.042
807.20	0.037
807.63	0.039
808.07	0.043
808.51	0.036
808.94	0.040
809.38	0.040
809.81	0.038
810.25	0.039
810.68	0.043
811.12	0.038
811.55	0.039
811.99	0.041
812.42	0.041
812.86	0.040
813.29	0.040
813.73	0.039
814.17	0.039
814.60	0.035
815.04	0.038
815.47	0.037
815.91	0.040
816.34	0.043
816.78	0.041
817.21	0.041
817.65	0.038
818.08	0.039
