SpectraSuite Data File
++++++++++++++++++++++++++++++++++++
Date: Tue Jul 11 14:45:29 CEST 2017
User: IPCE
Dark Spectrum Present: Yes
Reference Spectrum Present: Yes
Number of Sampled Component Spectra: 1
Spectrometers: HR+C0708
Integration Time (usec): 1000 (HR+C0708)
Spectra Averaged: 10 (HR+C0708)
Boxcar Smoothing: 0 (HR+C0708)
Correct for Electrical Dark: No (HR+C0708)
Strobe/Lamp Enabled: No (HR+C0708)
Correct for Detector Non-linearity: No (HR+C0708)
Correct for Stray Light: No (HR+C0708)
Number of Pixels in Processed Spectrum: 2048
>>>>>Begin Processed Spectral Data<<<<<
188.76	1.270
189.23	0.376
189.70	1.447
190.17	-0.000
190.64	0.229
191.12	0.446
191.59	1.046
192.06	0.291
192.53	0.214
193.01	1.365
193.48	0.566
193.95	0.315
194.42	0.857
194.90	0.725
195.37	0.190
195.84	0.877
196.31	-0.000
196.78	1.491
197.26	0.833
197.73	0.289
198.20	-0.000
198.67	-0.000
199.14	-0.000
199.62	-0.211
200.09	0.760
200.56	0.299
201.03	0.437
201.50	0.507
201.97	0.448
202.45	0.289
202.92	0.395
203.39	0.397
203.86	0.255
204.33	0.368
204.80	0.353
205.28	0.451
205.75	0.418
206.22	0.437
206.69	0.498
207.16	0.174
207.63	0.285
208.11	0.332
208.58	0.535
209.05	0.357
209.52	0.437
209.99	0.492
210.46	0.577
210.93	0.286
211.41	0.432
211.88	0.513
212.35	0.378
212.82	0.320
213.29	0.600
213.76	0.453
214.23	0.450
214.70	0.487
215.18	0.559
215.65	0.581
216.12	0.360
216.59	0.485
217.06	1.659
217.53	0.397
218.00	0.325
218.47	0.649
218.94	0.389
219.41	0.323
219.89	0.399
220.36	0.524
220.83	0.682
221.30	0.524
221.77	0.566
222.24	0.539
222.71	0.371
223.18	0.503
223.65	0.676
224.12	0.606
224.59	0.449
225.06	0.525
225.54	0.656
226.01	0.731
226.48	0.545
226.95	0.820
227.42	0.902
227.89	0.714
228.36	0.914
228.83	1.217
229.30	1.259
229.77	1.006
230.24	1.242
230.71	1.204
231.18	1.021
231.65	1.192
232.12	1.302
232.59	1.433
233.06	1.292
233.53	1.702
234.00	1.478
234.47	1.540
234.94	1.553
235.41	1.645
235.88	1.840
236.35	1.691
236.82	1.947
237.29	2.023
237.76	1.833
238.23	2.055
238.70	1.897
239.17	2.154
239.64	2.167
240.11	1.974
240.58	1.894
241.05	2.162
241.52	2.111
241.99	2.038
242.46	2.268
242.93	2.229
243.40	2.099
243.87	2.238
244.34	2.241
244.81	2.191
245.28	2.244
245.75	2.216
246.22	2.183
246.69	2.246
247.16	2.294
247.63	2.451
248.10	2.369
248.57	2.207
249.04	2.345
249.51	2.274
249.98	2.294
250.45	2.143
250.92	2.129
251.39	2.115
251.85	1.941
252.32	1.876
252.79	1.772
253.26	1.667
253.73	1.592
254.20	1.486
254.67	1.428
255.14	1.325
255.61	1.278
256.08	1.232
256.55	1.172
257.02	1.116
257.49	1.082
257.95	1.050
258.42	1.011
258.89	0.986
259.36	0.955
259.83	0.935
260.30	0.907
260.77	0.890
261.24	0.871
261.71	0.847
262.17	0.833
262.64	0.819
263.11	0.810
263.58	0.791
264.05	0.779
264.52	0.766
264.99	0.751
265.46	0.746
265.92	0.727
266.39	0.721
266.86	0.712
267.33	0.702
267.80	0.693
268.27	0.686
268.74	0.676
269.20	0.668
269.67	0.661
270.14	0.655
270.61	0.647
271.08	0.641
271.55	0.636
272.01	0.626
272.48	0.623
272.95	0.618
273.42	0.614
273.89	0.604
274.36	0.602
274.82	0.594
275.29	0.589
275.76	0.585
276.23	0.582
276.70	0.577
277.16	0.574
277.63	0.569
278.10	0.568
278.57	0.566
279.04	0.558
279.50	0.562
279.97	0.556
280.44	0.553
280.91	0.550
281.38	0.554
281.84	0.549
282.31	0.548
282.78	0.547
283.25	0.543
283.72	0.545
284.18	0.542
284.65	0.540
285.12	0.539
285.59	0.539
286.05	0.537
286.52	0.537
286.99	0.537
287.46	0.537
287.92	0.538
288.39	0.538
288.86	0.537
289.33	0.530
289.79	0.530
290.26	0.530
290.73	0.529
291.20	0.527
291.66	0.527
292.13	0.524
292.60	0.520
293.07	0.516
293.53	0.516
294.00	0.510
294.47	0.506
294.93	0.500
295.40	0.494
295.87	0.486
296.34	0.485
296.80	0.474
297.27	0.467
297.74	0.461
298.20	0.451
298.67	0.450
299.14	0.444
299.60	0.438
300.07	0.427
300.54	0.419
301.01	0.416
301.47	0.409
301.94	0.397
302.41	0.394
302.87	0.389
303.34	0.382
303.81	0.377
304.27	0.368
304.74	0.361
305.21	0.358
305.67	0.354
306.14	0.352
306.61	0.340
307.07	0.338
307.54	0.334
308.01	0.331
308.47	0.327
308.94	0.322
309.40	0.318
309.87	0.313
310.34	0.316
310.80	0.311
311.27	0.306
311.74	0.304
312.20	0.302
312.67	0.298
313.13	0.297
313.60	0.293
314.07	0.293
314.53	0.289
315.00	0.287
315.47	0.287
315.93	0.287
316.40	0.283
316.86	0.282
317.33	0.280
317.80	0.280
318.26	0.279
318.73	0.276
319.19	0.277
319.66	0.274
320.13	0.270
320.59	0.271
321.06	0.271
321.52	0.267
321.99	0.267
322.45	0.268
322.92	0.266
323.39	0.262
323.85	0.260
324.32	0.261
324.78	0.260
325.25	0.259
325.71	0.258
326.18	0.256
326.64	0.251
327.11	0.254
327.58	0.253
328.04	0.253
328.51	0.248
328.97	0.250
329.44	0.250
329.90	0.244
330.37	0.241
330.83	0.242
331.30	0.239
331.76	0.238
332.23	0.238
332.69	0.238
333.16	0.232
333.62	0.234
334.09	0.231
334.56	0.235
335.02	0.229
335.49	0.225
335.95	0.228
336.42	0.224
336.88	0.220
337.35	0.222
337.81	0.224
338.28	0.218
338.74	0.218
339.20	0.220
339.67	0.219
340.13	0.214
340.60	0.213
341.06	0.216
341.53	0.211
341.99	0.208
342.46	0.209
342.92	0.207
343.39	0.210
343.85	0.203
344.32	0.204
344.78	0.205
345.25	0.204
345.71	0.207
346.17	0.205
346.64	0.205
347.10	0.204
347.57	0.202
348.03	0.199
348.50	0.193
348.96	0.193
349.43	0.197
349.89	0.200
350.35	0.194
350.82	0.195
351.28	0.193
351.75	0.197
352.21	0.193
352.67	0.189
353.14	0.192
353.60	0.186
354.07	0.185
354.53	0.187
355.00	0.182
355.46	0.185
355.92	0.182
356.39	0.179
356.85	0.178
357.31	0.181
357.78	0.179
358.24	0.175
358.71	0.175
359.17	0.174
359.63	0.173
360.10	0.172
360.56	0.166
361.03	0.168
361.49	0.165
361.95	0.166
362.42	0.166
362.88	0.166
363.34	0.165
363.81	0.161
364.27	0.161
364.73	0.162
365.20	0.164
365.66	0.163
366.12	0.163
366.59	0.156
367.05	0.161
367.51	0.160
367.98	0.158
368.44	0.160
368.90	0.156
369.37	0.158
369.83	0.159
370.29	0.159
370.76	0.153
371.22	0.155
371.68	0.154
372.15	0.155
372.61	0.154
373.07	0.156
373.54	0.156
374.00	0.156
374.46	0.156
374.92	0.155
375.39	0.153
375.85	0.151
376.31	0.153
376.78	0.153
377.24	0.152
377.70	0.152
378.16	0.155
378.63	0.152
379.09	0.148
379.55	0.151
380.01	0.151
380.48	0.151
380.94	0.152
381.40	0.152
381.87	0.149
382.33	0.151
382.79	0.150
383.25	0.151
383.72	0.150
384.18	0.149
384.64	0.148
385.10	0.147
385.56	0.147
386.03	0.149
386.49	0.147
386.95	0.145
387.41	0.147
387.88	0.144
388.34	0.147
388.80	0.148
389.26	0.144
389.72	0.145
390.19	0.145
390.65	0.145
391.11	0.145
391.57	0.145
392.04	0.144
392.50	0.145
392.96	0.144
393.42	0.146
393.88	0.143
394.34	0.143
394.81	0.143
395.27	0.142
395.73	0.145
396.19	0.140
396.65	0.144
397.12	0.141
397.58	0.142
398.04	0.144
398.50	0.143
398.96	0.143
399.42	0.143
399.89	0.142
400.35	0.141
400.81	0.139
401.27	0.140
401.73	0.141
402.19	0.141
402.65	0.139
403.12	0.137
403.58	0.135
404.04	0.137
404.50	0.136
404.96	0.136
405.42	0.138
405.88	0.137
406.34	0.137
406.81	0.135
407.27	0.134
407.73	0.136
408.19	0.133
408.65	0.135
409.11	0.132
409.57	0.134
410.03	0.133
410.49	0.131
410.96	0.130
411.42	0.130
411.88	0.130
412.34	0.133
412.80	0.132
413.26	0.135
413.72	0.134
414.18	0.131
414.64	0.127
415.10	0.131
415.56	0.127
416.02	0.128
416.48	0.129
416.95	0.129
417.41	0.131
417.87	0.129
418.33	0.128
418.79	0.129
419.25	0.126
419.71	0.128
420.17	0.131
420.63	0.129
421.09	0.128
421.55	0.126
422.01	0.129
422.47	0.130
422.93	0.129
423.39	0.129
423.85	0.129
424.31	0.127
424.77	0.128
425.23	0.131
425.69	0.127
426.15	0.125
426.61	0.124
427.07	0.125
427.53	0.125
427.99	0.126
428.45	0.128
428.91	0.125
429.37	0.122
429.83	0.126
430.29	0.129
430.75	0.129
431.21	0.127
431.67	0.123
432.13	0.122
432.59	0.122
433.05	0.124
433.51	0.122
433.97	0.125
434.43	0.126
434.89	0.124
435.35	0.119
435.81	0.121
436.27	0.120
436.73	0.124
437.19	0.124
437.65	0.122
438.11	0.122
438.57	0.121
439.03	0.119
439.48	0.121
439.94	0.123
440.40	0.119
440.86	0.119
441.32	0.117
441.78	0.119
442.24	0.119
442.70	0.122
443.16	0.119
443.62	0.125
444.08	0.115
444.54	0.119
444.99	0.117
445.45	0.121
445.91	0.118
446.37	0.117
446.83	0.118
447.29	0.115
447.75	0.116
448.21	0.116
448.67	0.113
449.12	0.120
449.58	0.115
450.04	0.118
450.50	0.116
450.96	0.116
451.42	0.116
451.88	0.118
452.34	0.116
452.79	0.113
453.25	0.116
453.71	0.114
454.17	0.112
454.63	0.113
455.09	0.119
455.55	0.117
456.00	0.113
456.46	0.115
456.92	0.112
457.38	0.117
457.84	0.112
458.30	0.114
458.75	0.115
459.21	0.113
459.67	0.114
460.13	0.113
460.59	0.115
461.04	0.114
461.50	0.113
461.96	0.112
462.42	0.113
462.88	0.112
463.33	0.115
463.79	0.115
464.25	0.113
464.71	0.114
465.17	0.116
465.62	0.117
466.08	0.113
466.54	0.114
467.00	0.116
467.46	0.113
467.91	0.112
468.37	0.115
468.83	0.114
469.29	0.114
469.74	0.114
470.20	0.112
470.66	0.116
471.12	0.116
471.57	0.115
472.03	0.115
472.49	0.116
472.95	0.114
473.40	0.115
473.86	0.115
474.32	0.114
474.78	0.114
475.23	0.114
475.69	0.113
476.15	0.113
476.60	0.117
477.06	0.117
477.52	0.114
477.98	0.115
478.43	0.115
478.89	0.116
479.35	0.112
479.80	0.115
480.26	0.112
480.72	0.112
481.18	0.115
481.63	0.113
482.09	0.111
482.55	0.115
483.00	0.115
483.46	0.112
483.92	0.112
484.37	0.115
484.83	0.112
485.29	0.113
485.74	0.112
486.20	0.112
486.66	0.113
487.11	0.113
487.57	0.113
488.03	0.116
488.48	0.112
488.94	0.116
489.40	0.114
489.85	0.112
490.31	0.112
490.77	0.111
491.22	0.114
491.68	0.111
492.13	0.113
492.59	0.110
493.05	0.114
493.50	0.114
493.96	0.112
494.42	0.112
494.87	0.113
495.33	0.111
495.78	0.115
496.24	0.114
496.70	0.115
497.15	0.112
497.61	0.112
498.06	0.111
498.52	0.111
498.98	0.112
499.43	0.111
499.89	0.110
500.34	0.113
500.80	0.110
501.25	0.113
501.71	0.111
502.17	0.113
502.62	0.111
503.08	0.111
503.53	0.111
503.99	0.111
504.44	0.111
504.90	0.110
505.36	0.112
505.81	0.112
506.27	0.112
506.72	0.111
507.18	0.112
507.63	0.109
508.09	0.112
508.54	0.112
509.00	0.109
509.45	0.109
509.91	0.111
510.36	0.112
510.82	0.109
511.27	0.112
511.73	0.113
512.19	0.109
512.64	0.111
513.10	0.110
513.55	0.109
514.01	0.111
514.46	0.111
514.92	0.109
515.37	0.110
515.83	0.110
516.28	0.108
516.73	0.110
517.19	0.110
517.64	0.108
518.10	0.108
518.55	0.109
519.01	0.109
519.46	0.111
519.92	0.108
520.37	0.107
520.83	0.110
521.28	0.108
521.74	0.109
522.19	0.108
522.65	0.109
523.10	0.109
523.55	0.106
524.01	0.107
524.46	0.110
524.92	0.108
525.37	0.109
525.83	0.109
526.28	0.108
526.73	0.110
527.19	0.109
527.64	0.107
528.10	0.110
528.55	0.111
529.01	0.111
529.46	0.109
529.91	0.107
530.37	0.109
530.82	0.109
531.28	0.107
531.73	0.108
532.18	0.109
532.64	0.108
533.09	0.110
533.54	0.109
534.00	0.109
534.45	0.109
534.91	0.110
535.36	0.109
535.81	0.112
536.27	0.112
536.72	0.111
537.17	0.112
537.63	0.112
538.08	0.112
538.54	0.111
538.99	0.113
539.44	0.113
539.90	0.110
540.35	0.110
540.80	0.112
541.26	0.113
541.71	0.114
542.16	0.112
542.62	0.114
543.07	0.114
543.52	0.113
543.98	0.113
544.43	0.114
544.88	0.114
545.34	0.116
545.79	0.115
546.24	0.115
546.69	0.115
547.15	0.117
547.60	0.118
548.05	0.113
548.51	0.117
548.96	0.116
549.41	0.116
549.86	0.116
550.32	0.116
550.77	0.117
551.22	0.117
551.68	0.117
552.13	0.121
552.58	0.119
553.03	0.118
553.49	0.117
553.94	0.121
554.39	0.123
554.84	0.121
555.30	0.123
555.75	0.123
556.20	0.121
556.65	0.124
557.11	0.124
557.56	0.122
558.01	0.123
558.46	0.123
558.92	0.124
559.37	0.128
559.82	0.127
560.27	0.127
560.72	0.128
561.18	0.129
561.63	0.125
562.08	0.127
562.53	0.130
562.99	0.132
563.44	0.128
563.89	0.130
564.34	0.130
564.79	0.131
565.25	0.133
565.70	0.134
566.15	0.135
566.60	0.132
567.05	0.134
567.50	0.135
567.96	0.137
568.41	0.134
568.86	0.138
569.31	0.139
569.76	0.137
570.21	0.139
570.67	0.141
571.12	0.140
571.57	0.139
572.02	0.142
572.47	0.140
572.92	0.143
573.37	0.143
573.83	0.144
574.28	0.143
574.73	0.145
575.18	0.144
575.63	0.148
576.08	0.146
576.53	0.149
576.98	0.150
577.44	0.150
577.89	0.150
578.34	0.151
578.79	0.152
579.24	0.153
579.69	0.155
580.14	0.155
580.59	0.155
581.04	0.156
581.49	0.156
581.95	0.160
582.40	0.160
582.85	0.160
583.30	0.160
583.75	0.163
584.20	0.164
584.65	0.164
585.10	0.166
585.55	0.167
586.00	0.168
586.45	0.169
586.90	0.171
587.35	0.175
587.80	0.174
588.25	0.175
588.71	0.178
589.16	0.177
589.61	0.180
590.06	0.181
590.51	0.183
590.96	0.183
591.41	0.186
591.86	0.186
592.31	0.190
592.76	0.190
593.21	0.190
593.66	0.194
594.11	0.198
594.56	0.196
595.01	0.198
595.46	0.200
595.91	0.202
596.36	0.204
596.81	0.204
597.26	0.208
597.71	0.210
598.16	0.211
598.61	0.211
599.06	0.211
599.51	0.214
599.96	0.217
600.41	0.221
600.86	0.219
601.31	0.220
601.76	0.222
602.21	0.223
602.65	0.224
603.10	0.227
603.55	0.228
604.00	0.229
604.45	0.232
604.90	0.232
605.35	0.233
605.80	0.235
606.25	0.237
606.70	0.239
607.15	0.239
607.60	0.240
608.05	0.243
608.50	0.244
608.95	0.244
609.39	0.244
609.84	0.249
610.29	0.247
610.74	0.248
611.19	0.251
611.64	0.253
612.09	0.254
612.54	0.254
612.99	0.252
613.44	0.255
613.88	0.255
614.33	0.256
614.78	0.258
615.23	0.259
615.68	0.257
616.13	0.259
616.58	0.261
617.03	0.258
617.47	0.260
617.92	0.261
618.37	0.262
618.82	0.263
619.27	0.263
619.72	0.261
620.17	0.266
620.61	0.263
621.06	0.266
621.51	0.267
621.96	0.267
622.41	0.266
622.86	0.269
623.30	0.266
623.75	0.267
624.20	0.268
624.65	0.272
625.10	0.272
625.54	0.271
625.99	0.271
626.44	0.275
626.89	0.272
627.34	0.276
627.78	0.278
628.23	0.279
628.68	0.278
629.13	0.278
629.58	0.280
630.02	0.282
630.47	0.284
630.92	0.283
631.37	0.286
631.81	0.285
632.26	0.287
632.71	0.292
633.16	0.290
633.61	0.291
634.05	0.296
634.50	0.295
634.95	0.298
635.40	0.300
635.84	0.299
636.29	0.304
636.74	0.304
637.18	0.309
637.63	0.309
638.08	0.310
638.53	0.313
638.97	0.316
639.42	0.317
639.87	0.321
640.32	0.321
640.76	0.325
641.21	0.327
641.66	0.331
642.10	0.332
642.55	0.335
643.00	0.336
643.44	0.338
643.89	0.342
644.34	0.343
644.79	0.348
645.23	0.348
645.68	0.353
646.13	0.356
646.57	0.357
647.02	0.362
647.47	0.363
647.91	0.367
648.36	0.368
648.81	0.369
649.25	0.371
649.70	0.375
650.15	0.376
650.59	0.382
651.04	0.383
651.48	0.384
651.93	0.387
652.38	0.389
652.82	0.387
653.27	0.391
653.72	0.395
654.16	0.395
654.61	0.401
655.06	0.399
655.50	0.401
655.95	0.403
656.39	0.407
656.84	0.411
657.29	0.408
657.73	0.410
658.18	0.415
658.62	0.414
659.07	0.414
659.52	0.419
659.96	0.417
660.41	0.416
660.85	0.418
661.30	0.419
661.74	0.422
662.19	0.418
662.64	0.419
663.08	0.425
663.53	0.422
663.97	0.422
664.42	0.423
664.86	0.422
665.31	0.422
665.75	0.422
666.20	0.418
666.65	0.422
667.09	0.417
667.54	0.415
667.98	0.414
668.43	0.413
668.87	0.410
669.32	0.409
669.76	0.404
670.21	0.402
670.65	0.399
671.10	0.396
671.54	0.392
671.99	0.387
672.43	0.383
672.88	0.379
673.32	0.377
673.77	0.368
674.21	0.363
674.66	0.359
675.10	0.354
675.55	0.347
675.99	0.342
676.44	0.339
676.88	0.330
677.33	0.325
677.77	0.317
678.22	0.308
678.66	0.305
679.11	0.301
679.55	0.290
679.99	0.284
680.44	0.278
680.88	0.274
681.33	0.268
681.77	0.259
682.22	0.250
682.66	0.245
683.11	0.240
683.55	0.232
683.99	0.227
684.44	0.220
684.88	0.216
685.33	0.210
685.77	0.201
686.21	0.199
686.66	0.193
687.10	0.188
687.55	0.185
687.99	0.179
688.44	0.176
688.88	0.171
689.32	0.164
689.77	0.161
690.21	0.157
690.65	0.153
691.10	0.149
691.54	0.144
691.99	0.143
692.43	0.140
692.87	0.136
693.32	0.132
693.76	0.131
694.20	0.129
694.65	0.124
695.09	0.122
695.53	0.120
695.98	0.119
696.42	0.116
696.86	0.111
697.31	0.113
697.75	0.109
698.19	0.104
698.64	0.103
699.08	0.106
699.52	0.103
699.97	0.103
700.41	0.101
700.85	0.102
701.30	0.095
701.74	0.094
702.18	0.095
702.63	0.095
703.07	0.093
703.51	0.095
703.96	0.092
704.40	0.091
704.84	0.089
705.28	0.089
705.73	0.088
706.17	0.089
706.61	0.087
707.06	0.086
707.50	0.086
707.94	0.084
708.38	0.085
708.83	0.084
709.27	0.082
709.71	0.084
710.15	0.085
710.60	0.085
711.04	0.084
711.48	0.080
711.92	0.084
712.37	0.080
712.81	0.079
713.25	0.079
713.69	0.084
714.13	0.077
714.58	0.075
715.02	0.078
715.46	0.077
715.90	0.077
716.35	0.079
716.79	0.078
717.23	0.078
717.67	0.080
718.11	0.078
718.56	0.078
719.00	0.079
719.44	0.081
719.88	0.078
720.32	0.077
720.76	0.077
721.21	0.075
721.65	0.077
722.09	0.081
722.53	0.079
722.97	0.079
723.41	0.077
723.86	0.078
724.30	0.080
724.74	0.078
725.18	0.077
725.62	0.081
726.06	0.080
726.50	0.079
726.95	0.079
727.39	0.078
727.83	0.077
728.27	0.078
728.71	0.079
729.15	0.082
729.59	0.078
730.03	0.078
730.48	0.081
730.92	0.080
731.36	0.078
731.80	0.078
732.24	0.079
732.68	0.078
733.12	0.079
733.56	0.076
734.00	0.080
734.44	0.081
734.89	0.080
735.33	0.082
735.77	0.083
736.21	0.079
736.65	0.078
737.09	0.080
737.53	0.084
737.97	0.082
738.41	0.078
738.85	0.084
739.29	0.083
739.73	0.079
740.17	0.081
740.61	0.079
741.05	0.077
741.49	0.080
741.93	0.080
742.37	0.080
742.81	0.080
743.26	0.080
743.70	0.081
744.14	0.082
744.58	0.081
745.02	0.080
745.46	0.082
745.90	0.080
746.34	0.082
746.78	0.081
747.22	0.079
747.66	0.080
748.10	0.081
748.54	0.078
748.98	0.079
749.42	0.078
749.86	0.081
750.29	0.081
750.73	0.078
751.17	0.080
751.61	0.077
752.05	0.081
752.49	0.077
752.93	0.079
753.37	0.081
753.81	0.083
754.25	0.077
754.69	0.078
755.13	0.079
755.57	0.078
756.01	0.081
756.45	0.079
756.89	0.081
757.33	0.079
757.77	0.075
758.21	0.080
758.64	0.080
759.08	0.077
759.52	0.080
759.96	0.075
760.40	0.075
760.84	0.080
761.28	0.079
761.72	0.078
762.16	0.079
762.60	0.077
763.03	0.078
763.47	0.073
763.91	0.079
764.35	0.077
764.79	0.081
765.23	0.078
765.67	0.081
766.11	0.077
766.54	0.077
766.98	0.078
767.42	0.079
767.86	0.078
768.30	0.074
768.74	0.077
769.17	0.078
769.61	0.083
770.05	0.079
770.49	0.077
770.93	0.080
771.37	0.079
771.80	0.078
772.24	0.080
772.68	0.078
773.12	0.078
773.56	0.080
774.00	0.078
774.43	0.081
774.87	0.078
775.31	0.079
775.75	0.078
776.19	0.080
776.62	0.078
777.06	0.077
777.50	0.080
777.94	0.076
778.37	0.075
778.81	0.077
779.25	0.081
779.69	0.079
780.13	0.073
780.56	0.075
781.00	0.076
781.44	0.076
781.88	0.077
782.31	0.079
782.75	0.077
783.19	0.080
783.63	0.076
784.06	0.075
784.50	0.075
784.94	0.079
785.37	0.078
785.81	0.077
786.25	0.076
786.69	0.079
787.12	0.079
787.56	0.075
788.00	0.076
788.43	0.077
788.87	0.077
789.31	0.076
789.75	0.079
790.18	0.079
790.62	0.077
791.06	0.074
791.49	0.075
791.93	0.075
792.37	0.074
792.80	0.076
793.24	0.077
793.68	0.074
794.11	0.072
794.55	0.072
794.99	0.078
795.42	0.076
795.86	0.077
796.30	0.080
796.73	0.078
797.17	0.074
797.61	0.073
798.04	0.076
798.48	0.078
798.91	0.072
799.35	0.074
799.79	0.078
800.22	0.070
800.66	0.073
801.10	0.078
801.53	0.082
801.97	0.080
802.40	0.075
802.84	0.078
803.28	0.077
803.71	0.075
804.15	0.078
804.58	0.078
805.02	0.076
805.46	0.077
805.89	0.078
806.33	0.073
806.76	0.074
807.20	0.070
807.63	0.076
808.07	0.077
808.51	0.072
808.94	0.074
809.38	0.076
809.81	0.070
810.25	0.079
810.68	0.078
811.12	0.076
811.55	0.074
811.99	0.074
812.42	0.077
812.86	0.075
813.29	0.077
813.73	0.075
814.17	0.076
814.60	0.075
815.04	0.076
815.47	0.072
815.91	0.072
816.34	0.076
816.78	0.073
817.21	0.074
817.65	0.073
818.08	0.075
