SpectraSuite Data File
++++++++++++++++++++++++++++++++++++
Date: Tue Jul 11 13:40:59 CEST 2017
User: IPCE
Dark Spectrum Present: Yes
Reference Spectrum Present: Yes
Number of Sampled Component Spectra: 1
Spectrometers: HR+C0708
Integration Time (usec): 1000 (HR+C0708)
Spectra Averaged: 10 (HR+C0708)
Boxcar Smoothing: 0 (HR+C0708)
Correct for Electrical Dark: No (HR+C0708)
Strobe/Lamp Enabled: No (HR+C0708)
Correct for Detector Non-linearity: No (HR+C0708)
Correct for Stray Light: No (HR+C0708)
Number of Pixels in Processed Spectrum: 2048
>>>>>Begin Processed Spectral Data<<<<<
188.76	0.646
189.23	0.214
189.70	0.731
190.17	0.276
190.64	0.124
191.12	0.371
191.59	0.420
192.06	0.215
192.53	-0.000
193.01	0.219
193.48	0.566
193.95	-0.401
194.42	0.176
194.90	0.487
195.37	-0.000
195.84	1.991
196.31	-0.000
196.78	0.491
197.26	0.238
197.73	0.237
198.20	-0.073
198.67	-0.000
199.14	-0.472
199.62	-0.222
200.09	1.487
200.56	0.225
201.03	0.356
201.50	0.557
201.97	0.581
202.45	0.472
202.92	0.376
203.39	0.501
203.86	0.562
204.33	0.332
204.80	0.310
205.28	1.025
205.75	0.213
206.22	0.281
206.69	0.521
207.16	0.346
207.63	0.367
208.11	0.457
208.58	0.607
209.05	0.751
209.52	0.463
209.99	0.429
210.46	0.615
210.93	0.480
211.41	0.326
211.88	0.736
212.35	0.470
212.82	0.431
213.29	0.728
213.76	0.512
214.23	0.461
214.70	0.555
215.18	0.484
215.65	0.854
216.12	0.424
216.59	0.390
217.06	-0.000
217.53	0.407
218.00	0.306
218.47	0.637
218.94	0.554
219.41	0.545
219.89	0.559
220.36	0.671
220.83	0.599
221.30	0.464
221.77	0.520
222.24	0.726
222.71	0.512
223.18	0.505
223.65	0.943
224.12	0.679
224.59	0.554
225.06	0.605
225.54	0.668
226.01	0.878
226.48	0.678
226.95	0.711
227.42	1.206
227.89	0.911
228.36	0.997
228.83	1.226
229.30	1.247
229.77	1.149
230.24	1.452
230.71	1.227
231.18	1.283
231.65	1.272
232.12	1.422
232.59	1.540
233.06	1.498
233.53	1.560
234.00	1.478
234.47	1.801
234.94	1.563
235.41	1.777
235.88	1.766
236.35	1.964
236.82	1.774
237.29	1.941
237.76	2.182
238.23	1.994
238.70	1.957
239.17	2.380
239.64	2.399
240.11	2.062
240.58	2.012
241.05	2.079
241.52	2.353
241.99	2.175
242.46	2.379
242.93	2.438
243.40	2.185
243.87	2.229
244.34	2.341
244.81	2.271
245.28	2.220
245.75	2.415
246.22	2.222
246.69	2.411
247.16	2.411
247.63	2.528
248.10	2.785
248.57	2.204
249.04	2.324
249.51	2.450
249.98	2.440
250.45	2.273
250.92	2.473
251.39	2.514
251.85	2.412
252.32	2.465
252.79	2.413
253.26	2.725
253.73	2.597
254.20	2.630
254.67	2.761
255.14	2.359
255.61	2.542
256.08	2.923
256.55	2.683
257.02	2.480
257.49	2.424
257.95	2.606
258.42	2.768
258.89	2.501
259.36	2.570
259.83	2.813
260.30	2.555
260.77	2.581
261.24	2.860
261.71	2.788
262.17	2.524
262.64	2.727
263.11	2.783
263.58	2.671
264.05	2.499
264.52	2.558
264.99	2.700
265.46	2.691
265.92	2.540
266.39	2.652
266.86	2.636
267.33	2.583
267.80	2.593
268.27	2.636
268.74	2.904
269.20	2.611
269.67	2.495
270.14	2.786
270.61	2.486
271.08	2.518
271.55	2.703
272.01	2.564
272.48	2.730
272.95	2.613
273.42	2.585
273.89	2.654
274.36	2.392
274.82	2.559
275.29	2.699
275.76	2.521
276.23	2.542
276.70	2.681
277.16	2.612
277.63	2.579
278.10	2.536
278.57	2.683
279.04	2.551
279.50	2.468
279.97	2.462
280.44	3.006
280.91	2.453
281.38	2.414
281.84	2.682
282.31	2.519
282.78	2.410
283.25	2.465
283.72	2.447
284.18	2.712
284.65	2.585
285.12	2.615
285.59	2.765
286.05	2.431
286.52	2.575
286.99	2.767
287.46	2.713
287.92	2.469
288.39	2.688
288.86	2.512
289.33	2.417
289.79	2.609
290.26	2.493
290.73	2.648
291.20	2.493
291.66	2.630
292.13	2.510
292.60	2.508
293.07	2.442
293.53	2.562
294.00	2.570
294.47	2.522
294.93	2.461
295.40	2.440
295.87	2.652
296.34	2.434
296.80	2.644
297.27	2.597
297.74	2.413
298.20	2.514
298.67	2.493
299.14	2.417
299.60	2.467
300.07	2.436
300.54	2.374
301.01	2.548
301.47	2.353
301.94	2.427
302.41	2.397
302.87	2.349
303.34	2.391
303.81	2.352
304.27	2.356
304.74	2.349
305.21	2.318
305.67	2.455
306.14	2.395
306.61	2.252
307.07	2.278
307.54	2.392
308.01	2.279
308.47	2.301
308.94	2.450
309.40	2.309
309.87	2.397
310.34	2.503
310.80	2.326
311.27	2.306
311.74	2.382
312.20	2.230
312.67	2.345
313.13	2.333
313.60	2.282
314.07	2.430
314.53	2.273
315.00	2.300
315.47	2.340
315.93	2.367
316.40	2.430
316.86	2.417
317.33	2.330
317.80	2.382
318.26	2.243
318.73	2.311
319.19	2.372
319.66	2.284
320.13	2.189
320.59	2.249
321.06	2.301
321.52	2.199
321.99	2.238
322.45	2.292
322.92	2.236
323.39	2.197
323.85	2.105
324.32	2.220
324.78	2.161
325.25	2.180
325.71	2.146
326.18	2.165
326.64	2.167
327.11	2.128
327.58	2.109
328.04	2.150
328.51	2.092
328.97	2.081
329.44	2.133
329.90	2.098
330.37	2.103
330.83	2.091
331.30	2.117
331.76	2.099
332.23	2.076
332.69	2.121
333.16	2.150
333.62	2.107
334.09	2.124
334.56	2.208
335.02	2.136
335.49	2.112
335.95	2.113
336.42	2.041
336.88	2.074
337.35	2.136
337.81	2.108
338.28	2.028
338.74	2.078
339.20	2.151
339.67	2.093
340.13	2.044
340.60	2.051
341.06	2.069
341.53	2.034
341.99	2.015
342.46	2.017
342.92	2.003
343.39	2.032
343.85	1.942
344.32	1.978
344.78	1.988
345.25	1.933
345.71	1.909
346.17	1.909
346.64	1.852
347.10	1.840
347.57	1.853
348.03	1.838
348.50	1.784
348.96	1.700
349.43	1.731
349.89	1.713
350.35	1.622
350.82	1.617
351.28	1.575
351.75	1.532
352.21	1.470
352.67	1.461
353.14	1.381
353.60	1.362
354.07	1.274
354.53	1.258
355.00	1.215
355.46	1.134
355.92	1.095
356.39	1.034
356.85	0.963
357.31	0.899
357.78	0.844
358.24	0.780
358.71	0.721
359.17	0.669
359.63	0.617
360.10	0.580
360.56	0.528
361.03	0.492
361.49	0.461
361.95	0.426
362.42	0.398
362.88	0.378
363.34	0.356
363.81	0.333
364.27	0.317
364.73	0.301
365.20	0.287
365.66	0.272
366.12	0.262
366.59	0.253
367.05	0.244
367.51	0.234
367.98	0.228
368.44	0.227
368.90	0.216
369.37	0.217
369.83	0.214
370.29	0.213
370.76	0.203
371.22	0.205
371.68	0.204
372.15	0.199
372.61	0.195
373.07	0.198
373.54	0.196
374.00	0.194
374.46	0.191
374.92	0.191
375.39	0.191
375.85	0.186
376.31	0.187
376.78	0.186
377.24	0.182
377.70	0.182
378.16	0.183
378.63	0.182
379.09	0.176
379.55	0.178
380.01	0.175
380.48	0.173
380.94	0.176
381.40	0.171
381.87	0.175
382.33	0.170
382.79	0.167
383.25	0.172
383.72	0.170
384.18	0.168
384.64	0.166
385.10	0.166
385.56	0.167
386.03	0.167
386.49	0.167
386.95	0.163
387.41	0.161
387.88	0.159
388.34	0.162
388.80	0.159
389.26	0.154
389.72	0.158
390.19	0.159
390.65	0.159
391.11	0.159
391.57	0.157
392.04	0.155
392.50	0.155
392.96	0.152
393.42	0.155
393.88	0.150
394.34	0.152
394.81	0.151
395.27	0.148
395.73	0.150
396.19	0.148
396.65	0.149
397.12	0.148
397.58	0.147
398.04	0.149
398.50	0.149
398.96	0.147
399.42	0.147
399.89	0.147
400.35	0.142
400.81	0.143
401.27	0.143
401.73	0.141
402.19	0.141
402.65	0.140
403.12	0.138
403.58	0.135
404.04	0.135
404.50	0.136
404.96	0.137
405.42	0.138
405.88	0.137
406.34	0.135
406.81	0.136
407.27	0.131
407.73	0.135
408.19	0.133
408.65	0.131
409.11	0.130
409.57	0.130
410.03	0.130
410.49	0.127
410.96	0.126
411.42	0.126
411.88	0.127
412.34	0.128
412.80	0.128
413.26	0.127
413.72	0.129
414.18	0.125
414.64	0.122
415.10	0.125
415.56	0.124
416.02	0.121
416.48	0.122
416.95	0.126
417.41	0.123
417.87	0.120
418.33	0.125
418.79	0.123
419.25	0.121
419.71	0.123
420.17	0.120
420.63	0.122
421.09	0.122
421.55	0.120
422.01	0.119
422.47	0.121
422.93	0.118
423.39	0.121
423.85	0.119
424.31	0.119
424.77	0.118
425.23	0.120
425.69	0.115
426.15	0.114
426.61	0.117
427.07	0.117
427.53	0.114
427.99	0.116
428.45	0.114
428.91	0.115
429.37	0.112
429.83	0.113
430.29	0.115
430.75	0.115
431.21	0.113
431.67	0.111
432.13	0.110
432.59	0.111
433.05	0.112
433.51	0.112
433.97	0.111
434.43	0.112
434.89	0.110
435.35	0.108
435.81	0.104
436.27	0.104
436.73	0.110
437.19	0.107
437.65	0.105
438.11	0.106
438.57	0.107
439.03	0.105
439.48	0.100
439.94	0.106
440.40	0.105
440.86	0.104
441.32	0.100
441.78	0.103
442.24	0.103
442.70	0.101
443.16	0.100
443.62	0.108
444.08	0.100
444.54	0.100
444.99	0.102
445.45	0.102
445.91	0.101
446.37	0.096
446.83	0.101
447.29	0.100
447.75	0.097
448.21	0.098
448.67	0.095
449.12	0.102
449.58	0.096
450.04	0.099
450.50	0.098
450.96	0.096
451.42	0.097
451.88	0.099
452.34	0.098
452.79	0.094
453.25	0.099
453.71	0.093
454.17	0.092
454.63	0.090
455.09	0.096
455.55	0.096
456.00	0.094
456.46	0.093
456.92	0.093
457.38	0.094
457.84	0.091
458.30	0.094
458.75	0.094
459.21	0.092
459.67	0.091
460.13	0.090
460.59	0.093
461.04	0.092
461.50	0.090
461.96	0.091
462.42	0.092
462.88	0.094
463.33	0.091
463.79	0.091
464.25	0.089
464.71	0.092
465.17	0.089
465.62	0.092
466.08	0.090
466.54	0.090
467.00	0.092
467.46	0.087
467.91	0.090
468.37	0.089
468.83	0.089
469.29	0.089
469.74	0.087
470.20	0.088
470.66	0.091
471.12	0.088
471.57	0.087
472.03	0.088
472.49	0.089
472.95	0.088
473.40	0.087
473.86	0.087
474.32	0.088
474.78	0.088
475.23	0.086
475.69	0.087
476.15	0.085
476.60	0.087
477.06	0.088
477.52	0.085
477.98	0.088
478.43	0.086
478.89	0.085
479.35	0.086
479.80	0.086
480.26	0.083
480.72	0.082
481.18	0.086
481.63	0.086
482.09	0.082
482.55	0.086
483.00	0.084
483.46	0.083
483.92	0.083
484.37	0.086
484.83	0.083
485.29	0.085
485.74	0.084
486.20	0.083
486.66	0.083
487.11	0.081
487.57	0.083
488.03	0.084
488.48	0.083
488.94	0.084
489.40	0.081
489.85	0.081
490.31	0.081
490.77	0.080
491.22	0.081
491.68	0.081
492.13	0.081
492.59	0.082
493.05	0.080
493.50	0.083
493.96	0.080
494.42	0.081
494.87	0.082
495.33	0.081
495.78	0.081
496.24	0.080
496.70	0.082
497.15	0.079
497.61	0.081
498.06	0.080
498.52	0.080
498.98	0.079
499.43	0.080
499.89	0.079
500.34	0.080
500.80	0.079
501.25	0.080
501.71	0.077
502.17	0.081
502.62	0.079
503.08	0.079
503.53	0.079
503.99	0.078
504.44	0.076
504.90	0.080
505.36	0.079
505.81	0.077
506.27	0.081
506.72	0.078
507.18	0.078
507.63	0.074
508.09	0.078
508.54	0.077
509.00	0.076
509.45	0.076
509.91	0.077
510.36	0.077
510.82	0.075
511.27	0.079
511.73	0.078
512.19	0.076
512.64	0.076
513.10	0.074
513.55	0.075
514.01	0.075
514.46	0.076
514.92	0.076
515.37	0.077
515.83	0.075
516.28	0.075
516.73	0.075
517.19	0.073
517.64	0.072
518.10	0.074
518.55	0.073
519.01	0.074
519.46	0.074
519.92	0.073
520.37	0.073
520.83	0.077
521.28	0.073
521.74	0.073
522.19	0.074
522.65	0.073
523.10	0.074
523.55	0.072
524.01	0.072
524.46	0.072
524.92	0.072
525.37	0.072
525.83	0.074
526.28	0.073
526.73	0.074
527.19	0.073
527.64	0.074
528.10	0.073
528.55	0.074
529.01	0.072
529.46	0.071
529.91	0.073
530.37	0.074
530.82	0.073
531.28	0.072
531.73	0.071
532.18	0.072
532.64	0.071
533.09	0.073
533.54	0.074
534.00	0.073
534.45	0.070
534.91	0.071
535.36	0.071
535.81	0.070
536.27	0.074
536.72	0.072
537.17	0.074
537.63	0.073
538.08	0.072
538.54	0.074
538.99	0.075
539.44	0.076
539.90	0.070
540.35	0.070
540.80	0.072
541.26	0.075
541.71	0.075
542.16	0.073
542.62	0.075
543.07	0.076
543.52	0.072
543.98	0.075
544.43	0.072
544.88	0.073
545.34	0.074
545.79	0.072
546.24	0.074
546.69	0.074
547.15	0.075
547.60	0.076
548.05	0.075
548.51	0.075
548.96	0.073
549.41	0.075
549.86	0.073
550.32	0.075
550.77	0.074
551.22	0.074
551.68	0.076
552.13	0.077
552.58	0.077
553.03	0.075
553.49	0.073
553.94	0.077
554.39	0.079
554.84	0.075
555.30	0.077
555.75	0.078
556.20	0.077
556.65	0.077
557.11	0.079
557.56	0.077
558.01	0.078
558.46	0.078
558.92	0.078
559.37	0.080
559.82	0.081
560.27	0.078
560.72	0.079
561.18	0.081
561.63	0.078
562.08	0.079
562.53	0.080
562.99	0.081
563.44	0.082
563.89	0.081
564.34	0.081
564.79	0.081
565.25	0.083
565.70	0.083
566.15	0.084
566.60	0.084
567.05	0.083
567.50	0.084
567.96	0.085
568.41	0.084
568.86	0.084
569.31	0.085
569.76	0.084
570.21	0.083
570.67	0.085
571.12	0.086
571.57	0.087
572.02	0.087
572.47	0.085
572.92	0.089
573.37	0.089
573.83	0.088
574.28	0.088
574.73	0.089
575.18	0.089
575.63	0.088
576.08	0.087
576.53	0.091
576.98	0.090
577.44	0.092
577.89	0.091
578.34	0.092
578.79	0.093
579.24	0.095
579.69	0.094
580.14	0.093
580.59	0.094
581.04	0.095
581.49	0.095
581.95	0.096
582.40	0.096
582.85	0.097
583.30	0.098
583.75	0.098
584.20	0.099
584.65	0.101
585.10	0.101
585.55	0.101
586.00	0.102
586.45	0.102
586.90	0.103
587.35	0.103
587.80	0.104
588.25	0.106
588.71	0.106
589.16	0.108
589.61	0.109
590.06	0.108
590.51	0.111
590.96	0.112
591.41	0.114
591.86	0.113
592.31	0.115
592.76	0.115
593.21	0.114
593.66	0.118
594.11	0.120
594.56	0.119
595.01	0.119
595.46	0.122
595.91	0.124
596.36	0.125
596.81	0.122
597.26	0.124
597.71	0.127
598.16	0.125
598.61	0.126
599.06	0.129
599.51	0.128
599.96	0.130
600.41	0.133
600.86	0.132
601.31	0.130
601.76	0.136
602.21	0.134
602.65	0.137
603.10	0.137
603.55	0.137
604.00	0.139
604.45	0.139
604.90	0.141
605.35	0.140
605.80	0.142
606.25	0.144
606.70	0.145
607.15	0.145
607.60	0.144
608.05	0.147
608.50	0.147
608.95	0.148
609.39	0.147
609.84	0.150
610.29	0.150
610.74	0.149
611.19	0.151
611.64	0.151
612.09	0.153
612.54	0.154
612.99	0.152
613.44	0.153
613.88	0.152
614.33	0.153
614.78	0.154
615.23	0.155
615.68	0.154
616.13	0.156
616.58	0.155
617.03	0.153
617.47	0.156
617.92	0.157
618.37	0.157
618.82	0.158
619.27	0.155
619.72	0.156
620.17	0.158
620.61	0.158
621.06	0.157
621.51	0.160
621.96	0.159
622.41	0.158
622.86	0.160
623.30	0.159
623.75	0.159
624.20	0.158
624.65	0.161
625.10	0.162
625.54	0.161
625.99	0.161
626.44	0.165
626.89	0.163
627.34	0.163
627.78	0.163
628.23	0.165
628.68	0.164
629.13	0.165
629.58	0.166
630.02	0.165
630.47	0.168
630.92	0.167
631.37	0.167
631.81	0.169
632.26	0.169
632.71	0.171
633.16	0.173
633.61	0.172
634.05	0.174
634.50	0.174
634.95	0.178
635.40	0.178
635.84	0.179
636.29	0.180
636.74	0.180
637.18	0.185
637.63	0.182
638.08	0.185
638.53	0.187
638.97	0.189
639.42	0.188
639.87	0.190
640.32	0.191
640.76	0.193
641.21	0.194
641.66	0.194
642.10	0.197
642.55	0.198
643.00	0.200
643.44	0.200
643.89	0.204
644.34	0.205
644.79	0.210
645.23	0.211
645.68	0.211
646.13	0.213
646.57	0.213
647.02	0.215
647.47	0.217
647.91	0.222
648.36	0.225
648.81	0.223
649.25	0.224
649.70	0.226
650.15	0.228
650.59	0.231
651.04	0.233
651.48	0.233
651.93	0.236
652.38	0.235
652.82	0.239
653.27	0.239
653.72	0.241
654.16	0.242
654.61	0.246
655.06	0.243
655.50	0.244
655.95	0.245
656.39	0.249
656.84	0.250
657.29	0.254
657.73	0.252
658.18	0.255
658.62	0.254
659.07	0.259
659.52	0.257
659.96	0.258
660.41	0.258
660.85	0.259
661.30	0.260
661.74	0.261
662.19	0.261
662.64	0.263
663.08	0.264
663.53	0.266
663.97	0.264
664.42	0.265
664.86	0.266
665.31	0.266
665.75	0.266
666.20	0.264
666.65	0.264
667.09	0.264
667.54	0.261
667.98	0.260
668.43	0.261
668.87	0.260
669.32	0.259
669.76	0.257
670.21	0.256
670.65	0.253
671.10	0.250
671.54	0.250
671.99	0.248
672.43	0.242
672.88	0.239
673.32	0.238
673.77	0.233
674.21	0.231
674.66	0.227
675.10	0.224
675.55	0.223
675.99	0.214
676.44	0.215
676.88	0.210
677.33	0.207
677.77	0.201
678.22	0.195
678.66	0.193
679.11	0.187
679.55	0.183
679.99	0.178
680.44	0.174
680.88	0.171
681.33	0.166
681.77	0.160
682.22	0.157
682.66	0.152
683.11	0.148
683.55	0.140
683.99	0.139
684.44	0.135
684.88	0.135
685.33	0.129
685.77	0.124
686.21	0.123
686.66	0.117
687.10	0.113
687.55	0.112
687.99	0.109
688.44	0.106
688.88	0.103
689.32	0.100
689.77	0.098
690.21	0.093
690.65	0.092
691.10	0.089
691.54	0.086
691.99	0.081
692.43	0.082
692.87	0.080
693.32	0.077
693.76	0.076
694.20	0.075
694.65	0.074
695.09	0.073
695.53	0.070
695.98	0.070
696.42	0.067
696.86	0.065
697.31	0.062
697.75	0.063
698.19	0.060
698.64	0.060
699.08	0.061
699.52	0.061
699.97	0.057
700.41	0.057
700.85	0.058
701.30	0.054
701.74	0.054
702.18	0.056
702.63	0.052
703.07	0.052
703.51	0.053
703.96	0.052
704.40	0.052
704.84	0.051
705.28	0.051
705.73	0.050
706.17	0.050
706.61	0.048
707.06	0.049
707.50	0.049
707.94	0.047
708.38	0.047
708.83	0.046
709.27	0.048
709.71	0.045
710.15	0.046
710.60	0.049
711.04	0.046
711.48	0.045
711.92	0.047
712.37	0.044
712.81	0.045
713.25	0.044
713.69	0.046
714.13	0.041
714.58	0.041
715.02	0.042
715.46	0.042
715.90	0.044
716.35	0.045
716.79	0.043
717.23	0.043
717.67	0.046
718.11	0.044
718.56	0.043
719.00	0.044
719.44	0.046
719.88	0.044
720.32	0.045
720.76	0.042
721.21	0.043
721.65	0.044
722.09	0.044
722.53	0.044
722.97	0.042
723.41	0.043
723.86	0.046
724.30	0.045
724.74	0.045
725.18	0.045
725.62	0.049
726.06	0.046
726.50	0.047
726.95	0.046
727.39	0.044
727.83	0.045
728.27	0.045
728.71	0.045
729.15	0.046
729.59	0.047
730.03	0.047
730.48	0.048
730.92	0.046
731.36	0.046
731.80	0.046
732.24	0.043
732.68	0.046
733.12	0.046
733.56	0.046
734.00	0.047
734.44	0.047
734.89	0.046
735.33	0.050
735.77	0.048
736.21	0.046
736.65	0.047
737.09	0.046
737.53	0.050
737.97	0.048
738.41	0.047
738.85	0.052
739.29	0.049
739.73	0.047
740.17	0.048
740.61	0.046
741.05	0.046
741.49	0.049
741.93	0.045
742.37	0.048
742.81	0.050
743.26	0.048
743.70	0.048
744.14	0.051
744.58	0.047
745.02	0.047
745.46	0.049
745.90	0.048
746.34	0.048
746.78	0.048
747.22	0.046
747.66	0.048
748.10	0.047
748.54	0.046
748.98	0.049
749.42	0.050
749.86	0.049
750.29	0.052
750.73	0.049
751.17	0.047
751.61	0.046
752.05	0.047
752.49	0.046
752.93	0.048
753.37	0.046
753.81	0.047
754.25	0.044
754.69	0.045
755.13	0.047
755.57	0.045
756.01	0.043
756.45	0.047
756.89	0.051
757.33	0.047
757.77	0.045
758.21	0.046
758.64	0.046
759.08	0.045
759.52	0.047
759.96	0.046
760.40	0.047
760.84	0.046
761.28	0.046
761.72	0.044
762.16	0.048
762.60	0.045
763.03	0.046
763.47	0.042
763.91	0.050
764.35	0.047
764.79	0.046
765.23	0.045
765.67	0.048
766.11	0.048
766.54	0.044
766.98	0.044
767.42	0.045
767.86	0.044
768.30	0.044
768.74	0.044
769.17	0.047
769.61	0.048
770.05	0.046
770.49	0.045
770.93	0.048
771.37	0.047
771.80	0.045
772.24	0.049
772.68	0.047
773.12	0.047
773.56	0.047
774.00	0.045
774.43	0.045
774.87	0.044
775.31	0.045
775.75	0.046
776.19	0.044
776.62	0.046
777.06	0.043
777.50	0.047
777.94	0.046
778.37	0.045
778.81	0.046
779.25	0.048
779.69	0.049
780.13	0.045
780.56	0.041
781.00	0.048
781.44	0.043
781.88	0.046
782.31	0.046
782.75	0.048
783.19	0.045
783.63	0.046
784.06	0.042
784.50	0.045
784.94	0.044
785.37	0.044
785.81	0.048
786.25	0.043
786.69	0.046
787.12	0.046
787.56	0.043
788.00	0.043
788.43	0.046
788.87	0.044
789.31	0.045
789.75	0.047
790.18	0.045
790.62	0.045
791.06	0.045
791.49	0.043
791.93	0.044
792.37	0.043
792.80	0.043
793.24	0.042
793.68	0.046
794.11	0.041
794.55	0.048
794.99	0.044
795.42	0.040
795.86	0.043
796.30	0.046
796.73	0.046
797.17	0.045
797.61	0.047
798.04	0.044
798.48	0.043
798.91	0.045
799.35	0.043
799.79	0.043
800.22	0.041
800.66	0.042
801.10	0.042
801.53	0.049
801.97	0.047
802.40	0.041
802.84	0.044
803.28	0.043
803.71	0.042
804.15	0.042
804.58	0.045
805.02	0.045
805.46	0.047
805.89	0.045
806.33	0.042
806.76	0.042
807.20	0.038
807.63	0.039
808.07	0.041
808.51	0.038
808.94	0.044
809.38	0.045
809.81	0.039
810.25	0.045
810.68	0.046
811.12	0.042
811.55	0.043
811.99	0.041
812.42	0.041
812.86	0.043
813.29	0.043
813.73	0.040
814.17	0.046
814.60	0.044
815.04	0.043
815.47	0.043
815.91	0.040
816.34	0.046
816.78	0.045
817.21	0.037
817.65	0.040
