SpectraSuite Data File
++++++++++++++++++++++++++++++++++++
Date: Tue Jul 11 13:45:29 CEST 2017
User: IPCE
Dark Spectrum Present: Yes
Reference Spectrum Present: Yes
Number of Sampled Component Spectra: 1
Spectrometers: HR+C0708
Integration Time (usec): 1000 (HR+C0708)
Spectra Averaged: 10 (HR+C0708)
Boxcar Smoothing: 0 (HR+C0708)
Correct for Electrical Dark: No (HR+C0708)
Strobe/Lamp Enabled: No (HR+C0708)
Correct for Detector Non-linearity: No (HR+C0708)
Correct for Stray Light: No (HR+C0708)
Number of Pixels in Processed Spectrum: 2048
>>>>>Begin Processed Spectral Data<<<<<
188.76	0.350
189.23	-0.000
189.70	0.590
190.17	0.288
190.64	0.322
191.12	0.474
191.59	0.462
192.06	-0.000
192.53	0.381
193.01	0.712
193.48	-0.000
193.95	-0.088
194.42	0.070
194.90	0.451
195.37	0.558
195.84	0.576
196.31	-0.000
196.78	1.792
197.26	0.546
197.73	0.126
198.20	0.066
198.67	-0.000
199.14	-0.000
199.62	0.079
200.09	0.733
200.56	0.385
201.03	0.452
201.50	0.464
201.97	0.516
202.45	0.584
202.92	0.525
203.39	0.695
203.86	0.738
204.33	0.360
204.80	0.517
205.28	0.649
205.75	0.555
206.22	0.325
206.69	0.325
207.16	0.486
207.63	0.553
208.11	0.503
208.58	0.617
209.05	0.519
209.52	0.542
209.99	0.539
210.46	0.451
210.93	0.453
211.41	0.562
211.88	0.621
212.35	0.460
212.82	0.619
213.29	0.650
213.76	0.477
214.23	0.493
214.70	0.548
215.18	0.701
215.65	0.771
216.12	0.593
216.59	0.535
217.06	0.853
217.53	0.397
218.00	0.377
218.47	0.518
218.94	0.545
219.41	0.590
219.89	0.480
220.36	0.671
220.83	1.159
221.30	0.603
221.77	0.447
222.24	0.512
222.71	0.579
223.18	0.550
223.65	0.736
224.12	0.711
224.59	0.841
225.06	0.568
225.54	0.771
226.01	0.764
226.48	0.732
226.95	1.014
227.42	1.121
227.89	0.972
228.36	1.173
228.83	0.962
229.30	1.845
229.77	1.369
230.24	1.242
230.71	1.417
231.18	1.286
231.65	1.358
232.12	1.620
232.59	1.641
233.06	1.473
233.53	1.684
234.00	1.498
234.47	1.741
234.94	1.548
235.41	1.665
235.88	2.047
236.35	1.832
236.82	1.869
237.29	2.494
237.76	2.173
238.23	2.049
238.70	2.006
239.17	2.217
239.64	2.559
240.11	2.291
240.58	2.043
241.05	2.162
241.52	2.273
241.99	2.121
242.46	2.358
242.93	2.365
243.40	2.275
243.87	2.302
244.34	2.222
244.81	2.442
245.28	2.378
245.75	2.383
246.22	2.365
246.69	2.389
247.16	2.533
247.63	2.640
248.10	2.590
248.57	2.339
249.04	2.435
249.51	2.367
249.98	2.479
250.45	2.444
250.92	2.379
251.39	2.684
251.85	2.547
252.32	2.518
252.79	2.441
253.26	2.691
253.73	3.010
254.20	2.836
254.67	2.652
255.14	2.464
255.61	2.564
256.08	2.651
256.55	2.612
257.02	2.405
257.49	2.572
257.95	2.538
258.42	2.571
258.89	2.561
259.36	2.552
259.83	2.809
260.30	2.629
260.77	2.646
261.24	2.559
261.71	2.646
262.17	2.635
262.64	2.520
263.11	2.709
263.58	2.591
264.05	2.467
264.52	2.601
264.99	2.523
265.46	2.592
265.92	2.578
266.39	2.598
266.86	2.517
267.33	2.440
267.80	2.527
268.27	2.585
268.74	2.590
269.20	2.575
269.67	2.543
270.14	2.605
270.61	2.540
271.08	2.438
271.55	2.477
272.01	2.473
272.48	2.529
272.95	2.362
273.42	2.511
273.89	2.556
274.36	2.385
274.82	2.474
275.29	2.518
275.76	2.507
276.23	2.422
276.70	2.492
277.16	2.590
277.63	2.552
278.10	2.413
278.57	2.436
279.04	2.499
279.50	2.280
279.97	2.403
280.44	2.520
280.91	2.365
281.38	2.415
281.84	2.435
282.31	2.478
282.78	2.362
283.25	2.439
283.72	2.295
284.18	2.460
284.65	2.410
285.12	2.433
285.59	2.435
286.05	2.352
286.52	2.476
286.99	2.456
287.46	2.435
287.92	2.409
288.39	2.393
288.86	2.358
289.33	2.396
289.79	2.347
290.26	2.327
290.73	2.402
291.20	2.415
291.66	2.408
292.13	2.337
292.60	2.352
293.07	2.365
293.53	2.331
294.00	2.345
294.47	2.338
294.93	2.317
295.40	2.300
295.87	2.311
296.34	2.336
296.80	2.321
297.27	2.298
297.74	2.291
298.20	2.344
298.67	2.289
299.14	2.255
299.60	2.316
300.07	2.195
300.54	2.197
301.01	2.216
301.47	2.247
301.94	2.240
302.41	2.223
302.87	2.186
303.34	2.236
303.81	2.140
304.27	2.211
304.74	2.202
305.21	2.051
305.67	2.224
306.14	2.166
306.61	2.079
307.07	2.113
307.54	2.135
308.01	2.163
308.47	2.166
308.94	2.119
309.40	2.119
309.87	2.125
310.34	2.106
310.80	2.098
311.27	2.139
311.74	2.111
312.20	2.051
312.67	2.083
313.13	2.092
313.60	1.992
314.07	2.055
314.53	2.018
315.00	2.070
315.47	2.061
315.93	2.043
316.40	2.094
316.86	2.070
317.33	2.038
317.80	2.064
318.26	1.990
318.73	2.044
319.19	1.965
319.66	2.010
320.13	1.987
320.59	1.990
321.06	2.004
321.52	1.951
321.99	1.922
322.45	1.943
322.92	1.924
323.39	1.955
323.85	1.889
324.32	1.894
324.78	1.933
325.25	1.927
325.71	1.839
326.18	1.877
326.64	1.890
327.11	1.834
327.58	1.868
328.04	1.855
328.51	1.840
328.97	1.839
329.44	1.844
329.90	1.833
330.37	1.818
330.83	1.806
331.30	1.852
331.76	1.822
332.23	1.793
332.69	1.824
333.16	1.815
333.62	1.838
334.09	1.834
334.56	1.838
335.02	1.831
335.49	1.842
335.95	1.777
336.42	1.807
336.88	1.822
337.35	1.837
337.81	1.818
338.28	1.796
338.74	1.822
339.20	1.845
339.67	1.819
340.13	1.817
340.60	1.803
341.06	1.791
341.53	1.817
341.99	1.795
342.46	1.762
342.92	1.795
343.39	1.772
343.85	1.754
344.32	1.759
344.78	1.750
345.25	1.766
345.71	1.727
346.17	1.724
346.64	1.707
347.10	1.672
347.57	1.648
348.03	1.634
348.50	1.638
348.96	1.580
349.43	1.585
349.89	1.547
350.35	1.542
350.82	1.501
351.28	1.455
351.75	1.454
352.21	1.417
352.67	1.379
353.14	1.354
353.60	1.311
354.07	1.261
354.53	1.239
355.00	1.188
355.46	1.147
355.92	1.095
356.39	1.026
356.85	0.977
357.31	0.909
357.78	0.852
358.24	0.794
358.71	0.734
359.17	0.680
359.63	0.625
360.10	0.581
360.56	0.528
361.03	0.490
361.49	0.457
361.95	0.424
362.42	0.392
362.88	0.369
363.34	0.353
363.81	0.329
364.27	0.311
364.73	0.299
365.20	0.290
365.66	0.279
366.12	0.269
366.59	0.256
367.05	0.252
367.51	0.244
367.98	0.239
368.44	0.236
368.90	0.230
369.37	0.226
369.83	0.221
370.29	0.222
370.76	0.218
371.22	0.217
371.68	0.211
372.15	0.211
372.61	0.210
373.07	0.207
373.54	0.206
374.00	0.206
374.46	0.203
374.92	0.202
375.39	0.201
375.85	0.198
376.31	0.198
376.78	0.194
377.24	0.198
377.70	0.194
378.16	0.193
378.63	0.190
379.09	0.191
379.55	0.189
380.01	0.188
380.48	0.188
380.94	0.187
381.40	0.184
381.87	0.188
382.33	0.184
382.79	0.186
383.25	0.182
383.72	0.182
384.18	0.181
384.64	0.176
385.10	0.178
385.56	0.176
386.03	0.178
386.49	0.177
386.95	0.173
387.41	0.177
387.88	0.176
388.34	0.174
388.80	0.174
389.26	0.172
389.72	0.171
390.19	0.172
390.65	0.169
391.11	0.169
391.57	0.170
392.04	0.168
392.50	0.169
392.96	0.169
393.42	0.168
393.88	0.168
394.34	0.165
394.81	0.163
395.27	0.162
395.73	0.165
396.19	0.160
396.65	0.164
397.12	0.158
397.58	0.159
398.04	0.159
398.50	0.158
398.96	0.159
399.42	0.160
399.89	0.158
400.35	0.156
400.81	0.157
401.27	0.151
401.73	0.156
402.19	0.155
402.65	0.152
403.12	0.151
403.58	0.150
404.04	0.151
404.50	0.149
404.96	0.149
405.42	0.148
405.88	0.148
406.34	0.146
406.81	0.146
407.27	0.144
407.73	0.146
408.19	0.145
408.65	0.142
409.11	0.143
409.57	0.141
410.03	0.143
410.49	0.141
410.96	0.140
411.42	0.140
411.88	0.139
412.34	0.140
412.80	0.138
413.26	0.139
413.72	0.139
414.18	0.135
414.64	0.135
415.10	0.135
415.56	0.134
416.02	0.133
416.48	0.133
416.95	0.136
417.41	0.136
417.87	0.133
418.33	0.131
418.79	0.133
419.25	0.132
419.71	0.135
420.17	0.133
420.63	0.132
421.09	0.128
421.55	0.129
422.01	0.130
422.47	0.131
422.93	0.130
423.39	0.130
423.85	0.130
424.31	0.130
424.77	0.127
425.23	0.127
425.69	0.125
426.15	0.124
426.61	0.126
427.07	0.126
427.53	0.125
427.99	0.126
428.45	0.124
428.91	0.125
429.37	0.125
429.83	0.127
430.29	0.125
430.75	0.127
431.21	0.124
431.67	0.122
432.13	0.121
432.59	0.123
433.05	0.122
433.51	0.123
433.97	0.122
434.43	0.124
434.89	0.121
435.35	0.118
435.81	0.117
436.27	0.120
436.73	0.121
437.19	0.120
437.65	0.120
438.11	0.118
438.57	0.119
439.03	0.116
439.48	0.116
439.94	0.119
440.40	0.118
440.86	0.116
441.32	0.117
441.78	0.118
442.24	0.113
442.70	0.117
443.16	0.115
443.62	0.117
444.08	0.114
444.54	0.115
444.99	0.111
445.45	0.114
445.91	0.112
446.37	0.113
446.83	0.115
447.29	0.114
447.75	0.112
448.21	0.109
448.67	0.109
449.12	0.113
449.58	0.109
450.04	0.113
450.50	0.110
450.96	0.110
451.42	0.110
451.88	0.110
452.34	0.109
452.79	0.105
453.25	0.110
453.71	0.109
454.17	0.108
454.63	0.107
455.09	0.111
455.55	0.108
456.00	0.108
456.46	0.107
456.92	0.107
457.38	0.106
457.84	0.106
458.30	0.109
458.75	0.107
459.21	0.108
459.67	0.107
460.13	0.104
460.59	0.107
461.04	0.108
461.50	0.108
461.96	0.106
462.42	0.105
462.88	0.105
463.33	0.108
463.79	0.107
464.25	0.106
464.71	0.107
465.17	0.106
465.62	0.108
466.08	0.106
466.54	0.105
467.00	0.106
467.46	0.105
467.91	0.106
468.37	0.105
468.83	0.104
469.29	0.105
469.74	0.106
470.20	0.104
470.66	0.107
471.12	0.106
471.57	0.103
472.03	0.106
472.49	0.105
472.95	0.103
473.40	0.102
473.86	0.107
474.32	0.104
474.78	0.106
475.23	0.102
475.69	0.104
476.15	0.102
476.60	0.105
477.06	0.105
477.52	0.102
477.98	0.105
478.43	0.103
478.89	0.102
479.35	0.104
479.80	0.103
480.26	0.102
480.72	0.103
481.18	0.102
481.63	0.101
482.09	0.101
482.55	0.102
483.00	0.102
483.46	0.103
483.92	0.098
484.37	0.102
484.83	0.097
485.29	0.101
485.74	0.099
486.20	0.103
486.66	0.102
487.11	0.102
487.57	0.100
488.03	0.103
488.48	0.098
488.94	0.101
489.40	0.100
489.85	0.100
490.31	0.100
490.77	0.098
491.22	0.101
491.68	0.098
492.13	0.099
492.59	0.100
493.05	0.098
493.50	0.100
493.96	0.099
494.42	0.100
494.87	0.099
495.33	0.099
495.78	0.098
496.24	0.098
496.70	0.100
497.15	0.098
497.61	0.098
498.06	0.098
498.52	0.099
498.98	0.098
499.43	0.098
499.89	0.098
500.34	0.099
500.80	0.098
501.25	0.097
501.71	0.098
502.17	0.099
502.62	0.096
503.08	0.098
503.53	0.098
503.99	0.096
504.44	0.096
504.90	0.096
505.36	0.096
505.81	0.096
506.27	0.097
506.72	0.097
507.18	0.098
507.63	0.094
508.09	0.096
508.54	0.095
509.00	0.094
509.45	0.097
509.91	0.094
510.36	0.095
510.82	0.094
511.27	0.096
511.73	0.097
512.19	0.095
512.64	0.094
513.10	0.093
513.55	0.094
514.01	0.093
514.46	0.094
514.92	0.093
515.37	0.095
515.83	0.095
516.28	0.093
516.73	0.092
517.19	0.093
517.64	0.091
518.10	0.092
518.55	0.091
519.01	0.094
519.46	0.093
519.92	0.092
520.37	0.091
520.83	0.093
521.28	0.087
521.74	0.092
522.19	0.092
522.65	0.090
523.10	0.094
523.55	0.092
524.01	0.090
524.46	0.093
524.92	0.089
525.37	0.091
525.83	0.092
526.28	0.091
526.73	0.092
527.19	0.090
527.64	0.093
528.10	0.092
528.55	0.092
529.01	0.092
529.46	0.090
529.91	0.090
530.37	0.092
530.82	0.091
531.28	0.091
531.73	0.091
532.18	0.091
532.64	0.090
533.09	0.093
533.54	0.093
534.00	0.092
534.45	0.092
534.91	0.093
535.36	0.093
535.81	0.095
536.27	0.093
536.72	0.095
537.17	0.094
537.63	0.092
538.08	0.093
538.54	0.095
538.99	0.096
539.44	0.094
539.90	0.094
540.35	0.096
540.80	0.095
541.26	0.096
541.71	0.099
542.16	0.095
542.62	0.098
543.07	0.099
543.52	0.097
543.98	0.096
544.43	0.096
544.88	0.098
545.34	0.099
545.79	0.097
546.24	0.098
546.69	0.099
547.15	0.101
547.60	0.103
548.05	0.098
548.51	0.102
548.96	0.100
549.41	0.102
549.86	0.100
550.32	0.101
550.77	0.101
551.22	0.101
551.68	0.105
552.13	0.104
552.58	0.103
553.03	0.103
553.49	0.104
553.94	0.106
554.39	0.107
554.84	0.106
555.30	0.107
555.75	0.107
556.20	0.107
556.65	0.107
557.11	0.110
557.56	0.106
558.01	0.110
558.46	0.111
558.92	0.110
559.37	0.114
559.82	0.114
560.27	0.112
560.72	0.114
561.18	0.115
561.63	0.114
562.08	0.117
562.53	0.115
562.99	0.118
563.44	0.118
563.89	0.117
564.34	0.116
564.79	0.117
565.25	0.119
565.70	0.123
566.15	0.122
566.60	0.121
567.05	0.124
567.50	0.122
567.96	0.124
568.41	0.124
568.86	0.125
569.31	0.127
569.76	0.125
570.21	0.127
570.67	0.129
571.12	0.129
571.57	0.131
572.02	0.130
572.47	0.129
572.92	0.132
573.37	0.134
573.83	0.132
574.28	0.134
574.73	0.136
575.18	0.136
575.63	0.136
576.08	0.136
576.53	0.140
576.98	0.140
577.44	0.142
577.89	0.142
578.34	0.144
578.79	0.143
579.24	0.145
579.69	0.147
580.14	0.146
580.59	0.147
581.04	0.148
581.49	0.150
581.95	0.153
582.40	0.153
582.85	0.154
583.30	0.155
583.75	0.158
584.20	0.158
584.65	0.160
585.10	0.163
585.55	0.160
586.00	0.165
586.45	0.166
586.90	0.169
587.35	0.170
587.80	0.173
588.25	0.174
588.71	0.176
589.16	0.178
589.61	0.178
590.06	0.180
590.51	0.184
590.96	0.185
591.41	0.184
591.86	0.187
592.31	0.191
592.76	0.192
593.21	0.192
593.66	0.195
594.11	0.200
594.56	0.200
595.01	0.202
595.46	0.205
595.91	0.209
596.36	0.211
596.81	0.208
597.26	0.211
597.71	0.215
598.16	0.217
598.61	0.217
599.06	0.219
599.51	0.221
599.96	0.224
600.41	0.228
600.86	0.230
601.31	0.229
601.76	0.235
602.21	0.231
602.65	0.236
603.10	0.238
603.55	0.239
604.00	0.242
604.45	0.245
604.90	0.245
605.35	0.247
605.80	0.250
606.25	0.252
606.70	0.254
607.15	0.252
607.60	0.255
608.05	0.259
608.50	0.259
608.95	0.262
609.39	0.263
609.84	0.264
610.29	0.266
610.74	0.265
611.19	0.267
611.64	0.270
612.09	0.272
612.54	0.271
612.99	0.269
613.44	0.270
613.88	0.273
614.33	0.276
614.78	0.275
615.23	0.278
615.68	0.278
616.13	0.276
616.58	0.279
617.03	0.278
617.47	0.278
617.92	0.280
618.37	0.280
618.82	0.280
619.27	0.281
619.72	0.281
620.17	0.283
620.61	0.282
621.06	0.282
621.51	0.287
621.96	0.285
622.41	0.286
622.86	0.288
623.30	0.285
623.75	0.286
624.20	0.286
624.65	0.290
625.10	0.289
625.54	0.289
625.99	0.290
626.44	0.295
626.89	0.293
627.34	0.295
627.78	0.296
628.23	0.297
628.68	0.298
629.13	0.300
629.58	0.299
630.02	0.302
630.47	0.304
630.92	0.304
631.37	0.304
631.81	0.308
632.26	0.310
632.71	0.313
633.16	0.313
633.61	0.315
634.05	0.320
634.50	0.319
634.95	0.323
635.40	0.325
635.84	0.325
636.29	0.329
636.74	0.329
637.18	0.335
637.63	0.336
638.08	0.339
638.53	0.343
638.97	0.345
639.42	0.344
639.87	0.352
640.32	0.353
640.76	0.355
641.21	0.359
641.66	0.361
642.10	0.365
642.55	0.366
643.00	0.370
643.44	0.374
643.89	0.376
644.34	0.379
644.79	0.384
645.23	0.388
645.68	0.390
646.13	0.396
646.57	0.399
647.02	0.405
647.47	0.405
647.91	0.410
648.36	0.415
648.81	0.418
649.25	0.415
649.70	0.424
650.15	0.426
650.59	0.428
651.04	0.434
651.48	0.436
651.93	0.435
652.38	0.441
652.82	0.442
653.27	0.446
653.72	0.448
654.16	0.452
654.61	0.456
655.06	0.458
655.50	0.462
655.95	0.465
656.39	0.466
656.84	0.470
657.29	0.472
657.73	0.473
658.18	0.479
658.62	0.478
659.07	0.481
659.52	0.484
659.96	0.486
660.41	0.487
660.85	0.487
661.30	0.490
661.74	0.491
662.19	0.492
662.64	0.494
663.08	0.498
663.53	0.496
663.97	0.496
664.42	0.499
664.86	0.498
665.31	0.500
665.75	0.499
666.20	0.498
666.65	0.495
667.09	0.495
667.54	0.493
667.98	0.489
668.43	0.490
668.87	0.486
669.32	0.486
669.76	0.480
670.21	0.477
670.65	0.475
671.10	0.470
671.54	0.464
671.99	0.461
672.43	0.452
672.88	0.449
673.32	0.443
673.77	0.437
674.21	0.430
674.66	0.425
675.10	0.415
675.55	0.407
675.99	0.401
676.44	0.394
676.88	0.387
677.33	0.379
677.77	0.371
678.22	0.359
678.66	0.356
679.11	0.345
679.55	0.335
679.99	0.326
680.44	0.320
680.88	0.310
681.33	0.301
681.77	0.291
682.22	0.284
682.66	0.274
683.11	0.268
683.55	0.257
683.99	0.250
684.44	0.242
684.88	0.237
685.33	0.228
685.77	0.221
686.21	0.216
686.66	0.205
687.10	0.197
687.55	0.192
687.99	0.186
688.44	0.182
688.88	0.175
689.32	0.168
689.77	0.162
690.21	0.159
690.65	0.152
691.10	0.147
691.54	0.142
691.99	0.137
692.43	0.134
692.87	0.128
693.32	0.125
693.76	0.122
694.20	0.119
694.65	0.115
695.09	0.112
695.53	0.110
695.98	0.107
696.42	0.105
696.86	0.096
697.31	0.097
697.75	0.095
698.19	0.092
698.64	0.091
699.08	0.090
699.52	0.088
699.97	0.085
700.41	0.085
700.85	0.082
701.30	0.080
701.74	0.077
702.18	0.079
702.63	0.078
703.07	0.073
703.51	0.076
703.96	0.073
704.40	0.069
704.84	0.068
705.28	0.068
705.73	0.068
706.17	0.066
706.61	0.064
707.06	0.066
707.50	0.064
707.94	0.063
708.38	0.064
708.83	0.062
709.27	0.060
709.71	0.060
710.15	0.060
710.60	0.061
711.04	0.058
711.48	0.058
711.92	0.060
712.37	0.057
712.81	0.056
713.25	0.056
713.69	0.060
714.13	0.054
714.58	0.053
715.02	0.054
715.46	0.054
715.90	0.056
716.35	0.059
716.79	0.055
717.23	0.056
717.67	0.056
718.11	0.054
718.56	0.054
719.00	0.055
719.44	0.056
719.88	0.053
720.32	0.051
720.76	0.054
721.21	0.053
721.65	0.054
722.09	0.053
722.53	0.053
722.97	0.055
723.41	0.052
723.86	0.054
724.30	0.054
724.74	0.056
725.18	0.055
725.62	0.056
726.06	0.056
726.50	0.054
726.95	0.053
727.39	0.054
727.83	0.053
728.27	0.055
728.71	0.055
729.15	0.057
729.59	0.055
730.03	0.056
730.48	0.058
730.92	0.052
731.36	0.056
731.80	0.051
732.24	0.055
732.68	0.055
733.12	0.055
733.56	0.056
734.00	0.055
734.44	0.055
734.89	0.054
735.33	0.058
735.77	0.056
736.21	0.055
736.65	0.055
737.09	0.053
737.53	0.058
737.97	0.058
738.41	0.057
738.85	0.059
739.29	0.059
739.73	0.053
740.17	0.055
740.61	0.056
741.05	0.056
741.49	0.056
741.93	0.056
742.37	0.054
742.81	0.057
743.26	0.055
743.70	0.056
744.14	0.057
744.58	0.057
745.02	0.056
745.46	0.060
745.90	0.056
746.34	0.058
746.78	0.057
747.22	0.055
747.66	0.058
748.10	0.055
748.54	0.053
748.98	0.056
749.42	0.055
749.86	0.057
750.29	0.055
750.73	0.055
751.17	0.056
751.61	0.053
752.05	0.057
752.49	0.052
752.93	0.052
753.37	0.055
753.81	0.056
754.25	0.054
754.69	0.055
755.13	0.055
755.57	0.054
756.01	0.054
756.45	0.055
756.89	0.055
757.33	0.057
757.77	0.054
758.21	0.053
758.64	0.053
759.08	0.052
759.52	0.052
759.96	0.053
760.40	0.055
760.84	0.056
761.28	0.056
761.72	0.051
762.16	0.054
762.60	0.053
763.03	0.053
763.47	0.051
763.91	0.055
764.35	0.052
764.79	0.053
765.23	0.055
765.67	0.057
766.11	0.053
766.54	0.052
766.98	0.054
767.42	0.054
767.86	0.051
768.30	0.047
768.74	0.053
769.17	0.053
769.61	0.054
770.05	0.057
770.49	0.053
770.93	0.055
771.37	0.055
771.80	0.052
772.24	0.056
772.68	0.055
773.12	0.055
773.56	0.056
774.00	0.055
774.43	0.054
774.87	0.054
775.31	0.055
775.75	0.054
776.19	0.051
776.62	0.055
777.06	0.051
777.50	0.052
777.94	0.056
778.37	0.055
778.81	0.055
779.25	0.056
779.69	0.053
780.13	0.053
780.56	0.052
781.00	0.050
781.44	0.052
781.88	0.055
782.31	0.053
782.75	0.057
783.19	0.053
783.63	0.055
784.06	0.051
784.50	0.052
784.94	0.052
785.37	0.051
785.81	0.053
786.25	0.052
786.69	0.054
787.12	0.054
787.56	0.052
788.00	0.053
788.43	0.050
788.87	0.051
789.31	0.053
789.75	0.053
790.18	0.052
790.62	0.053
791.06	0.054
791.49	0.050
791.93	0.052
792.37	0.051
792.80	0.053
793.24	0.053
793.68	0.051
794.11	0.049
794.55	0.052
794.99	0.053
795.42	0.051
795.86	0.052
796.30	0.055
796.73	0.055
797.17	0.051
797.61	0.050
798.04	0.051
798.48	0.055
798.91	0.058
799.35	0.049
799.79	0.054
800.22	0.050
800.66	0.049
801.10	0.055
801.53	0.054
801.97	0.052
802.40	0.051
802.84	0.054
803.28	0.054
803.71	0.054
804.15	0.052
804.58	0.052
805.02	0.051
805.46	0.054
805.89	0.054
806.33	0.050
806.76	0.053
807.20	0.046
807.63	0.050
808.07	0.054
808.51	0.050
808.94	0.051
809.38	0.055
809.81	0.048
810.25	0.051
810.68	0.055
811.12	0.050
811.55	0.053
811.99	0.050
812.42	0.047
812.86	0.053
813.29	0.052
813.73	0.052
814.17	0.052
814.60	0.050
815.04	0.054
815.47	0.047
815.91	0.049
816.34	0.053
816.78	0.053
817.21	0.052
817.65	0.049
818.08	0.049
