SpectraSuite Data File
++++++++++++++++++++++++++++++++++++
Date: Tue Jul 11 14:12:59 CEST 2017
User: IPCE
Dark Spectrum Present: Yes
Reference Spectrum Present: Yes
Number of Sampled Component Spectra: 1
Spectrometers: HR+C0708
Integration Time (usec): 1000 (HR+C0708)
Spectra Averaged: 10 (HR+C0708)
Boxcar Smoothing: 0 (HR+C0708)
Correct for Electrical Dark: No (HR+C0708)
Strobe/Lamp Enabled: No (HR+C0708)
Correct for Detector Non-linearity: No (HR+C0708)
Correct for Stray Light: No (HR+C0708)
Number of Pixels in Processed Spectrum: 2048
>>>>>Begin Processed Spectral Data<<<<<
188.76	0.412
189.23	-0.000
189.70	0.327
190.17	-0.031
190.64	0.189
191.12	0.188
191.59	0.260
192.06	0.121
192.53	0.342
193.01	0.323
193.48	0.653
193.95	-0.027
194.42	0.556
194.90	0.357
195.37	-0.122
195.84	-0.000
196.31	-0.000
196.78	0.457
197.26	0.079
197.73	0.203
198.20	1.006
198.67	-0.000
199.14	-0.171
199.62	-0.000
200.09	0.197
200.56	0.180
201.03	0.395
201.50	0.345
201.97	0.440
202.45	0.388
202.92	0.482
203.39	0.446
203.86	0.250
204.33	0.211
204.80	0.432
205.28	0.535
205.75	0.217
206.22	0.389
206.69	0.341
207.16	0.174
207.63	0.252
208.11	0.269
208.58	0.374
209.05	0.687
209.52	0.329
209.99	0.521
210.46	0.349
210.93	0.279
211.41	0.393
211.88	0.233
212.35	0.362
212.82	0.322
213.29	0.372
213.76	0.309
214.23	0.198
214.70	0.363
215.18	0.518
215.65	0.407
216.12	0.358
216.59	0.393
217.06	0.542
217.53	0.323
218.00	0.487
218.47	0.417
218.94	0.393
219.41	0.345
219.89	0.337
220.36	0.580
220.83	0.425
221.30	0.369
221.77	0.611
222.24	0.494
222.71	0.339
223.18	0.462
223.65	0.567
224.12	0.539
224.59	0.402
225.06	0.533
225.54	0.718
226.01	0.662
226.48	0.515
226.95	1.089
227.42	1.018
227.89	0.731
228.36	0.969
228.83	0.980
229.30	1.064
229.77	1.117
230.24	1.134
230.71	1.197
231.18	1.066
231.65	1.031
232.12	1.271
232.59	1.472
233.06	1.205
233.53	1.511
234.00	1.420
234.47	1.534
234.94	1.519
235.41	1.645
235.88	1.784
236.35	1.646
236.82	1.687
237.29	1.886
237.76	1.807
238.23	1.833
238.70	2.080
239.17	1.990
239.64	2.124
240.11	1.980
240.58	1.942
241.05	2.075
241.52	2.103
241.99	2.063
242.46	2.217
242.93	2.236
243.40	2.049
243.87	2.146
244.34	2.136
244.81	2.141
245.28	2.263
245.75	2.248
246.22	2.182
246.69	2.192
247.16	2.274
247.63	2.335
248.10	2.298
248.57	2.053
249.04	2.345
249.51	2.237
249.98	2.183
250.45	2.224
250.92	2.129
251.39	2.086
251.85	1.927
252.32	1.898
252.79	1.800
253.26	1.685
253.73	1.599
254.20	1.530
254.67	1.451
255.14	1.358
255.61	1.307
256.08	1.262
256.55	1.205
257.02	1.150
257.49	1.118
257.95	1.089
258.42	1.046
258.89	1.012
259.36	0.991
259.83	0.966
260.30	0.937
260.77	0.918
261.24	0.898
261.71	0.878
262.17	0.863
262.64	0.852
263.11	0.838
263.58	0.820
264.05	0.806
264.52	0.793
264.99	0.784
265.46	0.767
265.92	0.762
266.39	0.751
266.86	0.739
267.33	0.729
267.80	0.720
268.27	0.717
268.74	0.702
269.20	0.695
269.67	0.686
270.14	0.683
270.61	0.673
271.08	0.668
271.55	0.657
272.01	0.651
272.48	0.644
272.95	0.643
273.42	0.637
273.89	0.631
274.36	0.623
274.82	0.620
275.29	0.615
275.76	0.608
276.23	0.614
276.70	0.607
277.16	0.604
277.63	0.603
278.10	0.599
278.57	0.593
279.04	0.590
279.50	0.588
279.97	0.591
280.44	0.590
280.91	0.585
281.38	0.587
281.84	0.583
282.31	0.579
282.78	0.581
283.25	0.576
283.72	0.578
284.18	0.579
284.65	0.581
285.12	0.580
285.59	0.579
286.05	0.575
286.52	0.581
286.99	0.579
287.46	0.584
287.92	0.582
288.39	0.580
288.86	0.579
289.33	0.579
289.79	0.582
290.26	0.581
290.73	0.576
291.20	0.578
291.66	0.577
292.13	0.568
292.60	0.568
293.07	0.566
293.53	0.561
294.00	0.553
294.47	0.550
294.93	0.547
295.40	0.541
295.87	0.530
296.34	0.527
296.80	0.519
297.27	0.513
297.74	0.500
298.20	0.495
298.67	0.491
299.14	0.482
299.60	0.475
300.07	0.462
300.54	0.457
301.01	0.449
301.47	0.441
301.94	0.431
302.41	0.427
302.87	0.413
303.34	0.414
303.81	0.404
304.27	0.395
304.74	0.389
305.21	0.380
305.67	0.380
306.14	0.372
306.61	0.362
307.07	0.358
307.54	0.354
308.01	0.349
308.47	0.347
308.94	0.339
309.40	0.336
309.87	0.331
310.34	0.330
310.80	0.325
311.27	0.323
311.74	0.319
312.20	0.318
312.67	0.317
313.13	0.312
313.60	0.310
314.07	0.307
314.53	0.303
315.00	0.302
315.47	0.299
315.93	0.299
316.40	0.293
316.86	0.291
317.33	0.293
317.80	0.292
318.26	0.290
318.73	0.287
319.19	0.284
319.66	0.282
320.13	0.281
320.59	0.281
321.06	0.277
321.52	0.276
321.99	0.273
322.45	0.275
322.92	0.272
323.39	0.270
323.85	0.268
324.32	0.264
324.78	0.263
325.25	0.264
325.71	0.259
326.18	0.261
326.64	0.258
327.11	0.255
327.58	0.255
328.04	0.253
328.51	0.250
328.97	0.250
329.44	0.250
329.90	0.247
330.37	0.243
330.83	0.243
331.30	0.243
331.76	0.240
332.23	0.241
332.69	0.237
333.16	0.236
333.62	0.234
334.09	0.233
334.56	0.233
335.02	0.227
335.49	0.226
335.95	0.227
336.42	0.223
336.88	0.221
337.35	0.222
337.81	0.222
338.28	0.220
338.74	0.218
339.20	0.216
339.67	0.215
340.13	0.212
340.60	0.214
341.06	0.211
341.53	0.211
341.99	0.209
342.46	0.211
342.92	0.211
343.39	0.209
343.85	0.200
344.32	0.203
344.78	0.202
345.25	0.200
345.71	0.201
346.17	0.203
346.64	0.201
347.10	0.197
347.57	0.196
348.03	0.191
348.50	0.189
348.96	0.189
349.43	0.189
349.89	0.192
350.35	0.185
350.82	0.188
351.28	0.184
351.75	0.184
352.21	0.180
352.67	0.176
353.14	0.181
353.60	0.174
354.07	0.167
354.53	0.167
355.00	0.166
355.46	0.161
355.92	0.158
356.39	0.157
356.85	0.149
357.31	0.151
357.78	0.146
358.24	0.140
358.71	0.142
359.17	0.134
359.63	0.136
360.10	0.132
360.56	0.125
361.03	0.124
361.49	0.122
361.95	0.116
362.42	0.119
362.88	0.117
363.34	0.115
363.81	0.113
364.27	0.109
364.73	0.112
365.20	0.112
365.66	0.108
366.12	0.112
366.59	0.107
367.05	0.109
367.51	0.107
367.98	0.106
368.44	0.106
368.90	0.106
369.37	0.103
369.83	0.106
370.29	0.105
370.76	0.101
371.22	0.102
371.68	0.104
372.15	0.102
372.61	0.102
373.07	0.105
373.54	0.104
374.00	0.103
374.46	0.101
374.92	0.100
375.39	0.101
375.85	0.100
376.31	0.102
376.78	0.101
377.24	0.100
377.70	0.100
378.16	0.099
378.63	0.099
379.09	0.097
379.55	0.099
380.01	0.098
380.48	0.099
380.94	0.099
381.40	0.099
381.87	0.100
382.33	0.097
382.79	0.098
383.25	0.098
383.72	0.098
384.18	0.097
384.64	0.095
385.10	0.097
385.56	0.096
386.03	0.096
386.49	0.098
386.95	0.094
387.41	0.095
387.88	0.094
388.34	0.094
388.80	0.095
389.26	0.092
389.72	0.095
390.19	0.098
390.65	0.094
391.11	0.095
391.57	0.095
392.04	0.095
392.50	0.095
392.96	0.093
393.42	0.094
393.88	0.093
394.34	0.092
394.81	0.093
395.27	0.093
395.73	0.094
396.19	0.092
396.65	0.093
397.12	0.089
397.58	0.093
398.04	0.093
398.50	0.092
398.96	0.094
399.42	0.094
399.89	0.091
400.35	0.090
400.81	0.092
401.27	0.090
401.73	0.089
402.19	0.091
402.65	0.088
403.12	0.089
403.58	0.087
404.04	0.085
404.50	0.085
404.96	0.085
405.42	0.087
405.88	0.087
406.34	0.086
406.81	0.084
407.27	0.087
407.73	0.085
408.19	0.085
408.65	0.083
409.11	0.084
409.57	0.083
410.03	0.082
410.49	0.080
410.96	0.082
411.42	0.083
411.88	0.082
412.34	0.082
412.80	0.083
413.26	0.081
413.72	0.082
414.18	0.079
414.64	0.080
415.10	0.081
415.56	0.079
416.02	0.080
416.48	0.081
416.95	0.078
417.41	0.079
417.87	0.078
418.33	0.079
418.79	0.081
419.25	0.079
419.71	0.080
420.17	0.078
420.63	0.078
421.09	0.079
421.55	0.077
422.01	0.077
422.47	0.080
422.93	0.079
423.39	0.084
423.85	0.079
424.31	0.078
424.77	0.080
425.23	0.079
425.69	0.075
426.15	0.077
426.61	0.077
427.07	0.076
427.53	0.079
427.99	0.078
428.45	0.077
428.91	0.076
429.37	0.077
429.83	0.076
430.29	0.077
430.75	0.078
431.21	0.076
431.67	0.075
432.13	0.072
432.59	0.077
433.05	0.075
433.51	0.077
433.97	0.076
434.43	0.077
434.89	0.076
435.35	0.073
435.81	0.070
436.27	0.073
436.73	0.077
437.19	0.077
437.65	0.075
438.11	0.074
438.57	0.076
439.03	0.073
439.48	0.071
439.94	0.078
440.40	0.073
440.86	0.072
441.32	0.071
441.78	0.072
442.24	0.074
442.70	0.075
443.16	0.072
443.62	0.079
444.08	0.073
444.54	0.075
444.99	0.072
445.45	0.074
445.91	0.071
446.37	0.072
446.83	0.073
447.29	0.072
447.75	0.072
448.21	0.071
448.67	0.068
449.12	0.072
449.58	0.067
450.04	0.073
450.50	0.071
450.96	0.069
451.42	0.072
451.88	0.073
452.34	0.072
452.79	0.068
453.25	0.070
453.71	0.067
454.17	0.069
454.63	0.068
455.09	0.072
455.55	0.074
456.00	0.072
456.46	0.069
456.92	0.067
457.38	0.069
457.84	0.069
458.30	0.071
458.75	0.074
459.21	0.070
459.67	0.071
460.13	0.070
460.59	0.071
461.04	0.070
461.50	0.071
461.96	0.070
462.42	0.070
462.88	0.072
463.33	0.069
463.79	0.072
464.25	0.071
464.71	0.073
465.17	0.070
465.62	0.071
466.08	0.070
466.54	0.070
467.00	0.071
467.46	0.069
467.91	0.069
468.37	0.071
468.83	0.072
469.29	0.071
469.74	0.069
470.20	0.072
470.66	0.073
471.12	0.072
471.57	0.071
472.03	0.072
472.49	0.073
472.95	0.072
473.40	0.074
473.86	0.073
474.32	0.075
474.78	0.071
475.23	0.072
475.69	0.070
476.15	0.070
476.60	0.072
477.06	0.074
477.52	0.070
477.98	0.074
478.43	0.070
478.89	0.072
479.35	0.071
479.80	0.072
480.26	0.070
480.72	0.071
481.18	0.072
481.63	0.074
482.09	0.071
482.55	0.072
483.00	0.072
483.46	0.071
483.92	0.069
484.37	0.073
484.83	0.070
485.29	0.072
485.74	0.071
486.20	0.072
486.66	0.074
487.11	0.071
487.57	0.072
488.03	0.072
488.48	0.072
488.94	0.074
489.40	0.073
489.85	0.073
490.31	0.070
490.77	0.072
491.22	0.072
491.68	0.071
492.13	0.070
492.59	0.072
493.05	0.073
493.50	0.073
493.96	0.071
494.42	0.073
494.87	0.074
495.33	0.071
495.78	0.072
496.24	0.073
496.70	0.072
497.15	0.071
497.61	0.071
498.06	0.071
498.52	0.072
498.98	0.071
499.43	0.072
499.89	0.072
500.34	0.074
500.80	0.071
501.25	0.072
501.71	0.072
502.17	0.073
502.62	0.070
503.08	0.073
503.53	0.072
503.99	0.071
504.44	0.070
504.90	0.070
505.36	0.072
505.81	0.072
506.27	0.072
506.72	0.072
507.18	0.072
507.63	0.069
508.09	0.071
508.54	0.071
509.00	0.070
509.45	0.070
509.91	0.070
510.36	0.071
510.82	0.069
511.27	0.072
511.73	0.073
512.19	0.071
512.64	0.071
513.10	0.070
513.55	0.069
514.01	0.070
514.46	0.072
514.92	0.071
515.37	0.072
515.83	0.070
516.28	0.070
516.73	0.071
517.19	0.070
517.64	0.068
518.10	0.071
518.55	0.070
519.01	0.070
519.46	0.071
519.92	0.070
520.37	0.070
520.83	0.073
521.28	0.069
521.74	0.068
522.19	0.068
522.65	0.069
523.10	0.072
523.55	0.070
524.01	0.069
524.46	0.072
524.92	0.068
525.37	0.068
525.83	0.071
526.28	0.072
526.73	0.070
527.19	0.068
527.64	0.071
528.10	0.072
528.55	0.070
529.01	0.071
529.46	0.070
529.91	0.070
530.37	0.069
530.82	0.071
531.28	0.072
531.73	0.071
532.18	0.072
532.64	0.070
533.09	0.072
533.54	0.073
534.00	0.072
534.45	0.073
534.91	0.070
535.36	0.072
535.81	0.072
536.27	0.072
536.72	0.073
537.17	0.073
537.63	0.073
538.08	0.073
538.54	0.076
538.99	0.074
539.44	0.075
539.90	0.073
540.35	0.074
540.80	0.074
541.26	0.076
541.71	0.076
542.16	0.074
542.62	0.078
543.07	0.076
543.52	0.077
543.98	0.077
544.43	0.075
544.88	0.078
545.34	0.079
545.79	0.080
546.24	0.077
546.69	0.080
547.15	0.080
547.60	0.081
548.05	0.081
548.51	0.082
548.96	0.081
549.41	0.081
549.86	0.081
550.32	0.082
550.77	0.082
551.22	0.083
551.68	0.084
552.13	0.087
552.58	0.084
553.03	0.085
553.49	0.085
553.94	0.086
554.39	0.087
554.84	0.085
555.30	0.086
555.75	0.089
556.20	0.090
556.65	0.089
557.11	0.090
557.56	0.089
558.01	0.090
558.46	0.092
558.92	0.090
559.37	0.096
559.82	0.094
560.27	0.096
560.72	0.093
561.18	0.095
561.63	0.095
562.08	0.097
562.53	0.098
562.99	0.099
563.44	0.099
563.89	0.098
564.34	0.099
564.79	0.098
565.25	0.100
565.70	0.102
566.15	0.103
566.60	0.102
567.05	0.104
567.50	0.105
567.96	0.104
568.41	0.106
568.86	0.107
569.31	0.107
569.76	0.106
570.21	0.108
570.67	0.110
571.12	0.109
571.57	0.111
572.02	0.113
572.47	0.110
572.92	0.114
573.37	0.115
573.83	0.115
574.28	0.115
574.73	0.116
575.18	0.117
575.63	0.118
576.08	0.120
576.53	0.120
576.98	0.121
577.44	0.123
577.89	0.122
578.34	0.127
578.79	0.125
579.24	0.128
579.69	0.128
580.14	0.128
580.59	0.130
581.04	0.132
581.49	0.131
581.95	0.134
582.40	0.134
582.85	0.136
583.30	0.136
583.75	0.139
584.20	0.139
584.65	0.141
585.10	0.143
585.55	0.145
586.00	0.146
586.45	0.147
586.90	0.150
587.35	0.150
587.80	0.150
588.25	0.156
588.71	0.156
589.16	0.159
589.61	0.160
590.06	0.162
590.51	0.163
590.96	0.165
591.41	0.167
591.86	0.170
592.31	0.173
592.76	0.171
593.21	0.174
593.66	0.176
594.11	0.180
594.56	0.180
595.01	0.182
595.46	0.186
595.91	0.189
596.36	0.188
596.81	0.190
597.26	0.193
597.71	0.195
598.16	0.197
598.61	0.198
599.06	0.201
599.51	0.202
599.96	0.204
600.41	0.209
600.86	0.208
601.31	0.208
601.76	0.213
602.21	0.213
602.65	0.215
603.10	0.217
603.55	0.218
604.00	0.220
604.45	0.223
604.90	0.225
605.35	0.227
605.80	0.230
606.25	0.231
606.70	0.232
607.15	0.232
607.60	0.234
608.05	0.237
608.50	0.238
608.95	0.240
609.39	0.240
609.84	0.242
610.29	0.244
610.74	0.246
611.19	0.246
611.64	0.248
612.09	0.251
612.54	0.250
612.99	0.250
613.44	0.251
613.88	0.253
614.33	0.252
614.78	0.256
615.23	0.256
615.68	0.255
616.13	0.257
616.58	0.258
617.03	0.257
617.47	0.258
617.92	0.260
618.37	0.260
618.82	0.258
619.27	0.260
619.72	0.261
620.17	0.262
620.61	0.263
621.06	0.262
621.51	0.267
621.96	0.265
622.41	0.266
622.86	0.270
623.30	0.267
623.75	0.267
624.20	0.267
624.65	0.271
625.10	0.273
625.54	0.270
625.99	0.273
626.44	0.276
626.89	0.274
627.34	0.275
627.78	0.277
628.23	0.279
628.68	0.282
629.13	0.282
629.58	0.281
630.02	0.282
630.47	0.285
630.92	0.287
631.37	0.287
631.81	0.289
632.26	0.292
632.71	0.295
633.16	0.294
633.61	0.297
634.05	0.298
634.50	0.301
634.95	0.303
635.40	0.306
635.84	0.306
636.29	0.311
636.74	0.310
637.18	0.313
637.63	0.316
638.08	0.319
638.53	0.324
638.97	0.326
639.42	0.327
639.87	0.329
640.32	0.333
640.76	0.338
641.21	0.338
641.66	0.342
642.10	0.345
642.55	0.348
643.00	0.350
643.44	0.354
643.89	0.357
644.34	0.359
644.79	0.365
645.23	0.366
645.68	0.371
646.13	0.374
646.57	0.376
647.02	0.382
647.47	0.384
647.91	0.387
648.36	0.392
648.81	0.395
649.25	0.396
649.70	0.398
650.15	0.404
650.59	0.407
651.04	0.409
651.48	0.410
651.93	0.411
652.38	0.415
652.82	0.417
653.27	0.422
653.72	0.423
654.16	0.425
654.61	0.432
655.06	0.431
655.50	0.435
655.95	0.434
656.39	0.441
656.84	0.445
657.29	0.446
657.73	0.446
658.18	0.450
658.62	0.454
659.07	0.451
659.52	0.451
659.96	0.456
660.41	0.458
660.85	0.457
661.30	0.461
661.74	0.461
662.19	0.462
662.64	0.462
663.08	0.463
663.53	0.467
663.97	0.464
664.42	0.465
664.86	0.464
665.31	0.466
665.75	0.466
666.20	0.463
666.65	0.467
667.09	0.462
667.54	0.460
667.98	0.457
668.43	0.458
668.87	0.452
669.32	0.452
669.76	0.447
670.21	0.442
670.65	0.439
671.10	0.436
671.54	0.433
671.99	0.428
672.43	0.419
672.88	0.412
673.32	0.410
673.77	0.402
674.21	0.396
674.66	0.391
675.10	0.385
675.55	0.378
675.99	0.370
676.44	0.363
676.88	0.356
677.33	0.350
677.77	0.338
678.22	0.329
678.66	0.325
679.11	0.315
679.55	0.308
679.99	0.300
680.44	0.292
680.88	0.283
681.33	0.274
681.77	0.264
682.22	0.257
682.66	0.251
683.11	0.242
683.55	0.232
683.99	0.225
684.44	0.220
684.88	0.215
685.33	0.204
685.77	0.198
686.21	0.195
686.66	0.183
687.10	0.178
687.55	0.171
687.99	0.164
688.44	0.161
688.88	0.156
689.32	0.149
689.77	0.144
690.21	0.140
690.65	0.136
691.10	0.129
691.54	0.123
691.99	0.120
692.43	0.116
692.87	0.114
693.32	0.110
693.76	0.106
694.20	0.104
694.65	0.097
695.09	0.096
695.53	0.093
695.98	0.091
696.42	0.087
696.86	0.083
697.31	0.080
697.75	0.081
698.19	0.077
698.64	0.077
699.08	0.076
699.52	0.072
699.97	0.070
700.41	0.068
700.85	0.069
701.30	0.064
701.74	0.061
702.18	0.062
702.63	0.061
703.07	0.060
703.51	0.060
703.96	0.058
704.40	0.056
704.84	0.055
705.28	0.053
705.73	0.055
706.17	0.052
706.61	0.051
707.06	0.053
707.50	0.049
707.94	0.049
708.38	0.048
708.83	0.049
709.27	0.048
709.71	0.048
710.15	0.048
710.60	0.050
711.04	0.045
711.48	0.044
711.92	0.045
712.37	0.045
712.81	0.042
713.25	0.042
713.69	0.046
714.13	0.038
714.58	0.041
715.02	0.041
715.46	0.039
715.90	0.041
716.35	0.042
716.79	0.040
717.23	0.042
717.67	0.041
718.11	0.041
718.56	0.041
719.00	0.041
719.44	0.041
719.88	0.039
720.32	0.041
720.76	0.041
721.21	0.038
721.65	0.041
722.09	0.042
722.53	0.041
722.97	0.039
723.41	0.039
723.86	0.039
724.30	0.039
724.74	0.041
725.18	0.041
725.62	0.042
726.06	0.044
726.50	0.041
726.95	0.039
727.39	0.040
727.83	0.041
728.27	0.041
728.71	0.043
729.15	0.041
729.59	0.042
730.03	0.040
730.48	0.043
730.92	0.039
731.36	0.040
731.80	0.043
732.24	0.042
732.68	0.042
733.12	0.043
733.56	0.043
734.00	0.043
734.44	0.042
734.89	0.043
735.33	0.042
735.77	0.044
736.21	0.042
736.65	0.040
737.09	0.042
737.53	0.046
737.97	0.044
738.41	0.041
738.85	0.045
739.29	0.045
739.73	0.041
740.17	0.043
740.61	0.042
741.05	0.042
741.49	0.043
741.93	0.041
742.37	0.044
742.81	0.047
743.26	0.044
743.70	0.043
744.14	0.045
744.58	0.043
745.02	0.043
745.46	0.045
745.90	0.044
746.34	0.044
746.78	0.043
747.22	0.041
747.66	0.043
748.10	0.042
748.54	0.043
748.98	0.043
749.42	0.042
749.86	0.043
750.29	0.044
750.73	0.043
751.17	0.043
751.61	0.043
752.05	0.044
752.49	0.041
752.93	0.042
753.37	0.044
753.81	0.042
754.25	0.042
754.69	0.039
755.13	0.041
755.57	0.041
756.01	0.041
756.45	0.043
756.89	0.045
757.33	0.042
757.77	0.039
758.21	0.044
758.64	0.039
759.08	0.040
759.52	0.042
759.96	0.040
760.40	0.039
760.84	0.043
761.28	0.042
761.72	0.043
762.16	0.044
762.60	0.040
763.03	0.041
763.47	0.041
763.91	0.044
764.35	0.041
764.79	0.043
765.23	0.043
765.67	0.042
766.11	0.043
766.54	0.042
766.98	0.041
767.42	0.043
767.86	0.040
768.30	0.037
768.74	0.040
769.17	0.040
769.61	0.043
770.05	0.040
770.49	0.042
770.93	0.045
771.37	0.042
771.80	0.039
772.24	0.042
772.68	0.044
773.12	0.041
773.56	0.044
774.00	0.041
774.43	0.040
774.87	0.038
775.31	0.039
775.75	0.041
776.19	0.040
776.62	0.041
777.06	0.038
777.50	0.041
777.94	0.042
778.37	0.040
778.81	0.038
779.25	0.043
779.69	0.042
780.13	0.039
780.56	0.039
781.00	0.042
781.44	0.039
781.88	0.041
782.31	0.043
782.75	0.044
783.19	0.041
783.63	0.041
784.06	0.039
784.50	0.040
784.94	0.041
785.37	0.042
785.81	0.043
786.25	0.037
786.69	0.042
787.12	0.043
787.56	0.040
788.00	0.040
788.43	0.041
788.87	0.039
789.31	0.041
789.75	0.043
790.18	0.043
790.62	0.040
791.06	0.040
791.49	0.039
791.93	0.044
792.37	0.039
792.80	0.040
793.24	0.041
793.68	0.040
794.11	0.040
794.55	0.042
794.99	0.040
795.42	0.037
795.86	0.037
796.30	0.041
796.73	0.042
797.17	0.041
797.61	0.041
798.04	0.040
798.48	0.040
798.91	0.040
799.35	0.040
799.79	0.042
800.22	0.039
800.66	0.039
801.10	0.040
801.53	0.044
801.97	0.044
802.40	0.041
802.84	0.042
803.28	0.038
803.71	0.040
804.15	0.038
804.58	0.040
805.02	0.040
805.46	0.041
805.89	0.043
806.33	0.039
806.76	0.039
807.20	0.034
807.63	0.043
808.07	0.039
808.51	0.035
808.94	0.041
809.38	0.042
809.81	0.037
810.25	0.037
810.68	0.043
811.12	0.038
811.55	0.037
811.99	0.038
812.42	0.038
812.86	0.039
813.29	0.038
813.73	0.034
814.17	0.038
814.60	0.042
815.04	0.041
815.47	0.040
815.91	0.042
816.34	0.037
816.78	0.039
817.21	0.040
817.65	0.037
