SpectraSuite Data File
++++++++++++++++++++++++++++++++++++
Date: Tue Jul 11 14:05:29 CEST 2017
User: IPCE
Dark Spectrum Present: Yes
Reference Spectrum Present: Yes
Number of Sampled Component Spectra: 1
Spectrometers: HR+C0708
Integration Time (usec): 1000 (HR+C0708)
Spectra Averaged: 10 (HR+C0708)
Boxcar Smoothing: 0 (HR+C0708)
Correct for Electrical Dark: No (HR+C0708)
Strobe/Lamp Enabled: No (HR+C0708)
Correct for Detector Non-linearity: No (HR+C0708)
Correct for Stray Light: No (HR+C0708)
Number of Pixels in Processed Spectrum: 2048
>>>>>Begin Processed Spectral Data<<<<<
188.76	0.431
189.23	0.192
189.70	0.590
190.17	0.160
190.64	0.189
191.12	0.094
191.59	0.337
192.06	0.298
192.53	0.506
193.01	0.110
193.48	0.022
193.95	0.007
194.42	-0.016
194.90	0.198
195.37	0.382
195.84	-0.000
196.31	0.278
196.78	0.506
197.26	0.337
197.73	0.034
198.20	0.152
198.67	-0.519
199.14	0.617
199.62	-0.000
200.09	0.367
200.56	0.362
201.03	0.365
201.50	0.263
201.97	0.333
202.45	0.289
202.92	0.258
203.39	0.411
203.86	0.246
204.33	0.282
204.80	0.358
205.28	0.307
205.75	0.270
206.22	0.261
206.69	0.377
207.16	0.319
207.63	0.318
208.11	0.247
208.58	0.212
209.05	0.469
209.52	0.262
209.99	0.358
210.46	0.300
210.93	0.311
211.41	0.330
211.88	0.237
212.35	0.221
212.82	0.312
213.29	0.303
213.76	0.311
214.23	0.330
214.70	0.499
215.18	0.478
215.65	0.386
216.12	0.419
216.59	0.431
217.06	0.529
217.53	0.355
218.00	0.195
218.47	0.492
218.94	0.347
219.41	0.302
219.89	0.409
220.36	0.384
220.83	0.402
221.30	0.399
221.77	0.400
222.24	0.394
222.71	0.344
223.18	0.545
223.65	0.676
224.12	0.507
224.59	0.425
225.06	0.490
225.54	0.542
226.01	0.550
226.48	0.637
226.95	0.813
227.42	0.803
227.89	0.796
228.36	0.803
228.83	1.020
229.30	0.988
229.77	0.973
230.24	1.226
230.71	1.083
231.18	1.127
231.65	1.085
232.12	1.406
232.59	1.278
233.06	1.368
233.53	1.427
234.00	1.393
234.47	1.484
234.94	1.544
235.41	1.582
235.88	1.665
236.35	1.600
236.82	1.705
237.29	1.793
237.76	1.781
238.23	1.768
238.70	1.799
239.17	1.947
239.64	2.074
240.11	1.957
240.58	1.936
241.05	1.992
241.52	2.165
241.99	2.031
242.46	2.055
242.93	2.054
243.40	2.111
243.87	2.176
244.34	2.116
244.81	2.149
245.28	2.201
245.75	2.248
246.22	2.023
246.69	2.135
247.16	2.374
247.63	2.363
248.10	2.332
248.57	2.194
249.04	2.269
249.51	2.152
249.98	2.286
250.45	2.276
250.92	2.114
251.39	2.044
251.85	2.001
252.32	1.945
252.79	1.802
253.26	1.726
253.73	1.681
254.20	1.583
254.67	1.475
255.14	1.400
255.61	1.349
256.08	1.308
256.55	1.248
257.02	1.205
257.49	1.167
257.95	1.122
258.42	1.093
258.89	1.066
259.36	1.035
259.83	1.013
260.30	0.987
260.77	0.965
261.24	0.944
261.71	0.928
262.17	0.911
262.64	0.899
263.11	0.883
263.58	0.866
264.05	0.853
264.52	0.835
264.99	0.827
265.46	0.814
265.92	0.804
266.39	0.795
266.86	0.781
267.33	0.774
267.80	0.766
268.27	0.758
268.74	0.747
269.20	0.740
269.67	0.733
270.14	0.724
270.61	0.719
271.08	0.712
271.55	0.703
272.01	0.697
272.48	0.692
272.95	0.688
273.42	0.682
273.89	0.672
274.36	0.670
274.82	0.669
275.29	0.661
275.76	0.659
276.23	0.655
276.70	0.650
277.16	0.651
277.63	0.643
278.10	0.640
278.57	0.637
279.04	0.634
279.50	0.635
279.97	0.632
280.44	0.634
280.91	0.630
281.38	0.628
281.84	0.624
282.31	0.624
282.78	0.628
283.25	0.625
283.72	0.626
284.18	0.625
284.65	0.627
285.12	0.628
285.59	0.625
286.05	0.625
286.52	0.628
286.99	0.626
287.46	0.628
287.92	0.627
288.39	0.627
288.86	0.626
289.33	0.624
289.79	0.626
290.26	0.621
290.73	0.622
291.20	0.624
291.66	0.619
292.13	0.613
292.60	0.617
293.07	0.612
293.53	0.606
294.00	0.600
294.47	0.595
294.93	0.594
295.40	0.585
295.87	0.577
296.34	0.570
296.80	0.564
297.27	0.554
297.74	0.544
298.20	0.538
298.67	0.534
299.14	0.524
299.60	0.520
300.07	0.507
300.54	0.500
301.01	0.491
301.47	0.480
301.94	0.470
302.41	0.466
302.87	0.458
303.34	0.451
303.81	0.443
304.27	0.432
304.74	0.426
305.21	0.422
305.67	0.414
306.14	0.410
306.61	0.402
307.07	0.396
307.54	0.389
308.01	0.384
308.47	0.380
308.94	0.372
309.40	0.370
309.87	0.365
310.34	0.365
310.80	0.361
311.27	0.354
311.74	0.353
312.20	0.351
312.67	0.344
313.13	0.344
313.60	0.342
314.07	0.341
314.53	0.335
315.00	0.335
315.47	0.332
315.93	0.331
316.40	0.330
316.86	0.323
317.33	0.323
317.80	0.323
318.26	0.319
318.73	0.316
319.19	0.314
319.66	0.314
320.13	0.310
320.59	0.309
321.06	0.305
321.52	0.303
321.99	0.303
322.45	0.300
322.92	0.301
323.39	0.297
323.85	0.295
324.32	0.293
324.78	0.290
325.25	0.288
325.71	0.282
326.18	0.285
326.64	0.285
327.11	0.282
327.58	0.281
328.04	0.278
328.51	0.276
328.97	0.276
329.44	0.276
329.90	0.272
330.37	0.267
330.83	0.267
331.30	0.267
331.76	0.265
332.23	0.262
332.69	0.263
333.16	0.259
333.62	0.257
334.09	0.256
334.56	0.255
335.02	0.251
335.49	0.251
335.95	0.251
336.42	0.246
336.88	0.245
337.35	0.245
337.81	0.243
338.28	0.242
338.74	0.246
339.20	0.243
339.67	0.239
340.13	0.239
340.60	0.236
341.06	0.235
341.53	0.236
341.99	0.232
342.46	0.231
342.92	0.231
343.39	0.232
343.85	0.227
344.32	0.226
344.78	0.226
345.25	0.224
345.71	0.224
346.17	0.223
346.64	0.223
347.10	0.218
347.57	0.218
348.03	0.212
348.50	0.208
348.96	0.211
349.43	0.207
349.89	0.211
350.35	0.204
350.82	0.205
351.28	0.199
351.75	0.198
352.21	0.196
352.67	0.192
353.14	0.188
353.60	0.186
354.07	0.183
354.53	0.175
355.00	0.173
355.46	0.167
355.92	0.162
356.39	0.161
356.85	0.155
357.31	0.151
357.78	0.144
358.24	0.140
358.71	0.137
359.17	0.130
359.63	0.127
360.10	0.128
360.56	0.117
361.03	0.116
361.49	0.116
361.95	0.108
362.42	0.108
362.88	0.107
363.34	0.106
363.81	0.102
364.27	0.101
364.73	0.099
365.20	0.100
365.66	0.099
366.12	0.100
366.59	0.095
367.05	0.098
367.51	0.096
367.98	0.095
368.44	0.096
368.90	0.096
369.37	0.094
369.83	0.094
370.29	0.093
370.76	0.092
371.22	0.092
371.68	0.093
372.15	0.090
372.61	0.088
373.07	0.091
373.54	0.090
374.00	0.092
374.46	0.088
374.92	0.092
375.39	0.088
375.85	0.088
376.31	0.090
376.78	0.089
377.24	0.089
377.70	0.091
378.16	0.089
378.63	0.090
379.09	0.088
379.55	0.088
380.01	0.087
380.48	0.086
380.94	0.089
381.40	0.086
381.87	0.090
382.33	0.085
382.79	0.086
383.25	0.088
383.72	0.086
384.18	0.086
384.64	0.084
385.10	0.084
385.56	0.084
386.03	0.084
386.49	0.085
386.95	0.083
387.41	0.084
387.88	0.085
388.34	0.084
388.80	0.083
389.26	0.082
389.72	0.086
390.19	0.084
390.65	0.082
391.11	0.083
391.57	0.083
392.04	0.082
392.50	0.083
392.96	0.083
393.42	0.083
393.88	0.083
394.34	0.081
394.81	0.081
395.27	0.080
395.73	0.082
396.19	0.081
396.65	0.081
397.12	0.080
397.58	0.079
398.04	0.081
398.50	0.082
398.96	0.080
399.42	0.079
399.89	0.079
400.35	0.078
400.81	0.078
401.27	0.078
401.73	0.081
402.19	0.078
402.65	0.077
403.12	0.074
403.58	0.077
404.04	0.074
404.50	0.076
404.96	0.075
405.42	0.075
405.88	0.075
406.34	0.076
406.81	0.074
407.27	0.073
407.73	0.072
408.19	0.072
408.65	0.074
409.11	0.073
409.57	0.072
410.03	0.072
410.49	0.069
410.96	0.068
411.42	0.069
411.88	0.070
412.34	0.069
412.80	0.069
413.26	0.070
413.72	0.070
414.18	0.068
414.64	0.066
415.10	0.069
415.56	0.067
416.02	0.067
416.48	0.068
416.95	0.071
417.41	0.069
417.87	0.069
418.33	0.067
418.79	0.069
419.25	0.069
419.71	0.069
420.17	0.068
420.63	0.068
421.09	0.066
421.55	0.065
422.01	0.067
422.47	0.069
422.93	0.067
423.39	0.068
423.85	0.069
424.31	0.069
424.77	0.065
425.23	0.068
425.69	0.064
426.15	0.065
426.61	0.065
427.07	0.067
427.53	0.068
427.99	0.065
428.45	0.065
428.91	0.066
429.37	0.065
429.83	0.066
430.29	0.065
430.75	0.065
431.21	0.066
431.67	0.066
432.13	0.066
432.59	0.065
433.05	0.066
433.51	0.065
433.97	0.064
434.43	0.067
434.89	0.063
435.35	0.062
435.81	0.060
436.27	0.062
436.73	0.066
437.19	0.064
437.65	0.064
438.11	0.063
438.57	0.064
439.03	0.060
439.48	0.061
439.94	0.062
440.40	0.058
440.86	0.064
441.32	0.059
441.78	0.060
442.24	0.060
442.70	0.062
443.16	0.060
443.62	0.066
444.08	0.059
444.54	0.063
444.99	0.058
445.45	0.063
445.91	0.059
446.37	0.059
446.83	0.059
447.29	0.062
447.75	0.060
448.21	0.058
448.67	0.060
449.12	0.061
449.58	0.059
450.04	0.060
450.50	0.058
450.96	0.061
451.42	0.058
451.88	0.059
452.34	0.061
452.79	0.056
453.25	0.061
453.71	0.060
454.17	0.057
454.63	0.058
455.09	0.061
455.55	0.062
456.00	0.060
456.46	0.058
456.92	0.058
457.38	0.058
457.84	0.057
458.30	0.058
458.75	0.061
459.21	0.060
459.67	0.060
460.13	0.059
460.59	0.060
461.04	0.058
461.50	0.058
461.96	0.060
462.42	0.058
462.88	0.058
463.33	0.058
463.79	0.062
464.25	0.059
464.71	0.061
465.17	0.059
465.62	0.061
466.08	0.061
466.54	0.060
467.00	0.059
467.46	0.058
467.91	0.059
468.37	0.060
468.83	0.059
469.29	0.061
469.74	0.061
470.20	0.058
470.66	0.063
471.12	0.061
471.57	0.058
472.03	0.060
472.49	0.060
472.95	0.061
473.40	0.060
473.86	0.060
474.32	0.062
474.78	0.061
475.23	0.063
475.69	0.059
476.15	0.061
476.60	0.060
477.06	0.063
477.52	0.061
477.98	0.061
478.43	0.061
478.89	0.062
479.35	0.059
479.80	0.061
480.26	0.058
480.72	0.058
481.18	0.065
481.63	0.061
482.09	0.058
482.55	0.061
483.00	0.063
483.46	0.060
483.92	0.058
484.37	0.061
484.83	0.059
485.29	0.061
485.74	0.059
486.20	0.064
486.66	0.063
487.11	0.059
487.57	0.060
488.03	0.061
488.48	0.060
488.94	0.062
489.40	0.061
489.85	0.062
490.31	0.061
490.77	0.059
491.22	0.061
491.68	0.060
492.13	0.061
492.59	0.061
493.05	0.061
493.50	0.061
493.96	0.060
494.42	0.063
494.87	0.061
495.33	0.059
495.78	0.062
496.24	0.061
496.70	0.062
497.15	0.061
497.61	0.062
498.06	0.060
498.52	0.061
498.98	0.061
499.43	0.063
499.89	0.062
500.34	0.061
500.80	0.061
501.25	0.061
501.71	0.060
502.17	0.062
502.62	0.061
503.08	0.062
503.53	0.062
503.99	0.062
504.44	0.061
504.90	0.060
505.36	0.061
505.81	0.061
506.27	0.064
506.72	0.063
507.18	0.063
507.63	0.061
508.09	0.060
508.54	0.060
509.00	0.060
509.45	0.060
509.91	0.060
510.36	0.059
510.82	0.059
511.27	0.062
511.73	0.063
512.19	0.061
512.64	0.060
513.10	0.060
513.55	0.059
514.01	0.059
514.46	0.063
514.92	0.062
515.37	0.059
515.83	0.062
516.28	0.060
516.73	0.061
517.19	0.058
517.64	0.060
518.10	0.060
518.55	0.061
519.01	0.061
519.46	0.060
519.92	0.060
520.37	0.059
520.83	0.062
521.28	0.059
521.74	0.059
522.19	0.059
522.65	0.061
523.10	0.061
523.55	0.059
524.01	0.059
524.46	0.061
524.92	0.059
525.37	0.059
525.83	0.061
526.28	0.060
526.73	0.061
527.19	0.059
527.64	0.061
528.10	0.063
528.55	0.061
529.01	0.062
529.46	0.061
529.91	0.060
530.37	0.060
530.82	0.061
531.28	0.062
531.73	0.060
532.18	0.062
532.64	0.063
533.09	0.063
533.54	0.064
534.00	0.062
534.45	0.062
534.91	0.061
535.36	0.063
535.81	0.063
536.27	0.065
536.72	0.064
537.17	0.064
537.63	0.064
538.08	0.064
538.54	0.065
538.99	0.066
539.44	0.065
539.90	0.065
540.35	0.065
540.80	0.065
541.26	0.068
541.71	0.067
542.16	0.068
542.62	0.070
543.07	0.071
543.52	0.068
543.98	0.069
544.43	0.067
544.88	0.067
545.34	0.071
545.79	0.069
546.24	0.072
546.69	0.071
547.15	0.072
547.60	0.072
548.05	0.072
548.51	0.073
548.96	0.073
549.41	0.071
549.86	0.073
550.32	0.073
550.77	0.073
551.22	0.074
551.68	0.076
552.13	0.077
552.58	0.077
553.03	0.078
553.49	0.077
553.94	0.079
554.39	0.080
554.84	0.078
555.30	0.081
555.75	0.080
556.20	0.081
556.65	0.083
557.11	0.082
557.56	0.080
558.01	0.083
558.46	0.083
558.92	0.083
559.37	0.087
559.82	0.087
560.27	0.086
560.72	0.087
561.18	0.087
561.63	0.087
562.08	0.089
562.53	0.089
562.99	0.091
563.44	0.092
563.89	0.092
564.34	0.092
564.79	0.093
565.25	0.094
565.70	0.097
566.15	0.096
566.60	0.096
567.05	0.096
567.50	0.097
567.96	0.099
568.41	0.099
568.86	0.100
569.31	0.100
569.76	0.100
570.21	0.103
570.67	0.105
571.12	0.103
571.57	0.106
572.02	0.106
572.47	0.104
572.92	0.108
573.37	0.110
573.83	0.108
574.28	0.110
574.73	0.110
575.18	0.112
575.63	0.114
576.08	0.112
576.53	0.115
576.98	0.115
577.44	0.118
577.89	0.117
578.34	0.118
578.79	0.120
579.24	0.121
579.69	0.122
580.14	0.124
580.59	0.124
581.04	0.125
581.49	0.127
581.95	0.129
582.40	0.130
582.85	0.132
583.30	0.132
583.75	0.135
584.20	0.136
584.65	0.138
585.10	0.140
585.55	0.140
586.00	0.142
586.45	0.142
586.90	0.147
587.35	0.146
587.80	0.149
588.25	0.152
588.71	0.152
589.16	0.152
589.61	0.157
590.06	0.159
590.51	0.161
590.96	0.160
591.41	0.165
591.86	0.164
592.31	0.169
592.76	0.170
593.21	0.171
593.66	0.173
594.11	0.177
594.56	0.179
595.01	0.180
595.46	0.183
595.91	0.187
596.36	0.188
596.81	0.189
597.26	0.192
597.71	0.192
598.16	0.194
598.61	0.197
599.06	0.198
599.51	0.201
599.96	0.207
600.41	0.207
600.86	0.207
601.31	0.208
601.76	0.213
602.21	0.214
602.65	0.214
603.10	0.218
603.55	0.219
604.00	0.222
604.45	0.223
604.90	0.226
605.35	0.227
605.80	0.230
606.25	0.233
606.70	0.233
607.15	0.234
607.60	0.236
608.05	0.240
608.50	0.241
608.95	0.243
609.39	0.243
609.84	0.246
610.29	0.247
610.74	0.246
611.19	0.249
611.64	0.251
612.09	0.254
612.54	0.253
612.99	0.252
613.44	0.252
613.88	0.255
614.33	0.256
614.78	0.256
615.23	0.260
615.68	0.259
616.13	0.260
616.58	0.261
617.03	0.259
617.47	0.261
617.92	0.264
618.37	0.262
618.82	0.263
619.27	0.263
619.72	0.263
620.17	0.264
620.61	0.266
621.06	0.265
621.51	0.268
621.96	0.267
622.41	0.269
622.86	0.269
623.30	0.269
623.75	0.269
624.20	0.271
624.65	0.273
625.10	0.274
625.54	0.273
625.99	0.276
626.44	0.278
626.89	0.279
627.34	0.279
627.78	0.280
628.23	0.282
628.68	0.283
629.13	0.285
629.58	0.287
630.02	0.287
630.47	0.289
630.92	0.291
631.37	0.292
631.81	0.292
632.26	0.294
632.71	0.297
633.16	0.299
633.61	0.301
634.05	0.303
634.50	0.303
634.95	0.309
635.40	0.312
635.84	0.311
636.29	0.313
636.74	0.315
637.18	0.320
637.63	0.323
638.08	0.325
638.53	0.327
638.97	0.330
639.42	0.334
639.87	0.335
640.32	0.339
640.76	0.344
641.21	0.345
641.66	0.350
642.10	0.353
642.55	0.352
643.00	0.360
643.44	0.361
643.89	0.366
644.34	0.368
644.79	0.372
645.23	0.378
645.68	0.381
646.13	0.384
646.57	0.385
647.02	0.391
647.47	0.394
647.91	0.397
648.36	0.402
648.81	0.401
649.25	0.404
649.70	0.410
650.15	0.414
650.59	0.418
651.04	0.420
651.48	0.422
651.93	0.426
652.38	0.428
652.82	0.430
653.27	0.434
653.72	0.438
654.16	0.440
654.61	0.443
655.06	0.445
655.50	0.447
655.95	0.449
656.39	0.454
656.84	0.459
657.29	0.457
657.73	0.461
658.18	0.468
658.62	0.467
659.07	0.470
659.52	0.471
659.96	0.470
660.41	0.471
660.85	0.475
661.30	0.477
661.74	0.478
662.19	0.477
662.64	0.477
663.08	0.483
663.53	0.483
663.97	0.481
664.42	0.482
664.86	0.480
665.31	0.483
665.75	0.482
666.20	0.480
666.65	0.481
667.09	0.480
667.54	0.476
667.98	0.475
668.43	0.472
668.87	0.468
669.32	0.467
669.76	0.463
670.21	0.461
670.65	0.458
671.10	0.452
671.54	0.448
671.99	0.444
672.43	0.435
672.88	0.429
673.32	0.426
673.77	0.417
674.21	0.413
674.66	0.406
675.10	0.398
675.55	0.389
675.99	0.379
676.44	0.377
676.88	0.368
677.33	0.360
677.77	0.351
678.22	0.340
678.66	0.336
679.11	0.326
679.55	0.315
679.99	0.307
680.44	0.299
680.88	0.289
681.33	0.284
681.77	0.273
682.22	0.265
682.66	0.256
683.11	0.249
683.55	0.236
683.99	0.231
684.44	0.222
684.88	0.217
685.33	0.206
685.77	0.199
686.21	0.196
686.66	0.185
687.10	0.179
687.55	0.176
687.99	0.166
688.44	0.161
688.88	0.157
689.32	0.147
689.77	0.143
690.21	0.139
690.65	0.136
691.10	0.127
691.54	0.124
691.99	0.118
692.43	0.115
692.87	0.110
693.32	0.106
693.76	0.103
694.20	0.101
694.65	0.096
695.09	0.093
695.53	0.089
695.98	0.088
696.42	0.084
696.86	0.080
697.31	0.076
697.75	0.075
698.19	0.073
698.64	0.071
699.08	0.072
699.52	0.068
699.97	0.065
700.41	0.065
700.85	0.064
701.30	0.062
701.74	0.056
702.18	0.057
702.63	0.055
703.07	0.054
703.51	0.054
703.96	0.051
704.40	0.051
704.84	0.048
705.28	0.050
705.73	0.047
706.17	0.048
706.61	0.045
707.06	0.045
707.50	0.044
707.94	0.043
708.38	0.043
708.83	0.042
709.27	0.041
709.71	0.041
710.15	0.040
710.60	0.042
711.04	0.040
711.48	0.039
711.92	0.040
712.37	0.037
712.81	0.036
713.25	0.035
713.69	0.037
714.13	0.034
714.58	0.034
715.02	0.037
715.46	0.034
715.90	0.033
716.35	0.037
716.79	0.033
717.23	0.037
717.67	0.035
718.11	0.033
718.56	0.034
719.00	0.035
719.44	0.036
719.88	0.033
720.32	0.034
720.76	0.033
721.21	0.033
721.65	0.036
722.09	0.036
722.53	0.034
722.97	0.035
723.41	0.033
723.86	0.036
724.30	0.034
724.74	0.034
725.18	0.034
725.62	0.034
726.06	0.036
726.50	0.035
726.95	0.033
727.39	0.032
727.83	0.034
728.27	0.034
728.71	0.035
729.15	0.036
729.59	0.036
730.03	0.036
730.48	0.037
730.92	0.033
731.36	0.033
731.80	0.034
732.24	0.036
732.68	0.034
733.12	0.036
733.56	0.036
734.00	0.035
734.44	0.035
734.89	0.038
735.33	0.037
735.77	0.037
736.21	0.035
736.65	0.034
737.09	0.035
737.53	0.039
737.97	0.039
738.41	0.038
738.85	0.039
739.29	0.038
739.73	0.036
740.17	0.038
740.61	0.037
741.05	0.038
741.49	0.037
741.93	0.037
742.37	0.038
742.81	0.039
743.26	0.036
743.70	0.036
744.14	0.038
744.58	0.039
745.02	0.037
745.46	0.038
745.90	0.037
746.34	0.038
746.78	0.036
747.22	0.036
747.66	0.037
748.10	0.038
748.54	0.034
748.98	0.036
749.42	0.036
749.86	0.038
750.29	0.036
750.73	0.038
751.17	0.037
751.61	0.035
752.05	0.039
752.49	0.035
752.93	0.034
753.37	0.038
753.81	0.037
754.25	0.035
754.69	0.035
755.13	0.037
755.57	0.035
756.01	0.036
756.45	0.035
756.89	0.040
757.33	0.036
757.77	0.033
758.21	0.036
758.64	0.036
759.08	0.033
759.52	0.037
759.96	0.033
760.40	0.035
760.84	0.037
761.28	0.037
761.72	0.035
762.16	0.035
762.60	0.034
763.03	0.035
763.47	0.035
763.91	0.038
764.35	0.037
764.79	0.036
765.23	0.035
765.67	0.037
766.11	0.036
766.54	0.037
766.98	0.036
767.42	0.035
767.86	0.033
768.30	0.033
768.74	0.034
769.17	0.036
769.61	0.038
770.05	0.036
770.49	0.034
770.93	0.036
771.37	0.037
771.80	0.034
772.24	0.037
772.68	0.037
773.12	0.034
773.56	0.036
774.00	0.035
774.43	0.036
774.87	0.035
775.31	0.035
775.75	0.036
776.19	0.037
776.62	0.034
777.06	0.034
777.50	0.035
777.94	0.036
778.37	0.036
778.81	0.035
779.25	0.038
779.69	0.037
780.13	0.031
780.56	0.033
781.00	0.036
781.44	0.035
781.88	0.038
782.31	0.037
782.75	0.037
783.19	0.034
783.63	0.034
784.06	0.034
784.50	0.034
784.94	0.032
785.37	0.036
785.81	0.036
786.25	0.033
786.69	0.034
787.12	0.036
787.56	0.035
788.00	0.034
788.43	0.034
788.87	0.033
789.31	0.039
789.75	0.037
790.18	0.035
790.62	0.036
791.06	0.035
791.49	0.035
791.93	0.034
792.37	0.035
792.80	0.035
793.24	0.035
793.68	0.034
794.11	0.031
794.55	0.035
794.99	0.037
795.42	0.032
795.86	0.036
796.30	0.033
796.73	0.038
797.17	0.036
797.61	0.036
798.04	0.039
798.48	0.033
798.91	0.034
799.35	0.033
799.79	0.035
800.22	0.031
800.66	0.032
801.10	0.034
801.53	0.041
801.97	0.036
802.40	0.031
802.84	0.035
803.28	0.033
803.71	0.035
804.15	0.032
804.58	0.035
805.02	0.030
805.46	0.034
805.89	0.035
806.33	0.034
806.76	0.031
807.20	0.029
807.63	0.035
808.07	0.030
808.51	0.028
808.94	0.038
809.38	0.037
809.81	0.028
810.25	0.034
810.68	0.036
811.12	0.031
811.55	0.032
811.99	0.034
812.42	0.035
812.86	0.037
813.29	0.035
813.73	0.032
814.17	0.036
814.60	0.034
815.04	0.033
815.47	0.033
815.91	0.033
816.34	0.034
816.78	0.029
817.21	0.033
817.65	0.031
818.08	0.038
