SpectraSuite Data File
++++++++++++++++++++++++++++++++++++
Date: Tue Jul 11 13:47:29 CEST 2017
User: IPCE
Dark Spectrum Present: Yes
Reference Spectrum Present: Yes
Number of Sampled Component Spectra: 1
Spectrometers: HR+C0708
Integration Time (usec): 1000 (HR+C0708)
Spectra Averaged: 10 (HR+C0708)
Boxcar Smoothing: 0 (HR+C0708)
Correct for Electrical Dark: No (HR+C0708)
Strobe/Lamp Enabled: No (HR+C0708)
Correct for Detector Non-linearity: No (HR+C0708)
Correct for Stray Light: No (HR+C0708)
Number of Pixels in Processed Spectrum: 2048
>>>>>Begin Processed Spectral Data<<<<<
188.76	0.136
189.23	0.354
189.70	0.283
190.17	-0.000
190.64	-0.000
191.12	0.048
191.59	0.244
192.06	0.350
192.53	0.094
193.01	0.380
193.48	-0.000
193.95	-0.105
194.42	0.263
194.90	0.335
195.37	0.105
195.84	1.088
196.31	-0.000
196.78	0.372
197.26	0.238
197.73	0.473
198.20	0.346
198.67	-0.000
199.14	-0.082
199.62	-0.000
200.09	0.200
200.56	0.362
201.03	0.399
201.50	0.534
201.97	0.596
202.45	0.360
202.92	0.304
203.39	0.589
203.86	0.440
204.33	0.255
204.80	0.713
205.28	0.731
205.75	0.315
206.22	0.443
206.69	0.481
207.16	0.304
207.63	0.427
208.11	0.513
208.58	0.632
209.05	0.544
209.52	0.380
209.99	0.462
210.46	0.456
210.93	0.358
211.41	0.435
211.88	0.531
212.35	0.319
212.82	0.467
213.29	0.682
213.76	0.404
214.23	0.372
214.70	1.176
215.18	0.668
215.65	0.889
216.12	0.555
216.59	0.528
217.06	1.046
217.53	0.472
218.00	0.450
218.47	1.001
218.94	0.664
219.41	0.499
219.89	0.595
220.36	0.756
220.83	0.674
221.30	0.696
221.77	0.731
222.24	0.790
222.71	0.512
223.18	0.466
223.65	0.841
224.12	0.682
224.59	0.689
225.06	0.730
225.54	1.302
226.01	0.716
226.48	0.686
226.95	1.174
227.42	1.093
227.89	0.978
228.36	1.128
228.83	1.167
229.30	1.317
229.77	1.107
230.24	1.710
230.71	1.331
231.18	1.249
231.65	1.198
232.12	1.390
232.59	1.433
233.06	1.378
233.53	1.687
234.00	1.657
234.47	1.710
234.94	1.621
235.41	1.693
235.88	1.855
236.35	1.786
236.82	1.807
237.29	2.064
237.76	2.032
238.23	2.025
238.70	2.172
239.17	2.194
239.64	2.658
240.11	2.203
240.58	2.160
241.05	2.170
241.52	2.240
241.99	2.195
242.46	2.589
242.93	2.306
243.40	2.381
243.87	2.521
244.34	2.325
244.81	2.381
245.28	2.416
245.75	2.551
246.22	2.237
246.69	2.273
247.16	2.587
247.63	2.436
248.10	2.811
248.57	2.276
249.04	2.520
249.51	2.515
249.98	2.622
250.45	2.310
250.92	2.613
251.39	2.667
251.85	2.414
252.32	2.305
252.79	2.425
253.26	2.572
253.73	2.660
254.20	2.538
254.67	2.692
255.14	2.457
255.61	2.667
256.08	2.969
256.55	2.589
257.02	2.470
257.49	2.611
257.95	2.697
258.42	2.571
258.89	2.630
259.36	2.631
259.83	2.865
260.30	2.574
260.77	2.788
261.24	2.584
261.71	2.609
262.17	2.552
262.64	2.592
263.11	2.701
263.58	2.718
264.05	2.557
264.52	2.786
264.99	2.762
265.46	2.608
265.92	2.634
266.39	2.602
266.86	2.596
267.33	2.577
267.80	2.677
268.27	2.780
268.74	2.827
269.20	2.622
269.67	2.550
270.14	2.689
270.61	2.514
271.08	2.582
271.55	2.604
272.01	2.548
272.48	2.644
272.95	2.710
273.42	2.691
273.89	2.509
274.36	2.499
274.82	2.756
275.29	2.588
275.76	2.471
276.23	2.519
276.70	2.554
277.16	2.471
277.63	2.647
278.10	2.610
278.57	2.648
279.04	2.526
279.50	2.411
279.97	2.609
280.44	2.668
280.91	2.334
281.38	2.433
281.84	2.741
282.31	2.547
282.78	2.451
283.25	2.618
283.72	2.396
284.18	2.537
284.65	2.576
285.12	2.633
285.59	2.469
286.05	2.508
286.52	2.631
286.99	2.629
287.46	2.574
287.92	2.485
288.39	2.634
288.86	2.571
289.33	2.456
289.79	2.502
290.26	2.595
290.73	2.693
291.20	2.454
291.66	2.616
292.13	2.380
292.60	2.462
293.07	2.487
293.53	2.649
294.00	2.465
294.47	2.396
294.93	2.451
295.40	2.506
295.87	2.502
296.34	2.450
296.80	2.608
297.27	2.444
297.74	2.418
298.20	2.397
298.67	2.484
299.14	2.385
299.60	2.419
300.07	2.408
300.54	2.394
301.01	2.366
301.47	2.347
301.94	2.358
302.41	2.386
302.87	2.300
303.34	2.336
303.81	2.293
304.27	2.268
304.74	2.305
305.21	2.270
305.67	2.402
306.14	2.316
306.61	2.355
307.07	2.256
307.54	2.323
308.01	2.313
308.47	2.309
308.94	2.339
309.40	2.349
309.87	2.240
310.34	2.283
310.80	2.247
311.27	2.307
311.74	2.304
312.20	2.271
312.67	2.311
313.13	2.344
313.60	2.231
314.07	2.275
314.53	2.205
315.00	2.294
315.47	2.274
315.93	2.213
316.40	2.257
316.86	2.297
317.33	2.249
317.80	2.247
318.26	2.171
318.73	2.276
319.19	2.217
319.66	2.211
320.13	2.201
320.59	2.203
321.06	2.203
321.52	2.119
321.99	2.111
322.45	2.169
322.92	2.142
323.39	2.118
323.85	2.084
324.32	2.075
324.78	2.064
325.25	2.058
325.71	2.049
326.18	2.091
326.64	2.100
327.11	2.054
327.58	2.045
328.04	2.047
328.51	2.042
328.97	2.041
329.44	2.015
329.90	2.003
330.37	2.033
330.83	2.042
331.30	2.047
331.76	1.996
332.23	1.996
332.69	2.051
333.16	2.057
333.62	2.054
334.09	2.095
334.56	2.078
335.02	2.035
335.49	2.049
335.95	2.009
336.42	2.008
336.88	2.014
337.35	2.040
337.81	2.025
338.28	1.982
338.74	2.008
339.20	2.059
339.67	2.064
340.13	2.017
340.60	1.990
341.06	2.024
341.53	2.023
341.99	1.967
342.46	1.958
342.92	1.978
343.39	1.975
343.85	1.952
344.32	2.028
344.78	1.921
345.25	1.950
345.71	1.966
346.17	1.912
346.64	1.935
347.10	1.872
347.57	1.879
348.03	1.857
348.50	1.839
348.96	1.766
349.43	1.805
349.89	1.766
350.35	1.729
350.82	1.686
351.28	1.681
351.75	1.664
352.21	1.584
352.67	1.565
353.14	1.539
353.60	1.478
354.07	1.435
354.53	1.401
355.00	1.351
355.46	1.308
355.92	1.243
356.39	1.190
356.85	1.133
357.31	1.066
357.78	0.990
358.24	0.927
358.71	0.860
359.17	0.791
359.63	0.733
360.10	0.672
360.56	0.611
361.03	0.565
361.49	0.518
361.95	0.480
362.42	0.447
362.88	0.417
363.34	0.389
363.81	0.369
364.27	0.347
364.73	0.335
365.20	0.321
365.66	0.307
366.12	0.299
366.59	0.287
367.05	0.279
367.51	0.274
367.98	0.263
368.44	0.259
368.90	0.255
369.37	0.249
369.83	0.249
370.29	0.245
370.76	0.239
371.22	0.237
371.68	0.235
372.15	0.234
372.61	0.231
373.07	0.229
373.54	0.228
374.00	0.228
374.46	0.223
374.92	0.223
375.39	0.222
375.85	0.216
376.31	0.220
376.78	0.216
377.24	0.216
377.70	0.217
378.16	0.217
378.63	0.211
379.09	0.208
379.55	0.209
380.01	0.205
380.48	0.206
380.94	0.208
381.40	0.204
381.87	0.205
382.33	0.205
382.79	0.197
383.25	0.200
383.72	0.198
384.18	0.199
384.64	0.197
385.10	0.195
385.56	0.194
386.03	0.193
386.49	0.194
386.95	0.192
387.41	0.193
387.88	0.188
388.34	0.191
388.80	0.189
389.26	0.187
389.72	0.188
390.19	0.186
390.65	0.184
391.11	0.186
391.57	0.185
392.04	0.182
392.50	0.182
392.96	0.182
393.42	0.181
393.88	0.180
394.34	0.180
394.81	0.180
395.27	0.177
395.73	0.178
396.19	0.171
396.65	0.177
397.12	0.175
397.58	0.173
398.04	0.177
398.50	0.173
398.96	0.173
399.42	0.173
399.89	0.174
400.35	0.169
400.81	0.170
401.27	0.169
401.73	0.168
402.19	0.168
402.65	0.166
403.12	0.166
403.58	0.163
404.04	0.164
404.50	0.161
404.96	0.162
405.42	0.162
405.88	0.159
406.34	0.160
406.81	0.157
407.27	0.155
407.73	0.157
408.19	0.154
408.65	0.156
409.11	0.156
409.57	0.156
410.03	0.154
410.49	0.150
410.96	0.150
411.42	0.149
411.88	0.148
412.34	0.150
412.80	0.148
413.26	0.149
413.72	0.152
414.18	0.146
414.64	0.146
415.10	0.144
415.56	0.145
416.02	0.142
416.48	0.144
416.95	0.145
417.41	0.146
417.87	0.145
418.33	0.143
418.79	0.145
419.25	0.142
419.71	0.143
420.17	0.142
420.63	0.144
421.09	0.140
421.55	0.138
422.01	0.140
422.47	0.142
422.93	0.141
423.39	0.142
423.85	0.141
424.31	0.139
424.77	0.138
425.23	0.138
425.69	0.135
426.15	0.135
426.61	0.136
427.07	0.136
427.53	0.136
427.99	0.135
428.45	0.137
428.91	0.134
429.37	0.132
429.83	0.133
430.29	0.137
430.75	0.136
431.21	0.131
431.67	0.132
432.13	0.132
432.59	0.131
433.05	0.130
433.51	0.131
433.97	0.131
434.43	0.131
434.89	0.129
435.35	0.129
435.81	0.127
436.27	0.126
436.73	0.128
437.19	0.130
437.65	0.127
438.11	0.127
438.57	0.127
439.03	0.124
439.48	0.124
439.94	0.125
440.40	0.128
440.86	0.122
441.32	0.121
441.78	0.125
442.24	0.126
442.70	0.124
443.16	0.122
443.62	0.126
444.08	0.124
444.54	0.121
444.99	0.123
445.45	0.124
445.91	0.119
446.37	0.120
446.83	0.122
447.29	0.120
447.75	0.119
448.21	0.121
448.67	0.116
449.12	0.119
449.58	0.117
450.04	0.119
450.50	0.118
450.96	0.117
451.42	0.115
451.88	0.116
452.34	0.119
452.79	0.115
453.25	0.116
453.71	0.114
454.17	0.112
454.63	0.115
455.09	0.115
455.55	0.120
456.00	0.117
456.46	0.114
456.92	0.113
457.38	0.114
457.84	0.111
458.30	0.112
458.75	0.116
459.21	0.113
459.67	0.112
460.13	0.112
460.59	0.114
461.04	0.111
461.50	0.112
461.96	0.110
462.42	0.112
462.88	0.113
463.33	0.113
463.79	0.113
464.25	0.113
464.71	0.112
465.17	0.110
465.62	0.111
466.08	0.110
466.54	0.111
467.00	0.112
467.46	0.110
467.91	0.108
468.37	0.112
468.83	0.110
469.29	0.110
469.74	0.109
470.20	0.109
470.66	0.112
471.12	0.112
471.57	0.108
472.03	0.111
472.49	0.110
472.95	0.110
473.40	0.111
473.86	0.109
474.32	0.108
474.78	0.109
475.23	0.111
475.69	0.107
476.15	0.108
476.60	0.111
477.06	0.112
477.52	0.109
477.98	0.109
478.43	0.107
478.89	0.110
479.35	0.108
479.80	0.108
480.26	0.104
480.72	0.104
481.18	0.112
481.63	0.107
482.09	0.105
482.55	0.110
483.00	0.107
483.46	0.105
483.92	0.105
484.37	0.107
484.83	0.105
485.29	0.105
485.74	0.106
486.20	0.106
486.66	0.107
487.11	0.104
487.57	0.105
488.03	0.107
488.48	0.104
488.94	0.108
489.40	0.103
489.85	0.105
490.31	0.105
490.77	0.102
491.22	0.103
491.68	0.103
492.13	0.105
492.59	0.104
493.05	0.104
493.50	0.106
493.96	0.104
494.42	0.104
494.87	0.104
495.33	0.102
495.78	0.102
496.24	0.102
496.70	0.103
497.15	0.105
497.61	0.104
498.06	0.101
498.52	0.101
498.98	0.103
499.43	0.102
499.89	0.101
500.34	0.103
500.80	0.101
501.25	0.101
501.71	0.102
502.17	0.103
502.62	0.100
503.08	0.102
503.53	0.101
503.99	0.100
504.44	0.101
504.90	0.100
505.36	0.100
505.81	0.101
506.27	0.101
506.72	0.100
507.18	0.100
507.63	0.096
508.09	0.098
508.54	0.099
509.00	0.099
509.45	0.099
509.91	0.098
510.36	0.099
510.82	0.099
511.27	0.100
511.73	0.100
512.19	0.098
512.64	0.097
513.10	0.098
513.55	0.097
514.01	0.100
514.46	0.098
514.92	0.097
515.37	0.098
515.83	0.099
516.28	0.096
516.73	0.096
517.19	0.097
517.64	0.095
518.10	0.094
518.55	0.095
519.01	0.096
519.46	0.097
519.92	0.093
520.37	0.095
520.83	0.097
521.28	0.095
521.74	0.096
522.19	0.095
522.65	0.095
523.10	0.096
523.55	0.096
524.01	0.094
524.46	0.095
524.92	0.093
525.37	0.094
525.83	0.095
526.28	0.094
526.73	0.095
527.19	0.094
527.64	0.096
528.10	0.096
528.55	0.097
529.01	0.096
529.46	0.094
529.91	0.094
530.37	0.094
530.82	0.093
531.28	0.094
531.73	0.095
532.18	0.093
532.64	0.094
533.09	0.096
533.54	0.095
534.00	0.094
534.45	0.097
534.91	0.094
535.36	0.095
535.81	0.096
536.27	0.096
536.72	0.098
537.17	0.096
537.63	0.097
538.08	0.095
538.54	0.099
538.99	0.099
539.44	0.098
539.90	0.098
540.35	0.098
540.80	0.097
541.26	0.097
541.71	0.100
542.16	0.098
542.62	0.100
543.07	0.098
543.52	0.098
543.98	0.098
544.43	0.098
544.88	0.100
545.34	0.099
545.79	0.101
546.24	0.101
546.69	0.101
547.15	0.102
547.60	0.103
548.05	0.101
548.51	0.104
548.96	0.102
549.41	0.105
549.86	0.104
550.32	0.102
550.77	0.103
551.22	0.104
551.68	0.105
552.13	0.106
552.58	0.106
553.03	0.105
553.49	0.106
553.94	0.107
554.39	0.109
554.84	0.109
555.30	0.110
555.75	0.110
556.20	0.111
556.65	0.110
557.11	0.113
557.56	0.109
558.01	0.111
558.46	0.113
558.92	0.112
559.37	0.115
559.82	0.114
560.27	0.114
560.72	0.115
561.18	0.117
561.63	0.115
562.08	0.115
562.53	0.117
562.99	0.121
563.44	0.120
563.89	0.119
564.34	0.119
564.79	0.120
565.25	0.120
565.70	0.122
566.15	0.124
566.60	0.122
567.05	0.124
567.50	0.124
567.96	0.126
568.41	0.126
568.86	0.126
569.31	0.127
569.76	0.127
570.21	0.127
570.67	0.129
571.12	0.130
571.57	0.130
572.02	0.132
572.47	0.130
572.92	0.134
573.37	0.135
573.83	0.133
574.28	0.135
574.73	0.136
575.18	0.138
575.63	0.139
576.08	0.137
576.53	0.139
576.98	0.140
577.44	0.143
577.89	0.141
578.34	0.144
578.79	0.143
579.24	0.145
579.69	0.147
580.14	0.145
580.59	0.148
581.04	0.149
581.49	0.150
581.95	0.153
582.40	0.153
582.85	0.155
583.30	0.156
583.75	0.158
584.20	0.158
584.65	0.160
585.10	0.161
585.55	0.163
586.00	0.164
586.45	0.165
586.90	0.169
587.35	0.168
587.80	0.173
588.25	0.173
588.71	0.174
589.16	0.176
589.61	0.179
590.06	0.179
590.51	0.184
590.96	0.185
591.41	0.185
591.86	0.185
592.31	0.190
592.76	0.191
593.21	0.192
593.66	0.196
594.11	0.197
594.56	0.199
595.01	0.198
595.46	0.201
595.91	0.206
596.36	0.207
596.81	0.210
597.26	0.211
597.71	0.214
598.16	0.215
598.61	0.217
599.06	0.218
599.51	0.218
599.96	0.222
600.41	0.226
600.86	0.225
601.31	0.225
601.76	0.232
602.21	0.230
602.65	0.233
603.10	0.236
603.55	0.236
604.00	0.241
604.45	0.240
604.90	0.242
605.35	0.244
605.80	0.248
606.25	0.249
606.70	0.250
607.15	0.250
607.60	0.250
608.05	0.255
608.50	0.257
608.95	0.258
609.39	0.258
609.84	0.257
610.29	0.263
610.74	0.261
611.19	0.264
611.64	0.266
612.09	0.267
612.54	0.266
612.99	0.266
613.44	0.267
613.88	0.269
614.33	0.271
614.78	0.271
615.23	0.275
615.68	0.270
616.13	0.275
616.58	0.276
617.03	0.273
617.47	0.275
617.92	0.275
618.37	0.275
618.82	0.278
619.27	0.277
619.72	0.276
620.17	0.278
620.61	0.278
621.06	0.278
621.51	0.281
621.96	0.280
622.41	0.282
622.86	0.283
623.30	0.280
623.75	0.282
624.20	0.282
624.65	0.285
625.10	0.286
625.54	0.284
625.99	0.286
626.44	0.289
626.89	0.290
627.34	0.289
627.78	0.292
628.23	0.291
628.68	0.291
629.13	0.295
629.58	0.297
630.02	0.297
630.47	0.302
630.92	0.300
631.37	0.300
631.81	0.303
632.26	0.303
632.71	0.307
633.16	0.307
633.61	0.312
634.05	0.311
634.50	0.314
634.95	0.317
635.40	0.321
635.84	0.321
636.29	0.324
636.74	0.325
637.18	0.328
637.63	0.330
638.08	0.331
638.53	0.337
638.97	0.338
639.42	0.340
639.87	0.343
640.32	0.347
640.76	0.348
641.21	0.351
641.66	0.354
642.10	0.358
642.55	0.361
643.00	0.365
643.44	0.367
643.89	0.371
644.34	0.374
644.79	0.377
645.23	0.380
645.68	0.385
646.13	0.387
646.57	0.389
647.02	0.396
647.47	0.398
647.91	0.402
648.36	0.406
648.81	0.406
649.25	0.408
649.70	0.413
650.15	0.415
650.59	0.421
651.04	0.424
651.48	0.425
651.93	0.429
652.38	0.431
652.82	0.436
653.27	0.438
653.72	0.440
654.16	0.445
654.61	0.449
655.06	0.446
655.50	0.452
655.95	0.451
656.39	0.457
656.84	0.458
657.29	0.458
657.73	0.464
658.18	0.465
658.62	0.467
659.07	0.470
659.52	0.470
659.96	0.474
660.41	0.473
660.85	0.475
661.30	0.481
661.74	0.478
662.19	0.479
662.64	0.480
663.08	0.485
663.53	0.485
663.97	0.484
664.42	0.488
664.86	0.486
665.31	0.487
665.75	0.486
666.20	0.485
666.65	0.481
667.09	0.478
667.54	0.481
667.98	0.477
668.43	0.477
668.87	0.473
669.32	0.470
669.76	0.468
670.21	0.466
670.65	0.464
671.10	0.459
671.54	0.455
671.99	0.449
672.43	0.441
672.88	0.437
673.32	0.434
673.77	0.426
674.21	0.418
674.66	0.411
675.10	0.407
675.55	0.400
675.99	0.391
676.44	0.384
676.88	0.376
677.33	0.373
677.77	0.361
678.22	0.352
678.66	0.346
679.11	0.336
679.55	0.326
679.99	0.320
680.44	0.311
680.88	0.303
681.33	0.295
681.77	0.286
682.22	0.277
682.66	0.269
683.11	0.261
683.55	0.253
683.99	0.243
684.44	0.237
684.88	0.234
685.33	0.222
685.77	0.216
686.21	0.210
686.66	0.201
687.10	0.195
687.55	0.191
687.99	0.182
688.44	0.179
688.88	0.172
689.32	0.165
689.77	0.161
690.21	0.156
690.65	0.150
691.10	0.145
691.54	0.139
691.99	0.136
692.43	0.131
692.87	0.127
693.32	0.123
693.76	0.118
694.20	0.116
694.65	0.114
695.09	0.112
695.53	0.108
695.98	0.106
696.42	0.102
696.86	0.096
697.31	0.095
697.75	0.094
698.19	0.091
698.64	0.089
699.08	0.088
699.52	0.087
699.97	0.084
700.41	0.082
700.85	0.085
701.30	0.078
701.74	0.074
702.18	0.076
702.63	0.075
703.07	0.072
703.51	0.074
703.96	0.073
704.40	0.070
704.84	0.068
705.28	0.067
705.73	0.069
706.17	0.067
706.61	0.063
707.06	0.066
707.50	0.063
707.94	0.061
708.38	0.062
708.83	0.062
709.27	0.061
709.71	0.061
710.15	0.060
710.60	0.062
711.04	0.060
711.48	0.057
711.92	0.057
712.37	0.058
712.81	0.055
713.25	0.055
713.69	0.059
714.13	0.051
714.58	0.054
715.02	0.054
715.46	0.054
715.90	0.054
716.35	0.055
716.79	0.053
717.23	0.055
717.67	0.056
718.11	0.054
718.56	0.052
719.00	0.055
719.44	0.057
719.88	0.052
720.32	0.055
720.76	0.055
721.21	0.054
721.65	0.055
722.09	0.055
722.53	0.054
722.97	0.054
723.41	0.052
723.86	0.055
724.30	0.054
724.74	0.053
725.18	0.053
725.62	0.056
726.06	0.055
726.50	0.055
726.95	0.054
727.39	0.053
727.83	0.054
728.27	0.054
728.71	0.056
729.15	0.054
729.59	0.054
730.03	0.054
730.48	0.056
730.92	0.052
731.36	0.052
731.80	0.052
732.24	0.056
732.68	0.054
733.12	0.056
733.56	0.056
734.00	0.055
734.44	0.055
734.89	0.056
735.33	0.058
735.77	0.057
736.21	0.056
736.65	0.054
737.09	0.055
737.53	0.059
737.97	0.057
738.41	0.056
738.85	0.057
739.29	0.058
739.73	0.055
740.17	0.057
740.61	0.055
741.05	0.055
741.49	0.053
741.93	0.054
742.37	0.055
742.81	0.056
743.26	0.056
743.70	0.057
744.14	0.058
744.58	0.057
745.02	0.056
745.46	0.057
745.90	0.056
746.34	0.058
746.78	0.056
747.22	0.054
747.66	0.055
748.10	0.055
748.54	0.050
748.98	0.055
749.42	0.056
749.86	0.055
750.29	0.054
750.73	0.057
751.17	0.055
751.61	0.054
752.05	0.055
752.49	0.053
752.93	0.053
753.37	0.053
753.81	0.055
754.25	0.055
754.69	0.053
755.13	0.053
755.57	0.055
756.01	0.052
756.45	0.053
756.89	0.057
757.33	0.055
757.77	0.051
758.21	0.055
758.64	0.054
759.08	0.051
759.52	0.053
759.96	0.052
760.40	0.051
760.84	0.055
761.28	0.055
761.72	0.052
762.16	0.053
762.60	0.053
763.03	0.051
763.47	0.050
763.91	0.054
764.35	0.051
764.79	0.054
765.23	0.052
765.67	0.054
766.11	0.052
766.54	0.049
766.98	0.052
767.42	0.055
767.86	0.046
768.30	0.047
768.74	0.052
769.17	0.053
769.61	0.055
770.05	0.053
770.49	0.051
770.93	0.055
771.37	0.052
771.80	0.049
772.24	0.054
772.68	0.054
773.12	0.054
773.56	0.055
774.00	0.052
774.43	0.054
774.87	0.054
775.31	0.051
775.75	0.051
776.19	0.052
776.62	0.053
777.06	0.051
777.50	0.051
777.94	0.055
778.37	0.053
778.81	0.051
779.25	0.054
779.69	0.055
780.13	0.050
780.56	0.050
781.00	0.053
781.44	0.051
781.88	0.055
782.31	0.053
782.75	0.052
783.19	0.052
783.63	0.048
784.06	0.051
784.50	0.051
784.94	0.053
785.37	0.052
785.81	0.052
786.25	0.050
786.69	0.053
787.12	0.053
787.56	0.053
788.00	0.051
788.43	0.049
788.87	0.052
789.31	0.053
789.75	0.054
790.18	0.051
790.62	0.052
791.06	0.052
791.49	0.050
791.93	0.053
792.37	0.052
792.80	0.051
793.24	0.049
793.68	0.051
794.11	0.050
794.55	0.049
794.99	0.051
795.42	0.046
795.86	0.050
796.30	0.052
796.73	0.052
797.17	0.054
797.61	0.052
798.04	0.051
798.48	0.049
798.91	0.049
799.35	0.047
799.79	0.051
800.22	0.045
800.66	0.048
801.10	0.051
801.53	0.054
801.97	0.051
802.40	0.054
802.84	0.048
803.28	0.052
803.71	0.052
804.15	0.050
804.58	0.053
805.02	0.049
805.46	0.051
805.89	0.054
806.33	0.049
806.76	0.050
807.20	0.048
807.63	0.046
808.07	0.049
808.51	0.046
808.94	0.052
809.38	0.047
809.81	0.048
810.25	0.052
810.68	0.052
811.12	0.048
811.55	0.051
811.99	0.050
812.42	0.049
812.86	0.053
813.29	0.054
813.73	0.044
814.17	0.050
814.60	0.052
815.04	0.048
815.47	0.048
815.91	0.052
816.34	0.051
816.78	0.047
817.21	0.047
817.65	0.046
818.08	0.051
