SpectraSuite Data File
++++++++++++++++++++++++++++++++++++
Date: Tue Jul 11 13:59:59 CEST 2017
User: IPCE
Dark Spectrum Present: Yes
Reference Spectrum Present: Yes
Number of Sampled Component Spectra: 1
Spectrometers: HR+C0708
Integration Time (usec): 1000 (HR+C0708)
Spectra Averaged: 10 (HR+C0708)
Boxcar Smoothing: 0 (HR+C0708)
Correct for Electrical Dark: No (HR+C0708)
Strobe/Lamp Enabled: No (HR+C0708)
Correct for Detector Non-linearity: No (HR+C0708)
Correct for Stray Light: No (HR+C0708)
Number of Pixels in Processed Spectrum: 2048
>>>>>Begin Processed Spectral Data<<<<<
188.76	0.257
189.23	0.774
189.70	1.301
190.17	0.179
190.64	0.408
191.12	0.484
191.59	0.180
192.06	-0.021
192.53	-0.000
193.01	0.490
193.48	0.461
193.95	-0.014
194.42	0.542
194.90	0.430
195.37	-0.273
195.84	0.950
196.31	-0.000
196.78	0.545
197.26	-0.044
197.73	0.707
198.20	-0.088
198.67	0.097
199.14	-0.106
199.62	-0.477
200.09	0.414
200.56	0.205
201.03	0.314
201.50	0.519
201.97	0.350
202.45	0.285
202.92	0.361
203.39	0.307
203.86	0.458
204.33	0.303
204.80	0.388
205.28	0.447
205.75	0.171
206.22	0.416
206.69	0.382
207.16	0.197
207.63	0.257
208.11	0.343
208.58	0.311
209.05	0.531
209.52	0.440
209.99	0.336
210.46	0.488
210.93	0.249
211.41	0.359
211.88	0.410
212.35	0.287
212.82	0.325
213.29	0.462
213.76	0.339
214.23	0.306
214.70	0.468
215.18	0.342
215.65	0.486
216.12	0.346
216.59	0.330
217.06	0.542
217.53	0.232
218.00	0.235
218.47	0.521
218.94	0.391
219.41	0.263
219.89	0.343
220.36	0.310
220.83	0.524
221.30	0.563
221.77	0.422
222.24	0.502
222.71	0.288
223.18	0.437
223.65	0.724
224.12	0.630
224.59	0.548
225.06	0.630
225.54	0.539
226.01	0.647
226.48	0.686
226.95	0.721
227.42	0.982
227.89	0.721
228.36	0.866
228.83	1.116
229.30	1.016
229.77	1.066
230.24	1.310
230.71	1.209
231.18	1.230
231.65	1.115
232.12	1.279
232.59	1.338
233.06	1.235
233.53	1.536
234.00	1.356
234.47	1.518
234.94	1.537
235.41	1.725
235.88	1.846
236.35	1.703
236.82	1.861
237.29	1.757
237.76	1.865
238.23	1.799
238.70	2.083
239.17	2.124
239.64	2.242
240.11	1.904
240.58	1.969
241.05	2.058
241.52	2.145
241.99	2.011
242.46	2.142
242.93	2.355
243.40	2.022
243.87	2.162
244.34	2.271
244.81	2.195
245.28	2.197
245.75	2.476
246.22	2.036
246.69	2.197
247.16	2.374
247.63	2.234
248.10	2.414
248.57	2.120
249.04	2.158
249.51	2.261
249.98	2.188
250.45	2.181
250.92	2.184
251.39	2.175
251.85	2.000
252.32	2.019
252.79	1.855
253.26	1.785
253.73	1.732
254.20	1.666
254.67	1.565
255.14	1.492
255.61	1.437
256.08	1.408
256.55	1.351
257.02	1.292
257.49	1.269
257.95	1.226
258.42	1.183
258.89	1.152
259.36	1.128
259.83	1.102
260.30	1.076
260.77	1.063
261.24	1.038
261.71	1.016
262.17	1.000
262.64	0.990
263.11	0.970
263.58	0.959
264.05	0.942
264.52	0.930
264.99	0.920
265.46	0.897
265.92	0.896
266.39	0.885
266.86	0.873
267.33	0.859
267.80	0.855
268.27	0.845
268.74	0.837
269.20	0.830
269.67	0.819
270.14	0.812
270.61	0.800
271.08	0.800
271.55	0.791
272.01	0.784
272.48	0.775
272.95	0.772
273.42	0.768
273.89	0.758
274.36	0.755
274.82	0.750
275.29	0.743
275.76	0.743
276.23	0.739
276.70	0.734
277.16	0.731
277.63	0.730
278.10	0.726
278.57	0.723
279.04	0.720
279.50	0.721
279.97	0.715
280.44	0.716
280.91	0.711
281.38	0.711
281.84	0.714
282.31	0.713
282.78	0.707
283.25	0.709
283.72	0.707
284.18	0.706
284.65	0.708
285.12	0.708
285.59	0.705
286.05	0.704
286.52	0.709
286.99	0.705
287.46	0.709
287.92	0.709
288.39	0.711
288.86	0.712
289.33	0.703
289.79	0.708
290.26	0.704
290.73	0.707
291.20	0.701
291.66	0.700
292.13	0.699
292.60	0.693
293.07	0.692
293.53	0.683
294.00	0.685
294.47	0.671
294.93	0.672
295.40	0.665
295.87	0.656
296.34	0.650
296.80	0.641
297.27	0.636
297.74	0.625
298.20	0.615
298.67	0.609
299.14	0.601
299.60	0.592
300.07	0.579
300.54	0.571
301.01	0.566
301.47	0.559
301.94	0.543
302.41	0.540
302.87	0.528
303.34	0.526
303.81	0.516
304.27	0.506
304.74	0.497
305.21	0.489
305.67	0.488
306.14	0.482
306.61	0.473
307.07	0.467
307.54	0.459
308.01	0.456
308.47	0.450
308.94	0.448
309.40	0.439
309.87	0.432
310.34	0.434
310.80	0.425
311.27	0.429
311.74	0.420
312.20	0.417
312.67	0.415
313.13	0.410
313.60	0.407
314.07	0.409
314.53	0.401
315.00	0.399
315.47	0.396
315.93	0.397
316.40	0.394
316.86	0.389
317.33	0.387
317.80	0.387
318.26	0.382
318.73	0.381
319.19	0.381
319.66	0.379
320.13	0.374
320.59	0.371
321.06	0.370
321.52	0.367
321.99	0.367
322.45	0.361
322.92	0.364
323.39	0.360
323.85	0.354
324.32	0.351
324.78	0.353
325.25	0.348
325.71	0.344
326.18	0.347
326.64	0.346
327.11	0.341
327.58	0.341
328.04	0.337
328.51	0.330
328.97	0.334
329.44	0.333
329.90	0.328
330.37	0.324
330.83	0.324
331.30	0.323
331.76	0.324
332.23	0.321
332.69	0.321
333.16	0.314
333.62	0.316
334.09	0.313
334.56	0.315
335.02	0.309
335.49	0.308
335.95	0.308
336.42	0.305
336.88	0.304
337.35	0.303
337.81	0.302
338.28	0.301
338.74	0.301
339.20	0.298
339.67	0.294
340.13	0.297
340.60	0.293
341.06	0.295
341.53	0.291
341.99	0.289
342.46	0.290
342.92	0.288
343.39	0.290
343.85	0.282
344.32	0.284
344.78	0.280
345.25	0.278
345.71	0.279
346.17	0.276
346.64	0.274
347.10	0.272
347.57	0.273
348.03	0.268
348.50	0.266
348.96	0.259
349.43	0.258
349.89	0.261
350.35	0.254
350.82	0.251
351.28	0.246
351.75	0.241
352.21	0.237
352.67	0.237
353.14	0.227
353.60	0.223
354.07	0.217
354.53	0.210
355.00	0.205
355.46	0.200
355.92	0.189
356.39	0.186
356.85	0.179
357.31	0.175
357.78	0.165
358.24	0.156
358.71	0.154
359.17	0.147
359.63	0.140
360.10	0.139
360.56	0.125
361.03	0.122
361.49	0.118
361.95	0.114
362.42	0.108
362.88	0.108
363.34	0.107
363.81	0.103
364.27	0.100
364.73	0.102
365.20	0.101
365.66	0.100
366.12	0.100
366.59	0.095
367.05	0.097
367.51	0.092
367.98	0.094
368.44	0.092
368.90	0.091
369.37	0.089
369.83	0.088
370.29	0.090
370.76	0.087
371.22	0.090
371.68	0.091
372.15	0.087
372.61	0.089
373.07	0.088
373.54	0.088
374.00	0.089
374.46	0.088
374.92	0.090
375.39	0.087
375.85	0.085
376.31	0.087
376.78	0.087
377.24	0.085
377.70	0.087
378.16	0.086
378.63	0.085
379.09	0.083
379.55	0.086
380.01	0.084
380.48	0.084
380.94	0.084
381.40	0.082
381.87	0.084
382.33	0.083
382.79	0.082
383.25	0.083
383.72	0.080
384.18	0.082
384.64	0.080
385.10	0.082
385.56	0.080
386.03	0.081
386.49	0.082
386.95	0.080
387.41	0.081
387.88	0.077
388.34	0.080
388.80	0.081
389.26	0.078
389.72	0.081
390.19	0.080
390.65	0.078
391.11	0.080
391.57	0.077
392.04	0.080
392.50	0.081
392.96	0.078
393.42	0.079
393.88	0.081
394.34	0.080
394.81	0.077
395.27	0.078
395.73	0.079
396.19	0.077
396.65	0.081
397.12	0.076
397.58	0.073
398.04	0.077
398.50	0.077
398.96	0.077
399.42	0.076
399.89	0.077
400.35	0.077
400.81	0.076
401.27	0.074
401.73	0.073
402.19	0.076
402.65	0.073
403.12	0.072
403.58	0.070
404.04	0.072
404.50	0.071
404.96	0.072
405.42	0.071
405.88	0.072
406.34	0.071
406.81	0.070
407.27	0.068
407.73	0.070
408.19	0.067
408.65	0.070
409.11	0.067
409.57	0.066
410.03	0.065
410.49	0.067
410.96	0.065
411.42	0.066
411.88	0.067
412.34	0.066
412.80	0.067
413.26	0.067
413.72	0.068
414.18	0.064
414.64	0.063
415.10	0.064
415.56	0.063
416.02	0.062
416.48	0.064
416.95	0.065
417.41	0.065
417.87	0.066
418.33	0.062
418.79	0.063
419.25	0.067
419.71	0.065
420.17	0.064
420.63	0.064
421.09	0.062
421.55	0.062
422.01	0.063
422.47	0.065
422.93	0.065
423.39	0.065
423.85	0.065
424.31	0.064
424.77	0.062
425.23	0.064
425.69	0.062
426.15	0.063
426.61	0.064
427.07	0.061
427.53	0.064
427.99	0.062
428.45	0.062
428.91	0.062
429.37	0.061
429.83	0.060
430.29	0.063
430.75	0.061
431.21	0.061
431.67	0.061
432.13	0.060
432.59	0.059
433.05	0.060
433.51	0.062
433.97	0.061
434.43	0.063
434.89	0.061
435.35	0.057
435.81	0.056
436.27	0.058
436.73	0.061
437.19	0.060
437.65	0.058
438.11	0.061
438.57	0.058
439.03	0.056
439.48	0.056
439.94	0.058
440.40	0.057
440.86	0.058
441.32	0.054
441.78	0.059
442.24	0.056
442.70	0.059
443.16	0.057
443.62	0.061
444.08	0.054
444.54	0.056
444.99	0.055
445.45	0.059
445.91	0.058
446.37	0.056
446.83	0.059
447.29	0.057
447.75	0.055
448.21	0.057
448.67	0.055
449.12	0.059
449.58	0.055
450.04	0.058
450.50	0.055
450.96	0.056
451.42	0.057
451.88	0.057
452.34	0.059
452.79	0.053
453.25	0.058
453.71	0.055
454.17	0.053
454.63	0.055
455.09	0.056
455.55	0.060
456.00	0.057
456.46	0.056
456.92	0.054
457.38	0.056
457.84	0.055
458.30	0.057
458.75	0.056
459.21	0.054
459.67	0.056
460.13	0.055
460.59	0.056
461.04	0.056
461.50	0.054
461.96	0.055
462.42	0.055
462.88	0.055
463.33	0.056
463.79	0.057
464.25	0.058
464.71	0.058
465.17	0.055
465.62	0.056
466.08	0.055
466.54	0.057
467.00	0.057
467.46	0.054
467.91	0.054
468.37	0.056
468.83	0.053
469.29	0.058
469.74	0.055
470.20	0.056
470.66	0.060
471.12	0.058
471.57	0.055
472.03	0.058
472.49	0.057
472.95	0.057
473.40	0.059
473.86	0.057
474.32	0.058
474.78	0.057
475.23	0.057
475.69	0.055
476.15	0.056
476.60	0.056
477.06	0.060
477.52	0.057
477.98	0.058
478.43	0.058
478.89	0.058
479.35	0.056
479.80	0.058
480.26	0.054
480.72	0.057
481.18	0.058
481.63	0.056
482.09	0.056
482.55	0.059
483.00	0.059
483.46	0.057
483.92	0.058
484.37	0.059
484.83	0.058
485.29	0.058
485.74	0.057
486.20	0.057
486.66	0.059
487.11	0.057
487.57	0.057
488.03	0.061
488.48	0.058
488.94	0.060
489.40	0.058
489.85	0.059
490.31	0.057
490.77	0.057
491.22	0.060
491.68	0.055
492.13	0.058
492.59	0.059
493.05	0.059
493.50	0.061
493.96	0.058
494.42	0.059
494.87	0.059
495.33	0.058
495.78	0.057
496.24	0.059
496.70	0.058
497.15	0.058
497.61	0.059
498.06	0.057
498.52	0.059
498.98	0.059
499.43	0.057
499.89	0.057
500.34	0.059
500.80	0.059
501.25	0.058
501.71	0.058
502.17	0.059
502.62	0.056
503.08	0.058
503.53	0.058
503.99	0.058
504.44	0.058
504.90	0.057
505.36	0.057
505.81	0.060
506.27	0.059
506.72	0.058
507.18	0.060
507.63	0.056
508.09	0.058
508.54	0.056
509.00	0.057
509.45	0.059
509.91	0.058
510.36	0.060
510.82	0.057
511.27	0.061
511.73	0.059
512.19	0.059
512.64	0.058
513.10	0.056
513.55	0.057
514.01	0.056
514.46	0.058
514.92	0.058
515.37	0.058
515.83	0.060
516.28	0.057
516.73	0.058
517.19	0.057
517.64	0.057
518.10	0.059
518.55	0.056
519.01	0.059
519.46	0.057
519.92	0.057
520.37	0.056
520.83	0.061
521.28	0.057
521.74	0.058
522.19	0.055
522.65	0.058
523.10	0.058
523.55	0.058
524.01	0.058
524.46	0.056
524.92	0.055
525.37	0.056
525.83	0.059
526.28	0.057
526.73	0.057
527.19	0.057
527.64	0.059
528.10	0.058
528.55	0.059
529.01	0.060
529.46	0.059
529.91	0.058
530.37	0.060
530.82	0.060
531.28	0.058
531.73	0.059
532.18	0.058
532.64	0.059
533.09	0.059
533.54	0.060
534.00	0.060
534.45	0.059
534.91	0.059
535.36	0.061
535.81	0.060
536.27	0.061
536.72	0.063
537.17	0.061
537.63	0.062
538.08	0.060
538.54	0.063
538.99	0.064
539.44	0.062
539.90	0.062
540.35	0.062
540.80	0.063
541.26	0.065
541.71	0.066
542.16	0.065
542.62	0.066
543.07	0.068
543.52	0.066
543.98	0.065
544.43	0.064
544.88	0.066
545.34	0.069
545.79	0.066
546.24	0.070
546.69	0.069
547.15	0.069
547.60	0.072
548.05	0.070
548.51	0.071
548.96	0.069
549.41	0.071
549.86	0.070
550.32	0.072
550.77	0.072
551.22	0.073
551.68	0.074
552.13	0.074
552.58	0.074
553.03	0.076
553.49	0.074
553.94	0.077
554.39	0.077
554.84	0.076
555.30	0.077
555.75	0.077
556.20	0.078
556.65	0.081
557.11	0.080
557.56	0.079
558.01	0.080
558.46	0.082
558.92	0.082
559.37	0.085
559.82	0.084
560.27	0.086
560.72	0.085
561.18	0.088
561.63	0.085
562.08	0.087
562.53	0.089
562.99	0.091
563.44	0.091
563.89	0.090
564.34	0.090
564.79	0.091
565.25	0.092
565.70	0.094
566.15	0.096
566.60	0.094
567.05	0.098
567.50	0.098
567.96	0.095
568.41	0.098
568.86	0.098
569.31	0.101
569.76	0.100
570.21	0.100
570.67	0.103
571.12	0.103
571.57	0.104
572.02	0.106
572.47	0.103
572.92	0.107
573.37	0.108
573.83	0.107
574.28	0.108
574.73	0.110
575.18	0.110
575.63	0.112
576.08	0.111
576.53	0.114
576.98	0.115
577.44	0.119
577.89	0.117
578.34	0.120
578.79	0.120
579.24	0.121
579.69	0.123
580.14	0.123
580.59	0.126
581.04	0.126
581.49	0.128
581.95	0.129
582.40	0.130
582.85	0.132
583.30	0.132
583.75	0.134
584.20	0.136
584.65	0.139
585.10	0.140
585.55	0.140
586.00	0.143
586.45	0.144
586.90	0.146
587.35	0.150
587.80	0.150
588.25	0.152
588.71	0.156
589.16	0.154
589.61	0.157
590.06	0.158
590.51	0.163
590.96	0.164
591.41	0.165
591.86	0.166
592.31	0.170
592.76	0.172
593.21	0.174
593.66	0.176
594.11	0.178
594.56	0.181
595.01	0.185
595.46	0.185
595.91	0.188
596.36	0.191
596.81	0.191
597.26	0.194
597.71	0.196
598.16	0.197
598.61	0.199
599.06	0.202
599.51	0.205
599.96	0.207
600.41	0.211
600.86	0.213
601.31	0.211
601.76	0.217
602.21	0.216
602.65	0.219
603.10	0.223
603.55	0.224
604.00	0.225
604.45	0.226
604.90	0.231
605.35	0.233
605.80	0.236
606.25	0.237
606.70	0.237
607.15	0.239
607.60	0.241
608.05	0.244
608.50	0.244
608.95	0.247
609.39	0.246
609.84	0.250
610.29	0.252
610.74	0.251
611.19	0.254
611.64	0.257
612.09	0.258
612.54	0.258
612.99	0.256
613.44	0.257
613.88	0.260
614.33	0.260
614.78	0.259
615.23	0.264
615.68	0.264
616.13	0.264
616.58	0.266
617.03	0.265
617.47	0.266
617.92	0.265
618.37	0.269
618.82	0.270
619.27	0.269
619.72	0.269
620.17	0.272
620.61	0.272
621.06	0.271
621.51	0.274
621.96	0.275
622.41	0.273
622.86	0.277
623.30	0.275
623.75	0.274
624.20	0.277
624.65	0.278
625.10	0.279
625.54	0.280
625.99	0.280
626.44	0.284
626.89	0.283
627.34	0.285
627.78	0.288
628.23	0.286
628.68	0.289
629.13	0.290
629.58	0.291
630.02	0.293
630.47	0.294
630.92	0.296
631.37	0.296
631.81	0.299
632.26	0.300
632.71	0.305
633.16	0.305
633.61	0.306
634.05	0.312
634.50	0.311
634.95	0.316
635.40	0.317
635.84	0.319
636.29	0.322
636.74	0.323
637.18	0.329
637.63	0.331
638.08	0.332
638.53	0.335
638.97	0.339
639.42	0.340
639.87	0.344
640.32	0.347
640.76	0.350
641.21	0.352
641.66	0.357
642.10	0.359
642.55	0.363
643.00	0.366
643.44	0.368
643.89	0.374
644.34	0.378
644.79	0.383
645.23	0.386
645.68	0.389
646.13	0.394
646.57	0.396
647.02	0.401
647.47	0.402
647.91	0.408
648.36	0.411
648.81	0.414
649.25	0.416
649.70	0.419
650.15	0.424
650.59	0.431
651.04	0.432
651.48	0.435
651.93	0.438
652.38	0.439
652.82	0.443
653.27	0.445
653.72	0.450
654.16	0.451
654.61	0.458
655.06	0.459
655.50	0.462
655.95	0.463
656.39	0.468
656.84	0.472
657.29	0.471
657.73	0.474
658.18	0.476
658.62	0.480
659.07	0.482
659.52	0.482
659.96	0.485
660.41	0.486
660.85	0.489
661.30	0.491
661.74	0.490
662.19	0.495
662.64	0.495
663.08	0.495
663.53	0.496
663.97	0.498
664.42	0.497
664.86	0.496
665.31	0.499
665.75	0.498
666.20	0.495
666.65	0.496
667.09	0.495
667.54	0.493
667.98	0.486
668.43	0.488
668.87	0.486
669.32	0.483
669.76	0.480
670.21	0.474
670.65	0.473
671.10	0.467
671.54	0.459
671.99	0.458
672.43	0.449
672.88	0.445
673.32	0.438
673.77	0.432
674.21	0.427
674.66	0.418
675.10	0.410
675.55	0.402
675.99	0.394
676.44	0.387
676.88	0.377
677.33	0.373
677.77	0.360
678.22	0.350
678.66	0.343
679.11	0.336
679.55	0.326
679.99	0.316
680.44	0.308
680.88	0.299
681.33	0.289
681.77	0.279
682.22	0.272
682.66	0.262
683.11	0.254
683.55	0.244
683.99	0.236
684.44	0.230
684.88	0.223
685.33	0.215
685.77	0.203
686.21	0.199
686.66	0.189
687.10	0.185
687.55	0.176
687.99	0.168
688.44	0.164
688.88	0.158
689.32	0.150
689.77	0.145
690.21	0.139
690.65	0.137
691.10	0.131
691.54	0.123
691.99	0.119
692.43	0.116
692.87	0.110
693.32	0.106
693.76	0.103
694.20	0.100
694.65	0.095
695.09	0.094
695.53	0.090
695.98	0.088
696.42	0.084
696.86	0.080
697.31	0.077
697.75	0.075
698.19	0.071
698.64	0.069
699.08	0.071
699.52	0.068
699.97	0.065
700.41	0.063
700.85	0.064
701.30	0.059
701.74	0.055
702.18	0.058
702.63	0.054
703.07	0.053
703.51	0.054
703.96	0.051
704.40	0.050
704.84	0.049
705.28	0.047
705.73	0.047
706.17	0.046
706.61	0.044
707.06	0.046
707.50	0.042
707.94	0.042
708.38	0.043
708.83	0.041
709.27	0.039
709.71	0.039
710.15	0.039
710.60	0.040
711.04	0.038
711.48	0.036
711.92	0.038
712.37	0.037
712.81	0.035
713.25	0.031
713.69	0.037
714.13	0.032
714.58	0.032
715.02	0.035
715.46	0.035
715.90	0.033
716.35	0.037
716.79	0.032
717.23	0.035
717.67	0.035
718.11	0.031
718.56	0.031
719.00	0.031
719.44	0.032
719.88	0.031
720.32	0.031
720.76	0.033
721.21	0.029
721.65	0.033
722.09	0.034
722.53	0.032
722.97	0.031
723.41	0.030
723.86	0.031
724.30	0.032
724.74	0.033
725.18	0.032
725.62	0.034
726.06	0.032
726.50	0.034
726.95	0.032
727.39	0.031
727.83	0.031
728.27	0.032
728.71	0.032
729.15	0.033
729.59	0.033
730.03	0.033
730.48	0.035
730.92	0.030
731.36	0.032
731.80	0.031
732.24	0.032
732.68	0.033
733.12	0.033
733.56	0.035
734.00	0.032
734.44	0.033
734.89	0.035
735.33	0.036
735.77	0.035
736.21	0.033
736.65	0.034
737.09	0.033
737.53	0.035
737.97	0.035
738.41	0.033
738.85	0.037
739.29	0.035
739.73	0.035
740.17	0.035
740.61	0.034
741.05	0.033
741.49	0.036
741.93	0.034
742.37	0.033
742.81	0.034
743.26	0.034
743.70	0.035
744.14	0.036
744.58	0.036
745.02	0.035
745.46	0.038
745.90	0.036
746.34	0.034
746.78	0.034
747.22	0.035
747.66	0.035
748.10	0.035
748.54	0.033
748.98	0.033
749.42	0.037
749.86	0.036
750.29	0.034
750.73	0.039
751.17	0.035
751.61	0.034
752.05	0.036
752.49	0.034
752.93	0.035
753.37	0.035
753.81	0.037
754.25	0.035
754.69	0.035
755.13	0.032
755.57	0.034
756.01	0.034
756.45	0.033
756.89	0.036
757.33	0.036
757.77	0.033
758.21	0.035
758.64	0.033
759.08	0.034
759.52	0.035
759.96	0.033
760.40	0.031
760.84	0.035
761.28	0.034
761.72	0.032
762.16	0.035
762.60	0.032
763.03	0.032
763.47	0.032
763.91	0.035
764.35	0.031
764.79	0.036
765.23	0.035
765.67	0.035
766.11	0.033
766.54	0.034
766.98	0.033
767.42	0.032
767.86	0.031
768.30	0.027
768.74	0.032
769.17	0.033
769.61	0.035
770.05	0.033
770.49	0.034
770.93	0.035
771.37	0.032
771.80	0.032
772.24	0.034
772.68	0.033
773.12	0.034
773.56	0.036
774.00	0.033
774.43	0.035
774.87	0.033
775.31	0.035
775.75	0.034
776.19	0.032
776.62	0.034
777.06	0.032
777.50	0.034
777.94	0.034
778.37	0.033
778.81	0.033
779.25	0.035
779.69	0.033
780.13	0.031
780.56	0.032
781.00	0.032
781.44	0.034
781.88	0.033
782.31	0.034
782.75	0.036
783.19	0.034
783.63	0.033
784.06	0.031
784.50	0.034
784.94	0.030
785.37	0.031
785.81	0.033
786.25	0.032
786.69	0.037
787.12	0.034
787.56	0.033
788.00	0.035
788.43	0.032
788.87	0.032
789.31	0.034
789.75	0.038
790.18	0.031
790.62	0.034
791.06	0.031
791.49	0.028
791.93	0.032
792.37	0.032
792.80	0.032
793.24	0.033
793.68	0.032
794.11	0.031
794.55	0.033
794.99	0.035
795.42	0.030
795.86	0.037
796.30	0.036
796.73	0.034
797.17	0.033
797.61	0.032
798.04	0.031
798.48	0.032
798.91	0.033
799.35	0.032
799.79	0.030
800.22	0.029
800.66	0.031
801.10	0.028
801.53	0.036
801.97	0.033
802.40	0.034
802.84	0.036
803.28	0.033
803.71	0.030
804.15	0.030
804.58	0.033
805.02	0.031
805.46	0.031
805.89	0.034
806.33	0.032
806.76	0.033
807.20	0.030
807.63	0.031
808.07	0.033
808.51	0.029
808.94	0.032
809.38	0.033
809.81	0.033
810.25	0.033
810.68	0.030
811.12	0.035
811.55	0.031
811.99	0.031
812.42	0.031
812.86	0.031
813.29	0.033
813.73	0.031
814.17	0.031
814.60	0.033
815.04	0.032
815.47	0.028
815.91	0.034
816.34	0.030
816.78	0.035
817.21	0.028
817.65	0.031
