SpectraSuite Data File
++++++++++++++++++++++++++++++++++++
Date: Tue Jul 11 14:53:29 CEST 2017
User: IPCE
Dark Spectrum Present: Yes
Reference Spectrum Present: Yes
Number of Sampled Component Spectra: 1
Spectrometers: HR+C0708
Integration Time (usec): 1000 (HR+C0708)
Spectra Averaged: 10 (HR+C0708)
Boxcar Smoothing: 0 (HR+C0708)
Correct for Electrical Dark: No (HR+C0708)
Strobe/Lamp Enabled: No (HR+C0708)
Correct for Detector Non-linearity: No (HR+C0708)
Correct for Stray Light: No (HR+C0708)
Number of Pixels in Processed Spectrum: 2048
>>>>>Begin Processed Spectral Data<<<<<
188.76	1.968
189.23	1.376
189.70	0.970
190.17	0.929
190.64	0.398
191.12	0.349
191.59	0.319
192.06	0.305
192.53	-0.000
193.01	-0.000
193.48	0.138
193.95	0.190
194.42	0.176
194.90	0.451
195.37	0.734
195.84	-0.000
196.31	0.368
196.78	0.377
197.26	0.355
197.73	-0.000
198.20	-0.083
198.67	0.155
199.14	-0.000
199.62	0.204
200.09	0.459
200.56	0.372
201.03	0.411
201.50	0.446
201.97	0.364
202.45	0.404
202.92	0.340
203.39	0.385
203.86	0.367
204.33	0.291
204.80	0.418
205.28	0.375
205.75	0.487
206.22	0.243
206.69	0.369
207.16	0.291
207.63	0.354
208.11	0.356
208.58	0.339
209.05	0.357
209.52	0.424
209.99	0.536
210.46	0.306
210.93	0.411
211.41	0.863
211.88	0.427
212.35	0.352
212.82	0.322
213.29	0.437
213.76	0.423
214.23	0.314
214.70	0.598
215.18	0.444
215.65	0.375
216.12	0.449
216.59	0.674
217.06	0.591
217.53	0.400
218.00	0.461
218.47	0.704
218.94	0.374
219.41	0.373
219.89	0.460
220.36	0.533
220.83	0.583
221.30	0.624
221.77	0.572
222.24	0.477
222.71	0.531
223.18	0.654
223.65	0.679
224.12	0.487
224.59	0.497
225.06	0.552
225.54	0.656
226.01	0.633
226.48	0.821
226.95	0.815
227.42	0.835
227.89	0.798
228.36	0.912
228.83	0.959
229.30	1.149
229.77	1.042
230.24	1.274
230.71	1.242
231.18	1.122
231.65	1.248
232.12	1.406
232.59	1.483
233.06	1.411
233.53	1.619
234.00	1.521
234.47	1.609
234.94	1.614
235.41	1.649
235.88	1.840
236.35	1.606
236.82	1.757
237.29	1.938
237.76	1.881
238.23	2.002
238.70	1.926
239.17	2.024
239.64	2.198
240.11	2.014
240.58	1.916
241.05	1.982
241.52	2.084
241.99	2.138
242.46	2.205
242.93	2.229
243.40	2.225
243.87	2.364
244.34	2.353
244.81	2.172
245.28	2.195
245.75	2.299
246.22	2.103
246.69	2.121
247.16	2.699
247.63	2.585
248.10	2.341
248.57	2.259
249.04	2.330
249.51	2.245
249.98	2.270
250.45	2.177
250.92	2.199
251.39	2.105
251.85	2.013
252.32	1.884
252.79	1.818
253.26	1.673
253.73	1.571
254.20	1.504
254.67	1.407
255.14	1.324
255.61	1.283
256.08	1.214
256.55	1.155
257.02	1.108
257.49	1.080
257.95	1.045
258.42	1.003
258.89	0.973
259.36	0.944
259.83	0.917
260.30	0.897
260.77	0.877
261.24	0.855
261.71	0.844
262.17	0.822
262.64	0.812
263.11	0.800
263.58	0.779
264.05	0.765
264.52	0.754
264.99	0.742
265.46	0.732
265.92	0.722
266.39	0.711
266.86	0.700
267.33	0.690
267.80	0.687
268.27	0.679
268.74	0.668
269.20	0.660
269.67	0.648
270.14	0.645
270.61	0.635
271.08	0.630
271.55	0.625
272.01	0.618
272.48	0.608
272.95	0.605
273.42	0.599
273.89	0.592
274.36	0.585
274.82	0.583
275.29	0.579
275.76	0.573
276.23	0.570
276.70	0.567
277.16	0.561
277.63	0.557
278.10	0.557
278.57	0.552
279.04	0.550
279.50	0.546
279.97	0.545
280.44	0.541
280.91	0.537
281.38	0.537
281.84	0.536
282.31	0.532
282.78	0.536
283.25	0.530
283.72	0.526
284.18	0.527
284.65	0.529
285.12	0.528
285.59	0.524
286.05	0.523
286.52	0.525
286.99	0.522
287.46	0.523
287.92	0.523
288.39	0.519
288.86	0.522
289.33	0.517
289.79	0.516
290.26	0.516
290.73	0.513
291.20	0.515
291.66	0.512
292.13	0.506
292.60	0.502
293.07	0.499
293.53	0.500
294.00	0.490
294.47	0.488
294.93	0.486
295.40	0.477
295.87	0.470
296.34	0.466
296.80	0.463
297.27	0.454
297.74	0.448
298.20	0.440
298.67	0.435
299.14	0.429
299.60	0.421
300.07	0.414
300.54	0.405
301.01	0.402
301.47	0.398
301.94	0.386
302.41	0.383
302.87	0.377
303.34	0.374
303.81	0.364
304.27	0.356
304.74	0.352
305.21	0.346
305.67	0.343
306.14	0.340
306.61	0.335
307.07	0.329
307.54	0.323
308.01	0.318
308.47	0.315
308.94	0.312
309.40	0.308
309.87	0.305
310.34	0.304
310.80	0.300
311.27	0.292
311.74	0.294
312.20	0.295
312.67	0.290
313.13	0.284
313.60	0.284
314.07	0.284
314.53	0.281
315.00	0.279
315.47	0.278
315.93	0.279
316.40	0.276
316.86	0.273
317.33	0.273
317.80	0.270
318.26	0.270
318.73	0.266
319.19	0.268
319.66	0.266
320.13	0.263
320.59	0.263
321.06	0.261
321.52	0.259
321.99	0.260
322.45	0.257
322.92	0.258
323.39	0.258
323.85	0.251
324.32	0.251
324.78	0.250
325.25	0.250
325.71	0.249
326.18	0.250
326.64	0.247
327.11	0.246
327.58	0.248
328.04	0.244
328.51	0.241
328.97	0.241
329.44	0.241
329.90	0.234
330.37	0.237
330.83	0.236
331.30	0.234
331.76	0.233
332.23	0.232
332.69	0.229
333.16	0.228
333.62	0.227
334.09	0.226
334.56	0.223
335.02	0.223
335.49	0.219
335.95	0.219
336.42	0.217
336.88	0.213
337.35	0.217
337.81	0.213
338.28	0.212
338.74	0.214
339.20	0.212
339.67	0.211
340.13	0.209
340.60	0.209
341.06	0.208
341.53	0.204
341.99	0.202
342.46	0.202
342.92	0.202
343.39	0.202
343.85	0.198
344.32	0.198
344.78	0.198
345.25	0.198
345.71	0.198
346.17	0.196
346.64	0.201
347.10	0.195
347.57	0.195
348.03	0.194
348.50	0.189
348.96	0.191
349.43	0.191
349.89	0.194
350.35	0.190
350.82	0.192
351.28	0.189
351.75	0.192
352.21	0.188
352.67	0.185
353.14	0.186
353.60	0.181
354.07	0.181
354.53	0.180
355.00	0.177
355.46	0.183
355.92	0.179
356.39	0.174
356.85	0.176
357.31	0.177
357.78	0.174
358.24	0.170
358.71	0.174
359.17	0.171
359.63	0.171
360.10	0.173
360.56	0.168
361.03	0.167
361.49	0.168
361.95	0.164
362.42	0.166
362.88	0.166
363.34	0.165
363.81	0.162
364.27	0.162
364.73	0.163
365.20	0.162
365.66	0.165
366.12	0.163
366.59	0.160
367.05	0.163
367.51	0.159
367.98	0.159
368.44	0.160
368.90	0.156
369.37	0.155
369.83	0.159
370.29	0.161
370.76	0.156
371.22	0.156
371.68	0.157
372.15	0.156
372.61	0.157
373.07	0.156
373.54	0.156
374.00	0.158
374.46	0.154
374.92	0.153
375.39	0.156
375.85	0.155
376.31	0.153
376.78	0.154
377.24	0.153
377.70	0.151
378.16	0.152
378.63	0.152
379.09	0.153
379.55	0.153
380.01	0.152
380.48	0.154
380.94	0.152
381.40	0.150
381.87	0.152
382.33	0.151
382.79	0.149
383.25	0.152
383.72	0.151
384.18	0.151
384.64	0.148
385.10	0.148
385.56	0.148
386.03	0.150
386.49	0.148
386.95	0.147
387.41	0.149
387.88	0.145
388.34	0.150
388.80	0.147
389.26	0.145
389.72	0.146
390.19	0.147
390.65	0.144
391.11	0.145
391.57	0.147
392.04	0.144
392.50	0.149
392.96	0.144
393.42	0.147
393.88	0.148
394.34	0.145
394.81	0.143
395.27	0.144
395.73	0.145
396.19	0.142
396.65	0.142
397.12	0.141
397.58	0.143
398.04	0.146
398.50	0.145
398.96	0.143
399.42	0.142
399.89	0.144
400.35	0.141
400.81	0.143
401.27	0.140
401.73	0.141
402.19	0.142
402.65	0.137
403.12	0.140
403.58	0.138
404.04	0.138
404.50	0.137
404.96	0.135
405.42	0.137
405.88	0.139
406.34	0.138
406.81	0.138
407.27	0.135
407.73	0.137
408.19	0.133
408.65	0.134
409.11	0.137
409.57	0.134
410.03	0.135
410.49	0.133
410.96	0.133
411.42	0.133
411.88	0.134
412.34	0.131
412.80	0.133
413.26	0.133
413.72	0.135
414.18	0.129
414.64	0.131
415.10	0.131
415.56	0.131
416.02	0.131
416.48	0.130
416.95	0.131
417.41	0.129
417.87	0.130
418.33	0.128
418.79	0.130
419.25	0.129
419.71	0.131
420.17	0.131
420.63	0.129
421.09	0.129
421.55	0.129
422.01	0.130
422.47	0.131
422.93	0.127
423.39	0.131
423.85	0.131
424.31	0.131
424.77	0.129
425.23	0.129
425.69	0.128
426.15	0.126
426.61	0.126
427.07	0.129
427.53	0.126
427.99	0.127
428.45	0.129
428.91	0.125
429.37	0.126
429.83	0.126
430.29	0.130
430.75	0.128
431.21	0.127
431.67	0.127
432.13	0.125
432.59	0.123
433.05	0.124
433.51	0.127
433.97	0.126
434.43	0.127
434.89	0.125
435.35	0.124
435.81	0.123
436.27	0.122
436.73	0.129
437.19	0.126
437.65	0.124
438.11	0.122
438.57	0.126
439.03	0.121
439.48	0.124
439.94	0.123
440.40	0.120
440.86	0.121
441.32	0.118
441.78	0.120
442.24	0.120
442.70	0.121
443.16	0.118
443.62	0.123
444.08	0.120
444.54	0.119
444.99	0.122
445.45	0.123
445.91	0.121
446.37	0.119
446.83	0.119
447.29	0.118
447.75	0.117
448.21	0.119
448.67	0.116
449.12	0.118
449.58	0.116
450.04	0.117
450.50	0.118
450.96	0.116
451.42	0.116
451.88	0.120
452.34	0.120
452.79	0.114
453.25	0.117
453.71	0.117
454.17	0.115
454.63	0.113
455.09	0.121
455.55	0.118
456.00	0.115
456.46	0.115
456.92	0.112
457.38	0.116
457.84	0.113
458.30	0.114
458.75	0.118
459.21	0.113
459.67	0.116
460.13	0.112
460.59	0.115
461.04	0.114
461.50	0.115
461.96	0.114
462.42	0.116
462.88	0.115
463.33	0.114
463.79	0.115
464.25	0.114
464.71	0.115
465.17	0.114
465.62	0.117
466.08	0.115
466.54	0.115
467.00	0.118
467.46	0.115
467.91	0.114
468.37	0.115
468.83	0.115
469.29	0.116
469.74	0.114
470.20	0.114
470.66	0.117
471.12	0.117
471.57	0.116
472.03	0.115
472.49	0.117
472.95	0.117
473.40	0.116
473.86	0.116
474.32	0.115
474.78	0.115
475.23	0.116
475.69	0.114
476.15	0.116
476.60	0.116
477.06	0.116
477.52	0.116
477.98	0.114
478.43	0.114
478.89	0.115
479.35	0.114
479.80	0.115
480.26	0.113
480.72	0.114
481.18	0.116
481.63	0.115
482.09	0.113
482.55	0.114
483.00	0.113
483.46	0.116
483.92	0.111
484.37	0.115
484.83	0.113
485.29	0.115
485.74	0.112
486.20	0.113
486.66	0.115
487.11	0.113
487.57	0.112
488.03	0.117
488.48	0.115
488.94	0.116
489.40	0.114
489.85	0.113
490.31	0.114
490.77	0.112
491.22	0.116
491.68	0.114
492.13	0.114
492.59	0.113
493.05	0.112
493.50	0.116
493.96	0.112
494.42	0.115
494.87	0.114
495.33	0.113
495.78	0.113
496.24	0.113
496.70	0.113
497.15	0.112
497.61	0.113
498.06	0.113
498.52	0.114
498.98	0.113
499.43	0.113
499.89	0.113
500.34	0.113
500.80	0.113
501.25	0.114
501.71	0.111
502.17	0.113
502.62	0.112
503.08	0.114
503.53	0.113
503.99	0.112
504.44	0.112
504.90	0.112
505.36	0.111
505.81	0.112
506.27	0.112
506.72	0.114
507.18	0.112
507.63	0.109
508.09	0.113
508.54	0.112
509.00	0.110
509.45	0.112
509.91	0.111
510.36	0.112
510.82	0.109
511.27	0.115
511.73	0.112
512.19	0.111
512.64	0.111
513.10	0.110
513.55	0.110
514.01	0.113
514.46	0.113
514.92	0.112
515.37	0.111
515.83	0.113
516.28	0.111
516.73	0.111
517.19	0.110
517.64	0.109
518.10	0.110
518.55	0.108
519.01	0.111
519.46	0.110
519.92	0.111
520.37	0.109
520.83	0.113
521.28	0.109
521.74	0.108
522.19	0.109
522.65	0.110
523.10	0.113
523.55	0.109
524.01	0.109
524.46	0.109
524.92	0.107
525.37	0.108
525.83	0.110
526.28	0.110
526.73	0.111
527.19	0.111
527.64	0.111
528.10	0.110
528.55	0.110
529.01	0.113
529.46	0.107
529.91	0.109
530.37	0.110
530.82	0.111
531.28	0.108
531.73	0.109
532.18	0.110
532.64	0.110
533.09	0.110
533.54	0.112
534.00	0.110
534.45	0.111
534.91	0.109
535.36	0.112
535.81	0.112
536.27	0.113
536.72	0.112
537.17	0.113
537.63	0.113
538.08	0.111
538.54	0.112
538.99	0.113
539.44	0.111
539.90	0.110
540.35	0.111
540.80	0.113
541.26	0.115
541.71	0.115
542.16	0.113
542.62	0.115
543.07	0.114
543.52	0.113
543.98	0.112
544.43	0.114
544.88	0.115
545.34	0.116
545.79	0.116
546.24	0.114
546.69	0.117
547.15	0.118
547.60	0.118
548.05	0.116
548.51	0.119
548.96	0.117
549.41	0.117
549.86	0.117
550.32	0.117
550.77	0.119
551.22	0.119
551.68	0.119
552.13	0.120
552.58	0.119
553.03	0.121
553.49	0.119
553.94	0.123
554.39	0.122
554.84	0.121
555.30	0.122
555.75	0.123
556.20	0.125
556.65	0.123
557.11	0.125
557.56	0.123
558.01	0.123
558.46	0.125
558.92	0.126
559.37	0.127
559.82	0.130
560.27	0.128
560.72	0.127
561.18	0.128
561.63	0.126
562.08	0.129
562.53	0.129
562.99	0.131
563.44	0.130
563.89	0.128
564.34	0.130
564.79	0.130
565.25	0.132
565.70	0.136
566.15	0.135
566.60	0.133
567.05	0.134
567.50	0.137
567.96	0.134
568.41	0.134
568.86	0.136
569.31	0.138
569.76	0.135
570.21	0.136
570.67	0.139
571.12	0.140
571.57	0.140
572.02	0.141
572.47	0.138
572.92	0.142
573.37	0.142
573.83	0.143
574.28	0.143
574.73	0.144
575.18	0.145
575.63	0.149
576.08	0.145
576.53	0.145
576.98	0.147
577.44	0.151
577.89	0.150
578.34	0.151
578.79	0.150
579.24	0.153
579.69	0.152
580.14	0.153
580.59	0.153
581.04	0.154
581.49	0.155
581.95	0.159
582.40	0.156
582.85	0.160
583.30	0.160
583.75	0.162
584.20	0.163
584.65	0.164
585.10	0.165
585.55	0.166
586.00	0.167
586.45	0.169
586.90	0.171
587.35	0.172
587.80	0.173
588.25	0.174
588.71	0.175
589.16	0.176
589.61	0.178
590.06	0.180
590.51	0.179
590.96	0.184
591.41	0.186
591.86	0.184
592.31	0.187
592.76	0.187
593.21	0.190
593.66	0.192
594.11	0.193
594.56	0.194
595.01	0.196
595.46	0.199
595.91	0.200
596.36	0.202
596.81	0.201
597.26	0.204
597.71	0.206
598.16	0.206
598.61	0.207
599.06	0.209
599.51	0.210
599.96	0.213
600.41	0.215
600.86	0.214
601.31	0.215
601.76	0.221
602.21	0.219
602.65	0.221
603.10	0.222
603.55	0.225
604.00	0.227
604.45	0.227
604.90	0.229
605.35	0.230
605.80	0.232
606.25	0.234
606.70	0.234
607.15	0.232
607.60	0.234
608.05	0.237
608.50	0.239
608.95	0.241
609.39	0.240
609.84	0.243
610.29	0.243
610.74	0.242
611.19	0.245
611.64	0.249
612.09	0.248
612.54	0.250
612.99	0.247
613.44	0.249
613.88	0.249
614.33	0.251
614.78	0.251
615.23	0.255
615.68	0.252
616.13	0.254
616.58	0.254
617.03	0.255
617.47	0.253
617.92	0.255
618.37	0.258
618.82	0.258
619.27	0.256
619.72	0.258
620.17	0.258
620.61	0.258
621.06	0.258
621.51	0.263
621.96	0.260
622.41	0.261
622.86	0.263
623.30	0.261
623.75	0.263
624.20	0.262
624.65	0.265
625.10	0.265
625.54	0.266
625.99	0.266
626.44	0.270
626.89	0.269
627.34	0.270
627.78	0.271
628.23	0.272
628.68	0.272
629.13	0.271
629.58	0.274
630.02	0.277
630.47	0.278
630.92	0.276
631.37	0.278
631.81	0.280
632.26	0.283
632.71	0.285
633.16	0.285
633.61	0.286
634.05	0.290
634.50	0.291
634.95	0.293
635.40	0.295
635.84	0.295
636.29	0.297
636.74	0.297
637.18	0.301
637.63	0.301
638.08	0.302
638.53	0.307
638.97	0.308
639.42	0.310
639.87	0.313
640.32	0.315
640.76	0.319
641.21	0.316
641.66	0.322
642.10	0.325
642.55	0.327
643.00	0.326
643.44	0.332
643.89	0.333
644.34	0.337
644.79	0.340
645.23	0.341
645.68	0.346
646.13	0.346
646.57	0.349
647.02	0.351
647.47	0.356
647.91	0.357
648.36	0.360
648.81	0.361
649.25	0.362
649.70	0.364
650.15	0.365
650.59	0.372
651.04	0.373
651.48	0.371
651.93	0.374
652.38	0.376
652.82	0.378
653.27	0.380
653.72	0.384
654.16	0.385
654.61	0.388
655.06	0.388
655.50	0.389
655.95	0.389
656.39	0.395
656.84	0.398
657.29	0.398
657.73	0.395
658.18	0.401
658.62	0.403
659.07	0.402
659.52	0.402
659.96	0.404
660.41	0.403
660.85	0.406
661.30	0.405
661.74	0.407
662.19	0.406
662.64	0.406
663.08	0.409
663.53	0.408
663.97	0.409
664.42	0.411
664.86	0.406
665.31	0.411
665.75	0.406
666.20	0.405
666.65	0.408
667.09	0.404
667.54	0.404
667.98	0.401
668.43	0.399
668.87	0.399
669.32	0.395
669.76	0.394
670.21	0.389
670.65	0.387
671.10	0.382
671.54	0.380
671.99	0.375
672.43	0.370
672.88	0.368
673.32	0.364
673.77	0.358
674.21	0.352
674.66	0.347
675.10	0.344
675.55	0.338
675.99	0.331
676.44	0.326
676.88	0.320
677.33	0.315
677.77	0.307
678.22	0.301
678.66	0.298
679.11	0.293
679.55	0.280
679.99	0.277
680.44	0.271
680.88	0.265
681.33	0.260
681.77	0.250
682.22	0.244
682.66	0.240
683.11	0.235
683.55	0.226
683.99	0.221
684.44	0.215
684.88	0.215
685.33	0.205
685.77	0.198
686.21	0.196
686.66	0.190
687.10	0.186
687.55	0.180
687.99	0.176
688.44	0.171
688.88	0.168
689.32	0.164
689.77	0.160
690.21	0.156
690.65	0.153
691.10	0.148
691.54	0.142
691.99	0.141
692.43	0.139
692.87	0.135
693.32	0.133
693.76	0.128
694.20	0.130
694.65	0.125
695.09	0.123
695.53	0.120
695.98	0.121
696.42	0.114
696.86	0.110
697.31	0.111
697.75	0.111
698.19	0.106
698.64	0.107
699.08	0.108
699.52	0.105
699.97	0.102
700.41	0.103
700.85	0.101
701.30	0.099
701.74	0.095
702.18	0.098
702.63	0.096
703.07	0.094
703.51	0.095
703.96	0.093
704.40	0.091
704.84	0.091
705.28	0.093
705.73	0.090
706.17	0.089
706.61	0.089
707.06	0.088
707.50	0.086
707.94	0.084
708.38	0.087
708.83	0.086
709.27	0.086
709.71	0.086
710.15	0.087
710.60	0.086
711.04	0.086
711.48	0.084
711.92	0.084
712.37	0.081
712.81	0.082
713.25	0.080
713.69	0.084
714.13	0.078
714.58	0.081
715.02	0.082
715.46	0.079
715.90	0.081
716.35	0.083
716.79	0.079
717.23	0.082
717.67	0.083
718.11	0.082
718.56	0.081
719.00	0.078
719.44	0.082
719.88	0.080
720.32	0.081
720.76	0.078
721.21	0.080
721.65	0.081
722.09	0.081
722.53	0.081
722.97	0.081
723.41	0.081
723.86	0.082
724.30	0.083
724.74	0.080
725.18	0.081
725.62	0.084
726.06	0.083
726.50	0.083
726.95	0.079
727.39	0.081
727.83	0.077
728.27	0.078
728.71	0.080
729.15	0.083
729.59	0.080
730.03	0.081
730.48	0.083
730.92	0.078
731.36	0.081
731.80	0.080
732.24	0.082
732.68	0.082
733.12	0.083
733.56	0.082
734.00	0.082
734.44	0.082
734.89	0.082
735.33	0.083
735.77	0.082
736.21	0.083
736.65	0.083
737.09	0.081
737.53	0.086
737.97	0.083
738.41	0.082
738.85	0.086
739.29	0.082
739.73	0.080
740.17	0.084
740.61	0.081
741.05	0.083
741.49	0.082
741.93	0.082
742.37	0.085
742.81	0.083
743.26	0.083
743.70	0.082
744.14	0.084
744.58	0.084
745.02	0.083
745.46	0.083
745.90	0.084
746.34	0.081
746.78	0.082
747.22	0.080
747.66	0.082
748.10	0.082
748.54	0.082
748.98	0.081
749.42	0.084
749.86	0.082
750.29	0.084
750.73	0.085
751.17	0.081
751.61	0.081
752.05	0.083
752.49	0.083
752.93	0.080
753.37	0.083
753.81	0.082
754.25	0.079
754.69	0.083
755.13	0.079
755.57	0.082
756.01	0.081
756.45	0.081
756.89	0.083
757.33	0.082
757.77	0.079
758.21	0.083
758.64	0.080
759.08	0.079
759.52	0.080
759.96	0.079
760.40	0.079
760.84	0.081
761.28	0.080
761.72	0.081
762.16	0.079
762.60	0.080
763.03	0.081
763.47	0.079
763.91	0.081
764.35	0.080
764.79	0.081
765.23	0.079
765.67	0.080
766.11	0.079
766.54	0.080
766.98	0.081
767.42	0.080
767.86	0.078
768.30	0.077
768.74	0.079
769.17	0.077
769.61	0.080
770.05	0.081
770.49	0.078
770.93	0.082
771.37	0.082
771.80	0.079
772.24	0.082
772.68	0.081
773.12	0.080
773.56	0.078
774.00	0.078
774.43	0.083
774.87	0.080
775.31	0.080
775.75	0.081
776.19	0.080
776.62	0.080
777.06	0.077
777.50	0.078
777.94	0.083
778.37	0.078
778.81	0.079
779.25	0.082
779.69	0.079
780.13	0.075
780.56	0.082
781.00	0.083
781.44	0.078
781.88	0.079
782.31	0.083
782.75	0.082
783.19	0.081
783.63	0.081
784.06	0.079
784.50	0.082
784.94	0.078
785.37	0.078
785.81	0.081
786.25	0.078
786.69	0.080
787.12	0.081
787.56	0.079
788.00	0.079
788.43	0.079
788.87	0.078
789.31	0.081
789.75	0.079
790.18	0.082
790.62	0.078
791.06	0.076
791.49	0.076
791.93	0.083
792.37	0.079
792.80	0.081
793.24	0.081
793.68	0.077
794.11	0.076
794.55	0.080
794.99	0.081
795.42	0.078
795.86	0.081
796.30	0.080
796.73	0.080
797.17	0.076
797.61	0.078
798.04	0.078
798.48	0.077
798.91	0.080
799.35	0.079
799.79	0.076
800.22	0.075
800.66	0.077
801.10	0.080
801.53	0.082
801.97	0.077
802.40	0.077
802.84	0.079
803.28	0.077
803.71	0.079
804.15	0.077
804.58	0.077
805.02	0.074
805.46	0.075
805.89	0.079
806.33	0.075
806.76	0.078
807.20	0.072
807.63	0.079
808.07	0.073
808.51	0.073
808.94	0.076
809.38	0.078
809.81	0.074
810.25	0.078
810.68	0.078
811.12	0.079
811.55	0.077
811.99	0.079
812.42	0.076
812.86	0.078
813.29	0.080
813.73	0.074
814.17	0.079
814.60	0.077
815.04	0.076
815.47	0.076
815.91	0.074
816.34	0.078
816.78	0.074
817.21	0.076
817.65	0.076
818.08	0.075
