SpectraSuite Data File
++++++++++++++++++++++++++++++++++++
Date: Tue Mar 29 11:00:33 CEST 2016
User: IPCE
Dark Spectrum Present: Yes
Reference Spectrum Present: Yes
Number of Sampled Component Spectra: 1
Spectrometers: HR+C0708
Integration Time (usec): 1000 (HR+C0708)
Spectra Averaged: 10 (HR+C0708)
Boxcar Smoothing: 0 (HR+C0708)
Correct for Electrical Dark: No (HR+C0708)
Strobe/Lamp Enabled: No (HR+C0708)
Correct for Detector Non-linearity: No (HR+C0708)
Correct for Stray Light: No (HR+C0708)
Number of Pixels in Processed Spectrum: 2048
>>>>>Begin Processed Spectral Data<<<<<
188.76	1.103
189.23	0.125
189.70	-0.000
190.17	1.519
190.64	0.427
191.12	-0.024
191.59	0.538
192.06	0.105
192.53	1.442
193.01	0.735
193.48	-0.000
193.95	-0.000
194.42	0.512
194.90	1.630
195.37	-0.000
195.84	0.161
196.31	0.721
196.78	-0.000
197.26	0.458
197.73	1.502
198.20	0.294
198.67	0.643
199.14	0.435
199.62	-0.000
200.09	0.655
200.56	0.280
201.03	0.255
201.50	0.291
201.97	0.395
202.45	0.230
202.92	0.360
203.39	0.183
203.86	0.407
204.33	0.346
204.80	0.376
205.28	0.233
205.75	0.354
206.22	0.301
206.69	0.222
207.16	0.377
207.63	0.216
208.11	0.256
208.58	0.241
209.05	0.359
209.52	0.332
209.99	0.377
210.46	0.422
210.93	0.357
211.41	0.267
211.88	0.323
212.35	0.394
212.82	0.371
213.29	0.316
213.76	0.418
214.23	0.497
214.70	0.623
215.18	0.453
215.65	0.518
216.12	0.503
216.59	0.520
217.06	0.463
217.53	0.498
218.00	0.531
218.47	0.710
218.94	0.573
219.41	0.650
219.89	0.704
220.36	0.706
220.83	0.645
221.30	0.722
221.77	0.754
222.24	0.778
222.71	0.752
223.18	0.965
223.65	0.983
224.12	1.004
224.59	0.955
225.06	0.955
225.54	1.088
226.01	1.051
226.48	1.169
226.95	1.134
227.42	1.370
227.89	1.326
228.36	1.200
228.83	1.425
229.30	1.418
229.77	1.535
230.24	1.476
230.71	1.623
231.18	1.680
231.65	1.661
232.12	1.537
232.59	1.657
233.06	1.671
233.53	1.723
234.00	1.783
234.47	1.770
234.94	1.768
235.41	1.804
235.88	1.805
236.35	2.005
236.82	2.007
237.29	1.933
237.76	2.039
238.23	2.147
238.70	2.040
239.17	2.059
239.64	2.093
240.11	2.033
240.58	2.059
241.05	2.147
241.52	2.020
241.99	2.073
242.46	2.110
242.93	2.204
243.40	2.174
243.87	2.121
244.34	2.243
244.81	2.054
245.28	2.245
245.75	2.121
246.22	2.198
246.69	2.189
247.16	2.291
247.63	2.241
248.10	2.177
248.57	2.119
249.04	2.324
249.51	2.199
249.98	2.276
250.45	2.153
250.92	2.235
251.39	2.109
251.85	2.063
252.32	2.070
252.79	1.971
253.26	1.968
253.73	1.920
254.20	1.850
254.67	1.764
255.14	1.678
255.61	1.591
256.08	1.523
256.55	1.457
257.02	1.370
257.49	1.326
257.95	1.254
258.42	1.215
258.89	1.170
259.36	1.126
259.83	1.083
260.30	1.051
260.77	1.010
261.24	0.984
261.71	0.944
262.17	0.921
262.64	0.891
263.11	0.859
263.58	0.836
264.05	0.811
264.52	0.786
264.99	0.763
265.46	0.743
265.92	0.718
266.39	0.697
266.86	0.676
267.33	0.656
267.80	0.638
268.27	0.621
268.74	0.605
269.20	0.585
269.67	0.572
270.14	0.552
270.61	0.537
271.08	0.524
271.55	0.510
272.01	0.495
272.48	0.485
272.95	0.468
273.42	0.456
273.89	0.446
274.36	0.433
274.82	0.424
275.29	0.410
275.76	0.399
276.23	0.389
276.70	0.383
277.16	0.369
277.63	0.359
278.10	0.352
278.57	0.344
279.04	0.333
279.50	0.328
279.97	0.319
280.44	0.315
280.91	0.308
281.38	0.300
281.84	0.295
282.31	0.284
282.78	0.279
283.25	0.274
283.72	0.272
284.18	0.266
284.65	0.257
285.12	0.256
285.59	0.250
286.05	0.245
286.52	0.238
286.99	0.236
287.46	0.229
287.92	0.224
288.39	0.220
288.86	0.217
289.33	0.209
289.79	0.206
290.26	0.204
290.73	0.198
291.20	0.192
291.66	0.191
292.13	0.187
292.60	0.184
293.07	0.180
293.53	0.175
294.00	0.171
294.47	0.171
294.93	0.164
295.40	0.160
295.87	0.155
296.34	0.154
296.80	0.151
297.27	0.147
297.74	0.146
298.20	0.139
298.67	0.137
299.14	0.134
299.60	0.132
300.07	0.129
300.54	0.125
301.01	0.122
301.47	0.123
301.94	0.118
302.41	0.117
302.87	0.114
303.34	0.112
303.81	0.110
304.27	0.107
304.74	0.105
305.21	0.103
305.67	0.099
306.14	0.098
306.61	0.093
307.07	0.093
307.54	0.091
308.01	0.090
308.47	0.086
308.94	0.085
309.40	0.084
309.87	0.082
310.34	0.078
310.80	0.077
311.27	0.076
311.74	0.076
312.20	0.074
312.67	0.071
313.13	0.070
313.60	0.067
314.07	0.067
314.53	0.066
315.00	0.066
315.47	0.067
315.93	0.062
316.40	0.061
316.86	0.063
317.33	0.061
317.80	0.060
318.26	0.061
318.73	0.059
319.19	0.057
319.66	0.055
320.13	0.055
320.59	0.054
321.06	0.055
321.52	0.054
321.99	0.054
322.45	0.056
322.92	0.052
323.39	0.054
323.85	0.053
324.32	0.052
324.78	0.053
325.25	0.051
325.71	0.053
326.18	0.052
326.64	0.053
327.11	0.052
327.58	0.050
328.04	0.054
328.51	0.049
328.97	0.048
329.44	0.050
329.90	0.048
330.37	0.047
330.83	0.047
331.30	0.047
331.76	0.049
332.23	0.048
332.69	0.049
333.16	0.045
333.62	0.047
334.09	0.047
334.56	0.046
335.02	0.046
335.49	0.048
335.95	0.046
336.42	0.045
336.88	0.044
337.35	0.045
337.81	0.044
338.28	0.044
338.74	0.042
339.20	0.042
339.67	0.039
340.13	0.042
340.60	0.042
341.06	0.041
341.53	0.039
341.99	0.042
342.46	0.041
342.92	0.042
343.39	0.040
343.85	0.043
344.32	0.041
344.78	0.039
345.25	0.038
345.71	0.042
346.17	0.042
346.64	0.040
347.10	0.038
347.57	0.037
348.03	0.038
348.50	0.035
348.96	0.037
349.43	0.037
349.89	0.037
350.35	0.037
350.82	0.039
351.28	0.037
351.75	0.038
352.21	0.032
352.67	0.039
353.14	0.037
353.60	0.039
354.07	0.042
354.53	0.035
355.00	0.036
355.46	0.034
355.92	0.035
356.39	0.035
356.85	0.039
357.31	0.033
357.78	0.035
358.24	0.034
358.71	0.033
359.17	0.033
359.63	0.029
360.10	0.033
360.56	0.029
361.03	0.035
361.49	0.032
361.95	0.032
362.42	0.032
362.88	0.028
363.34	0.029
363.81	0.029
364.27	0.029
364.73	0.027
365.20	0.030
365.66	0.028
366.12	0.026
366.59	0.028
367.05	0.027
367.51	0.027
367.98	0.023
368.44	0.025
368.90	0.023
369.37	0.026
369.83	0.025
370.29	0.023
370.76	0.022
371.22	0.023
371.68	0.025
372.15	0.021
372.61	0.023
373.07	0.024
373.54	0.023
374.00	0.024
374.46	0.020
374.92	0.020
375.39	0.021
375.85	0.022
376.31	0.019
376.78	0.021
377.24	0.020
377.70	0.019
378.16	0.021
378.63	0.021
379.09	0.023
379.55	0.020
380.01	0.021
380.48	0.019
380.94	0.019
381.40	0.019
381.87	0.019
382.33	0.018
382.79	0.017
383.25	0.019
383.72	0.020
384.18	0.019
384.64	0.019
385.10	0.016
385.56	0.017
386.03	0.020
386.49	0.018
386.95	0.015
387.41	0.019
387.88	0.018
388.34	0.018
388.80	0.018
389.26	0.016
389.72	0.018
390.19	0.016
390.65	0.015
391.11	0.019
391.57	0.017
392.04	0.019
392.50	0.018
392.96	0.018
393.42	0.015
393.88	0.017
394.34	0.016
394.81	0.016
395.27	0.017
395.73	0.018
396.19	0.017
396.65	0.017
397.12	0.015
397.58	0.018
398.04	0.015
398.50	0.019
398.96	0.014
399.42	0.018
399.89	0.017
400.35	0.018
400.81	0.018
401.27	0.016
401.73	0.018
402.19	0.016
402.65	0.017
403.12	0.018
403.58	0.017
404.04	0.016
404.50	0.016
404.96	0.014
405.42	0.015
405.88	0.016
406.34	0.016
406.81	0.017
407.27	0.015
407.73	0.015
408.19	0.016
408.65	0.014
409.11	0.016
409.57	0.017
410.03	0.014
410.49	0.016
410.96	0.014
411.42	0.018
411.88	0.015
412.34	0.014
412.80	0.018
413.26	0.014
413.72	0.016
414.18	0.015
414.64	0.016
415.10	0.013
415.56	0.017
416.02	0.015
416.48	0.014
416.95	0.012
417.41	0.013
417.87	0.013
418.33	0.015
418.79	0.014
419.25	0.016
419.71	0.015
420.17	0.013
420.63	0.017
421.09	0.016
421.55	0.014
422.01	0.012
422.47	0.015
422.93	0.015
423.39	0.015
423.85	0.015
424.31	0.016
424.77	0.014
425.23	0.015
425.69	0.017
426.15	0.015
426.61	0.013
427.07	0.016
427.53	0.012
427.99	0.012
428.45	0.014
428.91	0.016
429.37	0.017
429.83	0.016
430.29	0.015
430.75	0.014
431.21	0.015
431.67	0.015
432.13	0.016
432.59	0.017
433.05	0.014
433.51	0.015
433.97	0.015
434.43	0.014
434.89	0.016
435.35	0.015
435.81	0.015
436.27	0.014
436.73	0.015
437.19	0.016
437.65	0.014
438.11	0.014
438.57	0.014
439.03	0.019
439.48	0.013
439.94	0.015
440.40	0.016
440.86	0.016
441.32	0.014
441.78	0.016
442.24	0.014
442.70	0.013
443.16	0.012
443.62	0.016
444.08	0.017
444.54	0.014
444.99	0.014
445.45	0.014
445.91	0.014
446.37	0.015
446.83	0.016
447.29	0.014
447.75	0.017
448.21	0.014
448.67	0.016
449.12	0.014
449.58	0.016
450.04	0.015
450.50	0.014
450.96	0.015
451.42	0.015
451.88	0.019
452.34	0.012
452.79	0.016
453.25	0.015
453.71	0.014
454.17	0.013
454.63	0.014
455.09	0.015
455.55	0.016
456.00	0.013
456.46	0.015
456.92	0.017
457.38	0.015
457.84	0.014
458.30	0.016
458.75	0.013
459.21	0.015
459.67	0.014
460.13	0.015
460.59	0.014
461.04	0.014
461.50	0.016
461.96	0.013
462.42	0.015
462.88	0.014
463.33	0.013
463.79	0.014
464.25	0.012
464.71	0.012
465.17	0.013
465.62	0.013
466.08	0.013
466.54	0.014
467.00	0.013
467.46	0.012
467.91	0.011
468.37	0.015
468.83	0.013
469.29	0.012
469.74	0.014
470.20	0.014
470.66	0.012
471.12	0.013
471.57	0.015
472.03	0.014
472.49	0.014
472.95	0.014
473.40	0.013
473.86	0.012
474.32	0.015
474.78	0.014
475.23	0.014
475.69	0.013
476.15	0.014
476.60	0.013
477.06	0.013
477.52	0.015
477.98	0.012
478.43	0.014
478.89	0.014
479.35	0.015
479.80	0.012
480.26	0.009
480.72	0.011
481.18	0.013
481.63	0.010
482.09	0.012
482.55	0.013
483.00	0.012
483.46	0.014
483.92	0.012
484.37	0.013
484.83	0.013
485.29	0.011
485.74	0.013
486.20	0.011
486.66	0.013
487.11	0.011
487.57	0.011
488.03	0.013
488.48	0.011
488.94	0.010
489.40	0.014
489.85	0.015
490.31	0.011
490.77	0.011
491.22	0.013
491.68	0.013
492.13	0.013
492.59	0.012
493.05	0.013
493.50	0.010
493.96	0.010
494.42	0.010
494.87	0.010
495.33	0.012
495.78	0.011
496.24	0.011
496.70	0.012
497.15	0.013
497.61	0.012
498.06	0.012
498.52	0.012
498.98	0.012
499.43	0.011
499.89	0.010
500.34	0.013
500.80	0.010
501.25	0.011
501.71	0.011
502.17	0.010
502.62	0.010
503.08	0.012
503.53	0.011
503.99	0.011
504.44	0.011
504.90	0.012
505.36	0.011
505.81	0.009
506.27	0.010
506.72	0.011
507.18	0.010
507.63	0.010
508.09	0.009
508.54	0.010
509.00	0.011
509.45	0.012
509.91	0.011
510.36	0.011
510.82	0.012
511.27	0.010
511.73	0.011
512.19	0.011
512.64	0.010
513.10	0.011
513.55	0.011
514.01	0.012
514.46	0.009
514.92	0.011
515.37	0.009
515.83	0.011
516.28	0.011
516.73	0.010
517.19	0.014
517.64	0.010
518.10	0.010
518.55	0.010
519.01	0.012
519.46	0.010
519.92	0.011
520.37	0.009
520.83	0.012
521.28	0.010
521.74	0.011
522.19	0.009
522.65	0.010
523.10	0.009
523.55	0.009
524.01	0.009
524.46	0.012
524.92	0.008
525.37	0.010
525.83	0.011
526.28	0.010
526.73	0.010
527.19	0.010
527.64	0.009
528.10	0.011
528.55	0.010
529.01	0.011
529.46	0.012
529.91	0.008
530.37	0.009
530.82	0.010
531.28	0.009
531.73	0.010
532.18	0.011
532.64	0.010
533.09	0.010
533.54	0.010
534.00	0.010
534.45	0.009
534.91	0.010
535.36	0.009
535.81	0.011
536.27	0.009
536.72	0.010
537.17	0.011
537.63	0.010
538.08	0.011
538.54	0.010
538.99	0.009
539.44	0.010
539.90	0.008
540.35	0.011
540.80	0.011
541.26	0.009
541.71	0.009
542.16	0.009
542.62	0.010
543.07	0.010
543.52	0.009
543.98	0.010
544.43	0.012
544.88	0.010
545.34	0.009
545.79	0.009
546.24	0.009
546.69	0.009
547.15	0.011
547.60	0.010
548.05	0.008
548.51	0.008
548.96	0.010
549.41	0.008
549.86	0.012
550.32	0.009
550.77	0.009
551.22	0.009
551.68	0.010
552.13	0.009
552.58	0.007
553.03	0.011
553.49	0.010
553.94	0.009
554.39	0.008
554.84	0.009
555.30	0.009
555.75	0.008
556.20	0.008
556.65	0.009
557.11	0.008
557.56	0.010
558.01	0.009
558.46	0.008
558.92	0.009
559.37	0.010
559.82	0.008
560.27	0.008
560.72	0.008
561.18	0.009
561.63	0.007
562.08	0.009
562.53	0.008
562.99	0.008
563.44	0.008
563.89	0.009
564.34	0.009
564.79	0.008
565.25	0.007
565.70	0.008
566.15	0.008
566.60	0.010
567.05	0.006
567.50	0.009
567.96	0.009
568.41	0.008
568.86	0.008
569.31	0.008
569.76	0.009
570.21	0.009
570.67	0.008
571.12	0.008
571.57	0.009
572.02	0.011
572.47	0.007
572.92	0.006
573.37	0.007
573.83	0.008
574.28	0.008
574.73	0.008
575.18	0.007
575.63	0.007
576.08	0.008
576.53	0.007
576.98	0.007
577.44	0.007
577.89	0.009
578.34	0.008
578.79	0.007
579.24	0.008
579.69	0.008
580.14	0.007
580.59	0.007
581.04	0.008
581.49	0.007
581.95	0.008
582.40	0.006
582.85	0.007
583.30	0.008
583.75	0.008
584.20	0.007
584.65	0.007
585.10	0.007
585.55	0.006
586.00	0.008
586.45	0.008
586.90	0.006
587.35	0.007
587.80	0.008
588.25	0.007
588.71	0.008
589.16	0.007
589.61	0.007
590.06	0.007
590.51	0.007
590.96	0.007
591.41	0.008
591.86	0.009
592.31	0.006
592.76	0.007
593.21	0.006
593.66	0.006
594.11	0.006
594.56	0.008
595.01	0.008
595.46	0.008
595.91	0.006
596.36	0.007
596.81	0.007
597.26	0.008
597.71	0.008
598.16	0.007
598.61	0.007
599.06	0.008
599.51	0.007
599.96	0.008
600.41	0.007
600.86	0.008
601.31	0.007
601.76	0.006
602.21	0.007
602.65	0.008
603.10	0.008
603.55	0.007
604.00	0.007
604.45	0.005
604.90	0.006
605.35	0.007
605.80	0.006
606.25	0.005
606.70	0.006
607.15	0.007
607.60	0.007
608.05	0.006
608.50	0.007
608.95	0.005
609.39	0.006
609.84	0.007
610.29	0.007
610.74	0.008
611.19	0.008
611.64	0.007
612.09	0.004
612.54	0.007
612.99	0.008
613.44	0.006
613.88	0.007
614.33	0.005
614.78	0.007
615.23	0.007
615.68	0.006
616.13	0.007
616.58	0.007
617.03	0.005
617.47	0.006
617.92	0.007
618.37	0.008
618.82	0.009
619.27	0.007
619.72	0.005
620.17	0.007
620.61	0.005
621.06	0.005
621.51	0.006
621.96	0.005
622.41	0.007
622.86	0.007
623.30	0.006
623.75	0.006
624.20	0.004
624.65	0.005
625.10	0.006
625.54	0.007
625.99	0.007
626.44	0.005
626.89	0.007
627.34	0.005
627.78	0.005
628.23	0.005
628.68	0.007
629.13	0.007
629.58	0.007
630.02	0.007
630.47	0.006
630.92	0.007
631.37	0.007
631.81	0.006
632.26	0.005
632.71	0.008
633.16	0.005
633.61	0.007
634.05	0.005
634.50	0.007
634.95	0.006
635.40	0.006
635.84	0.007
636.29	0.007
636.74	0.006
637.18	0.006
637.63	0.004
638.08	0.005
638.53	0.005
638.97	0.007
639.42	0.006
639.87	0.006
640.32	0.006
640.76	0.006
641.21	0.005
641.66	0.005
642.10	0.006
642.55	0.005
643.00	0.007
643.44	0.007
643.89	0.007
644.34	0.006
644.79	0.006
645.23	0.006
645.68	0.006
646.13	0.007
646.57	0.004
647.02	0.005
647.47	0.004
647.91	0.006
648.36	0.005
648.81	0.006
649.25	0.005
649.70	0.007
650.15	0.005
650.59	0.006
651.04	0.006
651.48	0.007
651.93	0.005
652.38	0.006
652.82	0.005
653.27	0.004
653.72	0.006
654.16	0.004
654.61	0.007
655.06	0.004
655.50	0.005
655.95	0.002
656.39	0.003
656.84	0.008
657.29	0.009
657.73	0.007
658.18	0.006
658.62	0.006
659.07	0.005
659.52	0.007
659.96	0.006
660.41	0.005
660.85	0.006
661.30	0.005
661.74	0.006
662.19	0.004
662.64	0.007
663.08	0.006
663.53	0.005
663.97	0.005
664.42	0.006
664.86	0.005
665.31	0.005
665.75	0.006
666.20	0.006
666.65	0.005
667.09	0.005
667.54	0.004
667.98	0.004
668.43	0.005
668.87	0.005
669.32	0.007
669.76	0.005
670.21	0.006
670.65	0.005
671.10	0.006
671.54	0.004
671.99	0.003
672.43	0.003
672.88	0.006
673.32	0.005
673.77	0.005
674.21	0.005
674.66	0.005
675.10	0.005
675.55	0.005
675.99	0.006
676.44	0.006
676.88	0.005
677.33	0.005
677.77	0.008
678.22	0.005
678.66	0.007
679.11	0.005
679.55	0.004
679.99	0.004
680.44	0.004
680.88	0.005
681.33	0.006
681.77	0.005
682.22	0.006
682.66	0.005
683.11	0.004
683.55	0.004
683.99	0.003
684.44	0.005
684.88	0.006
685.33	0.004
685.77	0.007
686.21	0.006
686.66	0.005
687.10	0.004
687.55	0.004
687.99	0.005
688.44	0.007
688.88	0.006
689.32	0.005
689.77	0.004
690.21	0.005
690.65	0.005
691.10	0.006
691.54	0.006
691.99	0.005
692.43	0.006
692.87	0.005
693.32	0.005
693.76	0.004
694.20	0.005
694.65	0.007
695.09	0.005
695.53	0.005
695.98	0.005
696.42	0.005
696.86	0.006
697.31	0.006
697.75	0.007
698.19	0.004
698.64	0.008
699.08	0.005
699.52	0.007
699.97	0.006
700.41	0.003
700.85	0.007
701.30	0.005
701.74	0.006
702.18	0.005
702.63	0.005
703.07	0.004
703.51	0.004
703.96	0.005
704.40	0.006
704.84	0.004
705.28	0.005
705.73	0.006
706.17	0.005
706.61	0.004
707.06	0.004
707.50	0.006
707.94	0.005
708.38	0.004
708.83	0.007
709.27	0.006
709.71	0.006
710.15	0.005
710.60	0.007
711.04	0.007
711.48	0.005
711.92	0.007
712.37	0.008
712.81	0.004
713.25	0.005
713.69	0.007
714.13	0.007
714.58	0.005
715.02	0.009
715.46	0.008
715.90	0.007
716.35	0.008
716.79	0.008
717.23	0.008
717.67	0.009
718.11	0.005
718.56	0.010
719.00	0.010
719.44	0.009
719.88	0.006
720.32	0.009
720.76	0.010
721.21	0.010
721.65	0.009
722.09	0.010
722.53	0.007
722.97	0.008
723.41	0.008
723.86	0.009
724.30	0.010
724.74	0.009
725.18	0.010
725.62	0.009
726.06	0.008
726.50	0.009
726.95	0.009
727.39	0.010
727.83	0.011
728.27	0.010
728.71	0.007
729.15	0.013
729.59	0.011
730.03	0.011
730.48	0.011
730.92	0.008
731.36	0.011
731.80	0.013
732.24	0.014
732.68	0.012
733.12	0.009
733.56	0.009
734.00	0.013
734.44	0.014
734.89	0.012
735.33	0.011
735.77	0.012
736.21	0.012
736.65	0.014
737.09	0.015
737.53	0.015
737.97	0.013
738.41	0.015
738.85	0.013
739.29	0.012
739.73	0.012
740.17	0.013
740.61	0.014
741.05	0.016
741.49	0.012
741.93	0.016
742.37	0.014
742.81	0.013
743.26	0.014
743.70	0.014
744.14	0.014
744.58	0.013
745.02	0.015
745.46	0.016
745.90	0.016
746.34	0.014
746.78	0.015
747.22	0.013
747.66	0.015
748.10	0.014
748.54	0.015
748.98	0.012
749.42	0.017
749.86	0.016
750.29	0.014
750.73	0.016
751.17	0.015
751.61	0.014
752.05	0.017
752.49	0.016
752.93	0.014
753.37	0.014
753.81	0.015
754.25	0.015
754.69	0.014
755.13	0.015
755.57	0.013
756.01	0.014
756.45	0.016
756.89	0.014
757.33	0.015
757.77	0.014
758.21	0.015
758.64	0.013
759.08	0.017
759.52	0.016
759.96	0.015
760.40	0.014
760.84	0.015
761.28	0.013
761.72	0.014
762.16	0.015
762.60	0.016
763.03	0.015
763.47	0.016
763.91	0.016
764.35	0.014
764.79	0.013
765.23	0.012
765.67	0.014
766.11	0.015
766.54	0.018
766.98	0.015
767.42	0.014
767.86	0.016
768.30	0.016
768.74	0.013
769.17	0.017
769.61	0.016
770.05	0.012
770.49	0.014
770.93	0.013
771.37	0.014
771.80	0.015
772.24	0.011
772.68	0.014
773.12	0.014
773.56	0.013
774.00	0.009
774.43	0.013
774.87	0.012
775.31	0.016
775.75	0.014
776.19	0.016
776.62	0.012
777.06	0.012
777.50	0.014
777.94	0.013
778.37	0.014
778.81	0.012
779.25	0.014
779.69	0.011
780.13	0.016
780.56	0.013
781.00	0.016
781.44	0.015
781.88	0.015
782.31	0.015
782.75	0.017
783.19	0.013
783.63	0.015
784.06	0.015
784.50	0.011
784.94	0.013
785.37	0.014
785.81	0.012
786.25	0.011
786.69	0.013
787.12	0.012
787.56	0.009
788.00	0.010
788.43	0.011
788.87	0.017
789.31	0.013
789.75	0.015
790.18	0.012
790.62	0.012
791.06	0.009
791.49	0.014
791.93	0.011
792.37	0.013
792.80	0.012
793.24	0.011
793.68	0.009
794.11	0.011
794.55	0.013
794.99	0.015
795.42	0.014
795.86	0.012
796.30	0.013
796.73	0.010
797.17	0.013
797.61	0.013
798.04	0.013
798.48	0.012
798.91	0.012
799.35	0.012
799.79	0.011
800.22	0.015
800.66	0.016
801.10	0.016
801.53	0.011
801.97	0.014
802.40	0.012
802.84	0.013
803.28	0.013
803.71	0.014
804.15	0.010
804.58	0.014
805.02	0.011
805.46	0.015
805.89	0.013
806.33	0.012
806.76	0.015
807.20	0.015
807.63	0.009
808.07	0.013
808.51	0.014
808.94	0.010
809.38	0.014
809.81	0.013
810.25	0.015
810.68	0.019
811.12	0.015
811.55	0.013
811.99	0.009
812.42	0.012
812.86	0.012
813.29	0.012
813.73	0.015
814.17	0.015
814.60	0.013
815.04	0.010
815.47	0.014
815.91	0.011
816.34	0.012
816.78	0.014
817.21	0.013
817.65	0.010
818.08	0.014
