SpectraSuite Data File
++++++++++++++++++++++++++++++++++++
Date: Wed May 04 16:52:23 CEST 2016
User: spectrasuite
Dark Spectrum Present: Yes
Reference Spectrum Present: Yes
Number of Sampled Component Spectra: 1
Spectrometers: HR+C0708
Integration Time (usec): 1000 (HR+C0708)
Spectra Averaged: 10 (HR+C0708)
Boxcar Smoothing: 0 (HR+C0708)
Correct for Electrical Dark: No (HR+C0708)
Strobe/Lamp Enabled: No (HR+C0708)
Correct for Detector Non-linearity: No (HR+C0708)
Correct for Stray Light: No (HR+C0708)
Number of Pixels in Processed Spectrum: 2048
>>>>>Begin Processed Spectral Data<<<<<
188.76	-0.000
189.23	-0.000
189.70	-0.000
190.17	-0.000
190.64	-0.000
191.12	-0.000
191.59	-0.000
192.06	-0.000
192.53	-0.000
193.01	-0.000
193.48	-0.000
193.95	-0.000
194.42	-0.000
194.90	-0.000
195.37	-0.000
195.84	-0.000
196.31	-0.000
196.78	-0.000
197.26	-0.000
197.73	-0.000
198.20	-0.000
198.67	-0.000
199.14	-0.000
199.62	-0.000
200.09	-0.000
200.56	-0.000
201.03	-0.000
201.50	-0.000
201.97	-0.000
202.45	-0.000
202.92	-0.000
203.39	-0.000
203.86	-0.000
204.33	-0.000
204.80	-0.000
205.28	-0.000
205.75	-0.000
206.22	-0.000
206.69	-0.000
207.16	-0.000
207.63	-0.000
208.11	-0.000
208.58	-0.000
209.05	-0.000
209.52	-0.000
209.99	-0.000
210.46	-0.000
210.93	-0.000
211.41	-0.000
211.88	-0.000
212.35	-0.000
212.82	-0.000
213.29	-0.000
213.76	-0.000
214.23	-0.000
214.70	-0.000
215.18	-0.000
215.65	-0.000
216.12	-0.000
216.59	-0.000
217.06	0.961
217.53	-0.000
218.00	-0.000
218.47	-0.000
218.94	-0.000
219.41	1.930
219.89	-0.000
220.36	1.259
220.83	-0.000
221.30	-0.000
221.77	-0.000
222.24	-0.000
222.71	-0.000
223.18	-0.000
223.65	1.021
224.12	-0.000
224.59	-0.000
225.06	-0.000
225.54	1.853
226.01	-0.000
226.48	-0.000
226.95	-0.000
227.42	-0.000
227.89	-0.000
228.36	-0.000
228.83	-0.000
229.30	-0.000
229.77	-0.000
230.24	-0.000
230.71	2.516
231.18	-0.000
231.65	-0.000
232.12	-0.000
232.59	-0.000
233.06	-0.000
233.53	-0.000
234.00	2.357
234.47	-0.000
234.94	-0.000
235.41	2.314
235.88	2.248
236.35	-0.000
236.82	-0.000
237.29	-0.000
237.76	2.834
238.23	-0.000
238.70	-0.000
239.17	3.238
239.64	-0.000
240.11	-0.000
240.58	2.575
241.05	-0.000
241.52	-0.000
241.99	2.719
242.46	-0.000
242.93	2.721
243.40	-0.000
243.87	-0.000
244.34	2.819
244.81	-0.000
245.28	-0.000
245.75	4.161
246.22	3.447
246.69	-0.000
247.16	2.699
247.63	3.184
248.10	3.834
248.57	-0.000
249.04	2.877
249.51	2.836
249.98	-0.000
250.45	-0.000
250.92	3.101
251.39	3.096
251.85	2.779
252.32	2.281
252.79	2.162
253.26	1.955
253.73	1.831
254.20	1.734
254.67	1.609
255.14	1.564
255.61	1.472
256.08	1.395
256.55	1.328
257.02	1.291
257.49	1.222
257.95	1.180
258.42	1.141
258.89	1.109
259.36	1.077
259.83	1.049
260.30	1.023
260.77	0.997
261.24	0.969
261.71	0.948
262.17	0.933
262.64	0.914
263.11	0.893
263.58	0.881
264.05	0.865
264.52	0.844
264.99	0.827
265.46	0.822
265.92	0.803
266.39	0.788
266.86	0.781
267.33	0.769
267.80	0.760
268.27	0.745
268.74	0.741
269.20	0.726
269.67	0.721
270.14	0.708
270.61	0.702
271.08	0.691
271.55	0.683
272.01	0.681
272.48	0.671
272.95	0.662
273.42	0.658
273.89	0.652
274.36	0.641
274.82	0.638
275.29	0.633
275.76	0.628
276.23	0.621
276.70	0.615
277.16	0.614
277.63	0.612
278.10	0.608
278.57	0.602
279.04	0.596
279.50	0.595
279.97	0.593
280.44	0.585
280.91	0.585
281.38	0.582
281.84	0.580
282.31	0.579
282.78	0.579
283.25	0.574
283.72	0.572
284.18	0.570
284.65	0.572
285.12	0.569
285.59	0.569
286.05	0.570
286.52	0.565
286.99	0.567
287.46	0.566
287.92	0.563
288.39	0.561
288.86	0.560
289.33	0.563
289.79	0.560
290.26	0.559
290.73	0.556
291.20	0.554
291.66	0.549
292.13	0.550
292.60	0.545
293.07	0.539
293.53	0.534
294.00	0.533
294.47	0.526
294.93	0.520
295.40	0.514
295.87	0.513
296.34	0.504
296.80	0.499
297.27	0.485
297.74	0.480
298.20	0.476
298.67	0.468
299.14	0.460
299.60	0.454
300.07	0.442
300.54	0.440
301.01	0.430
301.47	0.425
301.94	0.418
302.41	0.411
302.87	0.404
303.34	0.397
303.81	0.390
304.27	0.384
304.74	0.376
305.21	0.370
305.67	0.369
306.14	0.360
306.61	0.354
307.07	0.348
307.54	0.343
308.01	0.339
308.47	0.333
308.94	0.330
309.40	0.330
309.87	0.324
310.34	0.320
310.80	0.318
311.27	0.312
311.74	0.310
312.20	0.308
312.67	0.307
313.13	0.300
313.60	0.299
314.07	0.296
314.53	0.293
315.00	0.290
315.47	0.290
315.93	0.291
316.40	0.286
316.86	0.282
317.33	0.279
317.80	0.282
318.26	0.278
318.73	0.279
319.19	0.278
319.66	0.274
320.13	0.272
320.59	0.270
321.06	0.271
321.52	0.268
321.99	0.269
322.45	0.264
322.92	0.264
323.39	0.263
323.85	0.260
324.32	0.261
324.78	0.259
325.25	0.256
325.71	0.256
326.18	0.254
326.64	0.253
327.11	0.249
327.58	0.248
328.04	0.251
328.51	0.245
328.97	0.246
329.44	0.243
329.90	0.240
330.37	0.238
330.83	0.236
331.30	0.238
331.76	0.235
332.23	0.235
332.69	0.231
333.16	0.232
333.62	0.227
334.09	0.225
334.56	0.224
335.02	0.222
335.49	0.221
335.95	0.217
336.42	0.216
336.88	0.214
337.35	0.211
337.81	0.210
338.28	0.211
338.74	0.211
339.20	0.213
339.67	0.211
340.13	0.211
340.60	0.207
341.06	0.203
341.53	0.199
341.99	0.200
342.46	0.198
342.92	0.199
343.39	0.198
343.85	0.192
344.32	0.194
344.78	0.193
345.25	0.196
345.71	0.193
346.17	0.196
346.64	0.197
347.10	0.191
347.57	0.189
348.03	0.186
348.50	0.187
348.96	0.188
349.43	0.187
349.89	0.190
350.35	0.187
350.82	0.185
351.28	0.186
351.75	0.181
352.21	0.189
352.67	0.182
353.14	0.186
353.60	0.179
354.07	0.177
354.53	0.180
355.00	0.179
355.46	0.176
355.92	0.172
356.39	0.175
356.85	0.170
357.31	0.168
357.78	0.168
358.24	0.169
358.71	0.170
359.17	0.170
359.63	0.166
360.10	0.165
360.56	0.167
361.03	0.165
361.49	0.165
361.95	0.162
362.42	0.166
362.88	0.167
363.34	0.166
363.81	0.162
364.27	0.164
364.73	0.165
365.20	0.162
365.66	0.159
366.12	0.162
366.59	0.163
367.05	0.162
367.51	0.161
367.98	0.161
368.44	0.158
368.90	0.159
369.37	0.158
369.83	0.160
370.29	0.156
370.76	0.157
371.22	0.157
371.68	0.154
372.15	0.155
372.61	0.154
373.07	0.156
373.54	0.153
374.00	0.154
374.46	0.153
374.92	0.153
375.39	0.153
375.85	0.155
376.31	0.156
376.78	0.152
377.24	0.152
377.70	0.153
378.16	0.152
378.63	0.152
379.09	0.153
379.55	0.152
380.01	0.153
380.48	0.156
380.94	0.152
381.40	0.153
381.87	0.154
382.33	0.149
382.79	0.148
383.25	0.152
383.72	0.150
384.18	0.149
384.64	0.152
385.10	0.150
385.56	0.148
386.03	0.151
386.49	0.149
386.95	0.150
387.41	0.148
387.88	0.146
388.34	0.142
388.80	0.146
389.26	0.149
389.72	0.149
390.19	0.145
390.65	0.143
391.11	0.145
391.57	0.147
392.04	0.144
392.50	0.143
392.96	0.144
393.42	0.144
393.88	0.148
394.34	0.142
394.81	0.146
395.27	0.145
395.73	0.141
396.19	0.141
396.65	0.143
397.12	0.139
397.58	0.140
398.04	0.140
398.50	0.141
398.96	0.142
399.42	0.144
399.89	0.144
400.35	0.142
400.81	0.140
401.27	0.143
401.73	0.141
402.19	0.141
402.65	0.138
403.12	0.139
403.58	0.139
404.04	0.133
404.50	0.136
404.96	0.136
405.42	0.137
405.88	0.138
406.34	0.138
406.81	0.139
407.27	0.134
407.73	0.131
408.19	0.134
408.65	0.134
409.11	0.134
409.57	0.133
410.03	0.137
410.49	0.134
410.96	0.134
411.42	0.136
411.88	0.131
412.34	0.129
412.80	0.131
413.26	0.131
413.72	0.132
414.18	0.130
414.64	0.131
415.10	0.133
415.56	0.133
416.02	0.131
416.48	0.128
416.95	0.132
417.41	0.128
417.87	0.130
418.33	0.130
418.79	0.128
419.25	0.130
419.71	0.128
420.17	0.126
420.63	0.124
421.09	0.124
421.55	0.127
422.01	0.131
422.47	0.133
422.93	0.131
423.39	0.128
423.85	0.127
424.31	0.128
424.77	0.127
425.23	0.127
425.69	0.131
426.15	0.131
426.61	0.130
427.07	0.124
427.53	0.127
427.99	0.126
428.45	0.129
428.91	0.125
429.37	0.122
429.83	0.122
430.29	0.126
430.75	0.129
431.21	0.130
431.67	0.132
432.13	0.130
432.59	0.126
433.05	0.124
433.51	0.124
433.97	0.121
434.43	0.131
434.89	0.132
435.35	0.128
435.81	0.127
436.27	0.126
436.73	0.127
437.19	0.130
437.65	0.124
438.11	0.126
438.57	0.126
439.03	0.124
439.48	0.125
439.94	0.124
440.40	0.126
440.86	0.122
441.32	0.122
441.78	0.122
442.24	0.128
442.70	0.125
443.16	0.125
443.62	0.124
444.08	0.124
444.54	0.122
444.99	0.124
445.45	0.118
445.91	0.119
446.37	0.122
446.83	0.121
447.29	0.122
447.75	0.120
448.21	0.125
448.67	0.125
449.12	0.124
449.58	0.122
450.04	0.125
450.50	0.123
450.96	0.118
451.42	0.125
451.88	0.123
452.34	0.121
452.79	0.122
453.25	0.121
453.71	0.120
454.17	0.119
454.63	0.122
455.09	0.121
455.55	0.120
456.00	0.120
456.46	0.123
456.92	0.122
457.38	0.119
457.84	0.118
458.30	0.124
458.75	0.119
459.21	0.119
459.67	0.118
460.13	0.118
460.59	0.119
461.04	0.118
461.50	0.116
461.96	0.118
462.42	0.117
462.88	0.117
463.33	0.119
463.79	0.117
464.25	0.115
464.71	0.121
465.17	0.118
465.62	0.118
466.08	0.120
466.54	0.121
467.00	0.121
467.46	0.119
467.91	0.120
468.37	0.120
468.83	0.121
469.29	0.119
469.74	0.119
470.20	0.120
470.66	0.120
471.12	0.121
471.57	0.119
472.03	0.120
472.49	0.120
472.95	0.123
473.40	0.121
473.86	0.121
474.32	0.120
474.78	0.120
475.23	0.121
475.69	0.119
476.15	0.123
476.60	0.121
477.06	0.122
477.52	0.119
477.98	0.118
478.43	0.122
478.89	0.119
479.35	0.121
479.80	0.120
480.26	0.116
480.72	0.119
481.18	0.117
481.63	0.120
482.09	0.119
482.55	0.118
483.00	0.117
483.46	0.119
483.92	0.117
484.37	0.118
484.83	0.117
485.29	0.118
485.74	0.116
486.20	0.118
486.66	0.119
487.11	0.117
487.57	0.120
488.03	0.117
488.48	0.119
488.94	0.117
489.40	0.116
489.85	0.118
490.31	0.118
490.77	0.116
491.22	0.119
491.68	0.116
492.13	0.118
492.59	0.119
493.05	0.118
493.50	0.116
493.96	0.117
494.42	0.121
494.87	0.119
495.33	0.117
495.78	0.117
496.24	0.119
496.70	0.119
497.15	0.116
497.61	0.120
498.06	0.116
498.52	0.118
498.98	0.116
499.43	0.116
499.89	0.117
500.34	0.115
500.80	0.118
501.25	0.116
501.71	0.114
502.17	0.114
502.62	0.115
503.08	0.112
503.53	0.115
503.99	0.115
504.44	0.114
504.90	0.113
505.36	0.116
505.81	0.115
506.27	0.114
506.72	0.115
507.18	0.114
507.63	0.114
508.09	0.114
508.54	0.113
509.00	0.117
509.45	0.114
509.91	0.114
510.36	0.115
510.82	0.116
511.27	0.114
511.73	0.117
512.19	0.115
512.64	0.112
513.10	0.117
513.55	0.113
514.01	0.116
514.46	0.116
514.92	0.114
515.37	0.116
515.83	0.112
516.28	0.115
516.73	0.113
517.19	0.113
517.64	0.113
518.10	0.114
518.55	0.115
519.01	0.114
519.46	0.113
519.92	0.112
520.37	0.110
520.83	0.114
521.28	0.112
521.74	0.114
522.19	0.113
522.65	0.111
523.10	0.112
523.55	0.113
524.01	0.113
524.46	0.115
524.92	0.112
525.37	0.113
525.83	0.114
526.28	0.115
526.73	0.113
527.19	0.113
527.64	0.114
528.10	0.114
528.55	0.114
529.01	0.114
529.46	0.113
529.91	0.113
530.37	0.111
530.82	0.114
531.28	0.114
531.73	0.113
532.18	0.114
532.64	0.114
533.09	0.113
533.54	0.113
534.00	0.114
534.45	0.114
534.91	0.114
535.36	0.114
535.81	0.115
536.27	0.113
536.72	0.113
537.17	0.114
537.63	0.114
538.08	0.115
538.54	0.114
538.99	0.115
539.44	0.114
539.90	0.117
540.35	0.114
540.80	0.115
541.26	0.115
541.71	0.117
542.16	0.117
542.62	0.117
543.07	0.117
543.52	0.118
543.98	0.117
544.43	0.118
544.88	0.117
545.34	0.118
545.79	0.118
546.24	0.119
546.69	0.118
547.15	0.118
547.60	0.119
548.05	0.118
548.51	0.118
548.96	0.117
549.41	0.118
549.86	0.121
550.32	0.122
550.77	0.119
551.22	0.119
551.68	0.120
552.13	0.122
552.58	0.122
553.03	0.122
553.49	0.121
553.94	0.122
554.39	0.122
554.84	0.125
555.30	0.122
555.75	0.125
556.20	0.126
556.65	0.125
557.11	0.125
557.56	0.126
558.01	0.127
558.46	0.126
558.92	0.127
559.37	0.128
559.82	0.129
560.27	0.129
560.72	0.129
561.18	0.129
561.63	0.131
562.08	0.129
562.53	0.130
562.99	0.133
563.44	0.131
563.89	0.132
564.34	0.133
564.79	0.134
565.25	0.135
565.70	0.137
566.15	0.135
566.60	0.137
567.05	0.137
567.50	0.138
567.96	0.138
568.41	0.138
568.86	0.138
569.31	0.138
569.76	0.138
570.21	0.140
570.67	0.139
571.12	0.141
571.57	0.142
572.02	0.143
572.47	0.144
572.92	0.144
573.37	0.147
573.83	0.145
574.28	0.147
574.73	0.147
575.18	0.145
575.63	0.148
576.08	0.148
576.53	0.147
576.98	0.149
577.44	0.151
577.89	0.150
578.34	0.154
578.79	0.153
579.24	0.153
579.69	0.154
580.14	0.155
580.59	0.157
581.04	0.158
581.49	0.158
581.95	0.159
582.40	0.162
582.85	0.161
583.30	0.164
583.75	0.166
584.20	0.166
584.65	0.165
585.10	0.168
585.55	0.170
586.00	0.169
586.45	0.171
586.90	0.172
587.35	0.175
587.80	0.173
588.25	0.177
588.71	0.179
589.16	0.181
589.61	0.178
590.06	0.183
590.51	0.184
590.96	0.185
591.41	0.188
591.86	0.189
592.31	0.190
592.76	0.192
593.21	0.191
593.66	0.195
594.11	0.195
594.56	0.198
595.01	0.200
595.46	0.200
595.91	0.203
596.36	0.204
596.81	0.207
597.26	0.208
597.71	0.209
598.16	0.210
598.61	0.212
599.06	0.214
599.51	0.214
599.96	0.216
600.41	0.218
600.86	0.220
601.31	0.220
601.76	0.224
602.21	0.227
602.65	0.227
603.10	0.227
603.55	0.230
604.00	0.233
604.45	0.232
604.90	0.233
605.35	0.236
605.80	0.235
606.25	0.236
606.70	0.242
607.15	0.241
607.60	0.242
608.05	0.244
608.50	0.245
608.95	0.247
609.39	0.247
609.84	0.247
610.29	0.250
610.74	0.249
611.19	0.250
611.64	0.253
612.09	0.254
612.54	0.253
612.99	0.253
613.44	0.255
613.88	0.254
614.33	0.256
614.78	0.257
615.23	0.258
615.68	0.259
616.13	0.259
616.58	0.261
617.03	0.262
617.47	0.260
617.92	0.261
618.37	0.263
618.82	0.264
619.27	0.263
619.72	0.264
620.17	0.264
620.61	0.265
621.06	0.265
621.51	0.264
621.96	0.269
622.41	0.267
622.86	0.266
623.30	0.268
623.75	0.269
624.20	0.271
624.65	0.270
625.10	0.271
625.54	0.271
625.99	0.270
626.44	0.274
626.89	0.275
627.34	0.276
627.78	0.276
628.23	0.276
628.68	0.279
629.13	0.279
629.58	0.279
630.02	0.280
630.47	0.285
630.92	0.284
631.37	0.287
631.81	0.290
632.26	0.287
632.71	0.292
633.16	0.292
633.61	0.294
634.05	0.297
634.50	0.295
634.95	0.298
635.40	0.300
635.84	0.304
636.29	0.303
636.74	0.305
637.18	0.308
637.63	0.310
638.08	0.311
638.53	0.312
638.97	0.316
639.42	0.318
639.87	0.321
640.32	0.324
640.76	0.325
641.21	0.328
641.66	0.330
642.10	0.333
642.55	0.335
643.00	0.337
643.44	0.340
643.89	0.344
644.34	0.346
644.79	0.350
645.23	0.352
645.68	0.353
646.13	0.358
646.57	0.359
647.02	0.362
647.47	0.365
647.91	0.367
648.36	0.368
648.81	0.372
649.25	0.375
649.70	0.375
650.15	0.380
650.59	0.383
651.04	0.385
651.48	0.385
651.93	0.390
652.38	0.392
652.82	0.397
653.27	0.393
653.72	0.397
654.16	0.398
654.61	0.402
655.06	0.402
655.50	0.404
655.95	0.400
656.39	0.402
656.84	0.416
657.29	0.418
657.73	0.415
658.18	0.413
658.62	0.415
659.07	0.420
659.52	0.419
659.96	0.422
660.41	0.423
660.85	0.424
661.30	0.423
661.74	0.426
662.19	0.426
662.64	0.427
663.08	0.426
663.53	0.425
663.97	0.425
664.42	0.426
664.86	0.425
665.31	0.426
665.75	0.427
666.20	0.423
666.65	0.424
667.09	0.424
667.54	0.422
667.98	0.420
668.43	0.417
668.87	0.417
669.32	0.413
669.76	0.411
670.21	0.410
670.65	0.404
671.10	0.400
671.54	0.397
671.99	0.394
672.43	0.390
672.88	0.385
673.32	0.383
673.77	0.378
674.21	0.373
674.66	0.364
675.10	0.362
675.55	0.354
675.99	0.347
676.44	0.345
676.88	0.339
677.33	0.334
677.77	0.327
678.22	0.318
678.66	0.315
679.11	0.306
679.55	0.297
679.99	0.293
680.44	0.287
680.88	0.277
681.33	0.273
681.77	0.265
682.22	0.257
682.66	0.255
683.11	0.246
683.55	0.240
683.99	0.236
684.44	0.230
684.88	0.222
685.33	0.215
685.77	0.211
686.21	0.205
686.66	0.200
687.10	0.195
687.55	0.190
687.99	0.183
688.44	0.181
688.88	0.178
689.32	0.172
689.77	0.168
690.21	0.164
690.65	0.159
691.10	0.155
691.54	0.151
691.99	0.148
692.43	0.144
692.87	0.142
693.32	0.138
693.76	0.135
694.20	0.133
694.65	0.130
695.09	0.126
695.53	0.125
695.98	0.122
696.42	0.122
696.86	0.118
697.31	0.119
697.75	0.113
698.19	0.115
698.64	0.110
699.08	0.109
699.52	0.109
699.97	0.105
700.41	0.104
700.85	0.105
701.30	0.100
701.74	0.101
702.18	0.100
702.63	0.097
703.07	0.096
703.51	0.096
703.96	0.097
704.40	0.095
704.84	0.094
705.28	0.094
705.73	0.092
706.17	0.091
706.61	0.091
707.06	0.089
707.50	0.089
707.94	0.090
708.38	0.089
708.83	0.089
709.27	0.088
709.71	0.087
710.15	0.086
710.60	0.087
711.04	0.084
711.48	0.086
711.92	0.086
712.37	0.083
712.81	0.083
713.25	0.087
713.69	0.082
714.13	0.081
714.58	0.085
715.02	0.082
715.46	0.083
715.90	0.081
716.35	0.081
716.79	0.085
717.23	0.083
717.67	0.083
718.11	0.080
718.56	0.082
719.00	0.082
719.44	0.081
719.88	0.084
720.32	0.082
720.76	0.080
721.21	0.085
721.65	0.082
722.09	0.082
722.53	0.081
722.97	0.081
723.41	0.082
723.86	0.083
724.30	0.081
724.74	0.084
725.18	0.082
725.62	0.082
726.06	0.082
726.50	0.082
726.95	0.082
727.39	0.082
727.83	0.082
728.27	0.084
728.71	0.084
729.15	0.083
729.59	0.081
730.03	0.082
730.48	0.082
730.92	0.085
731.36	0.082
731.80	0.082
732.24	0.087
732.68	0.082
733.12	0.082
733.56	0.083
734.00	0.085
734.44	0.083
734.89	0.085
735.33	0.081
735.77	0.084
736.21	0.084
736.65	0.086
737.09	0.085
737.53	0.085
737.97	0.085
738.41	0.083
738.85	0.084
739.29	0.083
739.73	0.084
740.17	0.085
740.61	0.082
741.05	0.087
741.49	0.084
741.93	0.083
742.37	0.085
742.81	0.086
743.26	0.083
743.70	0.084
744.14	0.084
744.58	0.085
745.02	0.084
745.46	0.085
745.90	0.086
746.34	0.085
746.78	0.085
747.22	0.085
747.66	0.083
748.10	0.085
748.54	0.085
748.98	0.085
749.42	0.083
749.86	0.086
750.29	0.086
750.73	0.086
751.17	0.085
751.61	0.085
752.05	0.082
752.49	0.084
752.93	0.084
753.37	0.087
753.81	0.084
754.25	0.084
754.69	0.085
755.13	0.085
755.57	0.085
756.01	0.084
756.45	0.082
756.89	0.085
757.33	0.084
757.77	0.085
758.21	0.085
758.64	0.083
759.08	0.083
759.52	0.083
759.96	0.085
760.40	0.084
760.84	0.082
761.28	0.082
761.72	0.083
762.16	0.080
762.60	0.084
763.03	0.085
763.47	0.083
763.91	0.082
764.35	0.083
764.79	0.082
765.23	0.083
765.67	0.081
766.11	0.084
766.54	0.082
766.98	0.082
767.42	0.085
767.86	0.086
768.30	0.080
768.74	0.081
769.17	0.084
769.61	0.083
770.05	0.083
770.49	0.086
770.93	0.081
771.37	0.085
771.80	0.082
772.24	0.078
772.68	0.080
773.12	0.081
773.56	0.082
774.00	0.083
774.43	0.083
774.87	0.081
775.31	0.083
775.75	0.082
776.19	0.081
776.62	0.082
777.06	0.082
777.50	0.083
777.94	0.080
778.37	0.085
778.81	0.082
779.25	0.079
779.69	0.082
780.13	0.080
780.56	0.079
781.00	0.084
781.44	0.081
781.88	0.082
782.31	0.078
782.75	0.080
783.19	0.083
783.63	0.081
784.06	0.080
784.50	0.081
784.94	0.083
785.37	0.079
785.81	0.081
786.25	0.082
786.69	0.084
787.12	0.083
787.56	0.084
788.00	0.081
788.43	0.085
788.87	0.085
789.31	0.081
789.75	0.081
790.18	0.084
790.62	0.082
791.06	0.082
791.49	0.084
791.93	0.080
792.37	0.078
792.80	0.082
793.24	0.080
793.68	0.081
794.11	0.085
794.55	0.083
794.99	0.081
795.42	0.084
795.86	0.085
796.30	0.082
796.73	0.078
797.17	0.083
797.61	0.085
798.04	0.083
798.48	0.081
798.91	0.084
799.35	0.083
799.79	0.083
800.22	0.081
800.66	0.080
801.10	0.084
801.53	0.086
801.97	0.083
802.40	0.077
802.84	0.080
803.28	0.083
803.71	0.083
804.15	0.083
804.58	0.084
805.02	0.082
805.46	0.080
805.89	0.083
806.33	0.084
806.76	0.082
807.20	0.087
807.63	0.083
808.07	0.080
808.51	0.085
808.94	0.084
809.38	0.082
809.81	0.082
810.25	0.082
810.68	0.085
811.12	0.083
811.55	0.085
811.99	0.082
812.42	0.084
812.86	0.085
813.29	0.085
813.73	0.084
814.17	0.078
814.60	0.079
