SpectraSuite Data File
++++++++++++++++++++++++++++++++++++
Date: Wed May 04 15:33:46 CEST 2016
User: spectrasuite
Dark Spectrum Present: Yes
Reference Spectrum Present: Yes
Number of Sampled Component Spectra: 1
Spectrometers: HR+C0708
Integration Time (usec): 1000 (HR+C0708)
Spectra Averaged: 10 (HR+C0708)
Boxcar Smoothing: 0 (HR+C0708)
Correct for Electrical Dark: No (HR+C0708)
Strobe/Lamp Enabled: No (HR+C0708)
Correct for Detector Non-linearity: No (HR+C0708)
Correct for Stray Light: No (HR+C0708)
Number of Pixels in Processed Spectrum: 2048
>>>>>Begin Processed Spectral Data<<<<<
188.76	-0.000
189.23	-0.000
189.70	-0.000
190.17	-0.000
190.64	-0.000
191.12	-0.000
191.59	-0.000
192.06	-0.000
192.53	-0.000
193.01	-0.000
193.48	-0.000
193.95	-0.000
194.42	-0.000
194.90	-0.000
195.37	-0.000
195.84	-0.000
196.31	-0.000
196.78	-0.000
197.26	-0.000
197.73	-0.000
198.20	-0.000
198.67	-0.000
199.14	-0.000
199.62	-0.000
200.09	-0.000
200.56	-0.000
201.03	-0.000
201.50	1.284
201.97	0.737
202.45	-0.000
202.92	-0.000
203.39	1.269
203.86	-0.000
204.33	-0.000
204.80	1.264
205.28	-0.000
205.75	-0.000
206.22	-0.000
206.69	-0.000
207.16	1.318
207.63	-0.000
208.11	-0.000
208.58	-0.000
209.05	-0.000
209.52	-0.000
209.99	1.422
210.46	1.250
210.93	-0.000
211.41	2.075
211.88	-0.000
212.35	-0.000
212.82	-0.000
213.29	-0.000
213.76	-0.000
214.23	-0.000
214.70	-0.000
215.18	-0.000
215.65	1.022
216.12	1.120
216.59	2.062
217.06	0.770
217.53	1.019
218.00	1.772
218.47	-0.000
218.94	-0.000
219.41	1.162
219.89	1.389
220.36	0.744
220.83	1.005
221.30	-0.000
221.77	1.981
222.24	1.569
222.71	1.478
223.18	-0.000
223.65	1.006
224.12	1.085
224.59	1.175
225.06	2.264
225.54	1.284
226.01	-0.000
226.48	-0.000
226.95	-0.000
227.42	1.490
227.89	-0.000
228.36	2.341
228.83	2.148
229.30	1.695
229.77	-0.000
230.24	1.948
230.71	2.136
231.18	-0.000
231.65	-0.000
232.12	-0.000
232.59	-0.000
233.06	-0.000
233.53	-0.000
234.00	2.031
234.47	2.967
234.94	-0.000
235.41	2.734
235.88	2.330
236.35	2.443
236.82	-0.000
237.29	2.579
237.76	3.101
238.23	-0.000
238.70	3.981
239.17	2.601
239.64	-0.000
240.11	-0.000
240.58	2.527
241.05	2.417
241.52	3.357
241.99	2.614
242.46	2.646
242.93	2.480
243.40	-0.000
243.87	3.370
244.34	2.380
244.81	2.816
245.28	2.957
245.75	2.597
246.22	2.961
246.69	-0.000
247.16	2.991
247.63	3.170
248.10	3.680
248.57	-0.000
249.04	3.851
249.51	2.599
249.98	-0.000
250.45	2.831
250.92	2.613
251.39	2.494
251.85	2.597
252.32	2.144
252.79	2.017
253.26	1.958
253.73	1.820
254.20	1.692
254.67	1.597
255.14	1.552
255.61	1.458
256.08	1.378
256.55	1.312
257.02	1.274
257.49	1.226
257.95	1.176
258.42	1.137
258.89	1.104
259.36	1.073
259.83	1.044
260.30	1.017
260.77	0.998
261.24	0.968
261.71	0.949
262.17	0.928
262.64	0.910
263.11	0.891
263.58	0.878
264.05	0.865
264.52	0.841
264.99	0.832
265.46	0.819
265.92	0.806
266.39	0.792
266.86	0.783
267.33	0.771
267.80	0.760
268.27	0.748
268.74	0.741
269.20	0.732
269.67	0.724
270.14	0.715
270.61	0.705
271.08	0.699
271.55	0.689
272.01	0.686
272.48	0.674
272.95	0.671
273.42	0.665
273.89	0.660
274.36	0.656
274.82	0.644
275.29	0.642
275.76	0.637
276.23	0.633
276.70	0.623
277.16	0.627
277.63	0.619
278.10	0.618
278.57	0.614
279.04	0.609
279.50	0.609
279.97	0.607
280.44	0.604
280.91	0.602
281.38	0.598
281.84	0.595
282.31	0.594
282.78	0.595
283.25	0.597
283.72	0.593
284.18	0.589
284.65	0.587
285.12	0.588
285.59	0.593
286.05	0.586
286.52	0.586
286.99	0.589
287.46	0.589
287.92	0.589
288.39	0.586
288.86	0.589
289.33	0.583
289.79	0.585
290.26	0.584
290.73	0.582
291.20	0.580
291.66	0.578
292.13	0.575
292.60	0.569
293.07	0.568
293.53	0.564
294.00	0.561
294.47	0.558
294.93	0.549
295.40	0.541
295.87	0.539
296.34	0.530
296.80	0.523
297.27	0.514
297.74	0.504
298.20	0.502
298.67	0.492
299.14	0.484
299.60	0.478
300.07	0.470
300.54	0.461
301.01	0.453
301.47	0.448
301.94	0.439
302.41	0.431
302.87	0.425
303.34	0.417
303.81	0.410
304.27	0.405
304.74	0.395
305.21	0.389
305.67	0.384
306.14	0.374
306.61	0.371
307.07	0.364
307.54	0.361
308.01	0.354
308.47	0.349
308.94	0.345
309.40	0.342
309.87	0.339
310.34	0.335
310.80	0.332
311.27	0.326
311.74	0.325
312.20	0.320
312.67	0.320
313.13	0.313
313.60	0.310
314.07	0.311
314.53	0.306
315.00	0.304
315.47	0.301
315.93	0.304
316.40	0.299
316.86	0.297
317.33	0.295
317.80	0.294
318.26	0.292
318.73	0.292
319.19	0.291
319.66	0.291
320.13	0.286
320.59	0.286
321.06	0.285
321.52	0.284
321.99	0.283
322.45	0.281
322.92	0.279
323.39	0.278
323.85	0.275
324.32	0.275
324.78	0.274
325.25	0.270
325.71	0.274
326.18	0.270
326.64	0.265
327.11	0.265
327.58	0.264
328.04	0.266
328.51	0.262
328.97	0.260
329.44	0.262
329.90	0.257
330.37	0.255
330.83	0.253
331.30	0.252
331.76	0.251
332.23	0.252
332.69	0.250
333.16	0.245
333.62	0.245
334.09	0.242
334.56	0.239
335.02	0.234
335.49	0.236
335.95	0.231
336.42	0.234
336.88	0.228
337.35	0.225
337.81	0.226
338.28	0.226
338.74	0.226
339.20	0.225
339.67	0.225
340.13	0.226
340.60	0.222
341.06	0.221
341.53	0.217
341.99	0.217
342.46	0.214
342.92	0.213
343.39	0.211
343.85	0.208
344.32	0.209
344.78	0.212
345.25	0.212
345.71	0.208
346.17	0.213
346.64	0.212
347.10	0.206
347.57	0.206
348.03	0.203
348.50	0.203
348.96	0.202
349.43	0.203
349.89	0.201
350.35	0.204
350.82	0.200
351.28	0.197
351.75	0.199
352.21	0.202
352.67	0.195
353.14	0.201
353.60	0.194
354.07	0.194
354.53	0.196
355.00	0.194
355.46	0.190
355.92	0.188
356.39	0.192
356.85	0.186
357.31	0.183
357.78	0.185
358.24	0.185
358.71	0.187
359.17	0.185
359.63	0.181
360.10	0.181
360.56	0.180
361.03	0.180
361.49	0.182
361.95	0.179
362.42	0.179
362.88	0.181
363.34	0.182
363.81	0.177
364.27	0.179
364.73	0.180
365.20	0.177
365.66	0.176
366.12	0.177
366.59	0.178
367.05	0.175
367.51	0.174
367.98	0.174
368.44	0.176
368.90	0.175
369.37	0.175
369.83	0.176
370.29	0.171
370.76	0.173
371.22	0.172
371.68	0.174
372.15	0.170
372.61	0.167
373.07	0.171
373.54	0.169
374.00	0.167
374.46	0.170
374.92	0.171
375.39	0.170
375.85	0.169
376.31	0.172
376.78	0.168
377.24	0.167
377.70	0.168
378.16	0.168
378.63	0.169
379.09	0.168
379.55	0.168
380.01	0.169
380.48	0.168
380.94	0.165
381.40	0.167
381.87	0.169
382.33	0.165
382.79	0.164
383.25	0.163
383.72	0.168
384.18	0.165
384.64	0.164
385.10	0.167
385.56	0.162
386.03	0.165
386.49	0.165
386.95	0.162
387.41	0.162
387.88	0.160
388.34	0.161
388.80	0.162
389.26	0.165
389.72	0.164
390.19	0.160
390.65	0.157
391.11	0.160
391.57	0.160
392.04	0.160
392.50	0.158
392.96	0.160
393.42	0.159
393.88	0.161
394.34	0.158
394.81	0.161
395.27	0.160
395.73	0.154
396.19	0.157
396.65	0.158
397.12	0.154
397.58	0.156
398.04	0.155
398.50	0.155
398.96	0.155
399.42	0.157
399.89	0.160
400.35	0.158
400.81	0.153
401.27	0.153
401.73	0.155
402.19	0.156
402.65	0.150
403.12	0.153
403.58	0.151
404.04	0.151
404.50	0.150
404.96	0.151
405.42	0.151
405.88	0.151
406.34	0.150
406.81	0.152
407.27	0.148
407.73	0.147
408.19	0.149
408.65	0.147
409.11	0.147
409.57	0.147
410.03	0.150
410.49	0.148
410.96	0.146
411.42	0.147
411.88	0.145
412.34	0.144
412.80	0.146
413.26	0.146
413.72	0.146
414.18	0.144
414.64	0.145
415.10	0.145
415.56	0.148
416.02	0.143
416.48	0.144
416.95	0.146
417.41	0.142
417.87	0.145
418.33	0.143
418.79	0.141
419.25	0.144
419.71	0.142
420.17	0.140
420.63	0.137
421.09	0.138
421.55	0.142
422.01	0.142
422.47	0.144
422.93	0.144
423.39	0.142
423.85	0.143
424.31	0.141
424.77	0.142
425.23	0.143
425.69	0.144
426.15	0.143
426.61	0.143
427.07	0.139
427.53	0.140
427.99	0.138
428.45	0.141
428.91	0.137
429.37	0.136
429.83	0.138
430.29	0.140
430.75	0.140
431.21	0.142
431.67	0.143
432.13	0.143
432.59	0.138
433.05	0.137
433.51	0.136
433.97	0.136
434.43	0.143
434.89	0.144
435.35	0.140
435.81	0.138
436.27	0.139
436.73	0.138
437.19	0.141
437.65	0.138
438.11	0.138
438.57	0.139
439.03	0.139
439.48	0.139
439.94	0.141
440.40	0.138
440.86	0.136
441.32	0.136
441.78	0.136
442.24	0.137
442.70	0.140
443.16	0.136
443.62	0.137
444.08	0.135
444.54	0.137
444.99	0.138
445.45	0.134
445.91	0.137
446.37	0.137
446.83	0.135
447.29	0.133
447.75	0.134
448.21	0.138
448.67	0.137
449.12	0.136
449.58	0.134
450.04	0.136
450.50	0.136
450.96	0.134
451.42	0.137
451.88	0.137
452.34	0.133
452.79	0.135
453.25	0.136
453.71	0.134
454.17	0.136
454.63	0.135
455.09	0.135
455.55	0.132
456.00	0.131
456.46	0.134
456.92	0.134
457.38	0.135
457.84	0.135
458.30	0.134
458.75	0.132
459.21	0.131
459.67	0.131
460.13	0.132
460.59	0.132
461.04	0.132
461.50	0.132
461.96	0.129
462.42	0.133
462.88	0.130
463.33	0.131
463.79	0.133
464.25	0.130
464.71	0.133
465.17	0.131
465.62	0.130
466.08	0.134
466.54	0.134
467.00	0.133
467.46	0.133
467.91	0.135
468.37	0.133
468.83	0.134
469.29	0.134
469.74	0.133
470.20	0.133
470.66	0.134
471.12	0.132
471.57	0.133
472.03	0.133
472.49	0.131
472.95	0.133
473.40	0.132
473.86	0.134
474.32	0.131
474.78	0.132
475.23	0.134
475.69	0.133
476.15	0.135
476.60	0.133
477.06	0.135
477.52	0.131
477.98	0.133
478.43	0.134
478.89	0.133
479.35	0.135
479.80	0.133
480.26	0.130
480.72	0.133
481.18	0.132
481.63	0.133
482.09	0.132
482.55	0.130
483.00	0.131
483.46	0.133
483.92	0.132
484.37	0.133
484.83	0.130
485.29	0.131
485.74	0.129
486.20	0.128
486.66	0.132
487.11	0.133
487.57	0.131
488.03	0.130
488.48	0.133
488.94	0.130
489.40	0.130
489.85	0.130
490.31	0.132
490.77	0.129
491.22	0.133
491.68	0.130
492.13	0.131
492.59	0.131
493.05	0.131
493.50	0.130
493.96	0.129
494.42	0.132
494.87	0.132
495.33	0.129
495.78	0.131
496.24	0.132
496.70	0.131
497.15	0.131
497.61	0.131
498.06	0.131
498.52	0.131
498.98	0.130
499.43	0.131
499.89	0.129
500.34	0.129
500.80	0.129
501.25	0.130
501.71	0.127
502.17	0.128
502.62	0.127
503.08	0.125
503.53	0.129
503.99	0.129
504.44	0.129
504.90	0.127
505.36	0.129
505.81	0.129
506.27	0.128
506.72	0.127
507.18	0.129
507.63	0.130
508.09	0.127
508.54	0.127
509.00	0.128
509.45	0.128
509.91	0.128
510.36	0.129
510.82	0.130
511.27	0.127
511.73	0.128
512.19	0.129
512.64	0.128
513.10	0.129
513.55	0.127
514.01	0.128
514.46	0.127
514.92	0.128
515.37	0.127
515.83	0.127
516.28	0.126
516.73	0.128
517.19	0.126
517.64	0.128
518.10	0.128
518.55	0.125
519.01	0.127
519.46	0.123
519.92	0.126
520.37	0.127
520.83	0.129
521.28	0.125
521.74	0.125
522.19	0.125
522.65	0.125
523.10	0.126
523.55	0.127
524.01	0.126
524.46	0.126
524.92	0.127
525.37	0.128
525.83	0.125
526.28	0.126
526.73	0.125
527.19	0.123
527.64	0.125
528.10	0.125
528.55	0.127
529.01	0.125
529.46	0.125
529.91	0.127
530.37	0.126
530.82	0.127
531.28	0.124
531.73	0.127
532.18	0.128
532.64	0.126
533.09	0.128
533.54	0.125
534.00	0.127
534.45	0.128
534.91	0.127
535.36	0.128
535.81	0.124
536.27	0.126
536.72	0.126
537.17	0.127
537.63	0.127
538.08	0.128
538.54	0.130
538.99	0.130
539.44	0.127
539.90	0.130
540.35	0.129
540.80	0.126
541.26	0.128
541.71	0.129
542.16	0.132
542.62	0.131
543.07	0.130
543.52	0.131
543.98	0.130
544.43	0.129
544.88	0.131
545.34	0.132
545.79	0.132
546.24	0.130
546.69	0.130
547.15	0.134
547.60	0.133
548.05	0.131
548.51	0.135
548.96	0.134
549.41	0.133
549.86	0.136
550.32	0.136
550.77	0.134
551.22	0.133
551.68	0.135
552.13	0.137
552.58	0.136
553.03	0.137
553.49	0.137
553.94	0.135
554.39	0.137
554.84	0.140
555.30	0.137
555.75	0.137
556.20	0.140
556.65	0.140
557.11	0.141
557.56	0.141
558.01	0.142
558.46	0.142
558.92	0.144
559.37	0.143
559.82	0.144
560.27	0.144
560.72	0.144
561.18	0.144
561.63	0.145
562.08	0.145
562.53	0.143
562.99	0.148
563.44	0.149
563.89	0.148
564.34	0.148
564.79	0.148
565.25	0.151
565.70	0.151
566.15	0.151
566.60	0.152
567.05	0.152
567.50	0.155
567.96	0.155
568.41	0.153
568.86	0.153
569.31	0.155
569.76	0.156
570.21	0.156
570.67	0.156
571.12	0.157
571.57	0.159
572.02	0.160
572.47	0.160
572.92	0.161
573.37	0.162
573.83	0.163
574.28	0.163
574.73	0.163
575.18	0.164
575.63	0.164
576.08	0.165
576.53	0.166
576.98	0.167
577.44	0.172
577.89	0.169
578.34	0.171
578.79	0.171
579.24	0.171
579.69	0.172
580.14	0.174
580.59	0.176
581.04	0.175
581.49	0.178
581.95	0.177
582.40	0.180
582.85	0.182
583.30	0.182
583.75	0.186
584.20	0.186
584.65	0.185
585.10	0.187
585.55	0.190
586.00	0.189
586.45	0.192
586.90	0.195
587.35	0.194
587.80	0.197
588.25	0.197
588.71	0.199
589.16	0.203
589.61	0.201
590.06	0.205
590.51	0.205
590.96	0.208
591.41	0.211
591.86	0.212
592.31	0.213
592.76	0.213
593.21	0.215
593.66	0.217
594.11	0.220
594.56	0.221
595.01	0.224
595.46	0.223
595.91	0.227
596.36	0.229
596.81	0.230
597.26	0.233
597.71	0.233
598.16	0.236
598.61	0.239
599.06	0.239
599.51	0.239
599.96	0.241
600.41	0.245
600.86	0.246
601.31	0.249
601.76	0.253
602.21	0.252
602.65	0.255
603.10	0.257
603.55	0.257
604.00	0.262
604.45	0.261
604.90	0.261
605.35	0.267
605.80	0.264
606.25	0.267
606.70	0.270
607.15	0.272
607.60	0.273
608.05	0.273
608.50	0.274
608.95	0.277
609.39	0.278
609.84	0.279
610.29	0.280
610.74	0.279
611.19	0.282
611.64	0.284
612.09	0.283
612.54	0.285
612.99	0.284
613.44	0.286
613.88	0.287
614.33	0.287
614.78	0.291
615.23	0.291
615.68	0.290
616.13	0.292
616.58	0.292
617.03	0.292
617.47	0.293
617.92	0.294
618.37	0.297
618.82	0.295
619.27	0.295
619.72	0.296
620.17	0.298
620.61	0.296
621.06	0.299
621.51	0.297
621.96	0.297
622.41	0.299
622.86	0.301
623.30	0.301
623.75	0.302
624.20	0.301
624.65	0.303
625.10	0.306
625.54	0.303
625.99	0.304
626.44	0.306
626.89	0.307
627.34	0.308
627.78	0.310
628.23	0.311
628.68	0.311
629.13	0.311
629.58	0.315
630.02	0.318
630.47	0.316
630.92	0.319
631.37	0.322
631.81	0.323
632.26	0.323
632.71	0.325
633.16	0.326
633.61	0.326
634.05	0.330
634.50	0.331
634.95	0.336
635.40	0.334
635.84	0.337
636.29	0.340
636.74	0.342
637.18	0.344
637.63	0.345
638.08	0.350
638.53	0.348
638.97	0.351
639.42	0.357
639.87	0.358
640.32	0.362
640.76	0.364
641.21	0.369
641.66	0.368
642.10	0.372
642.55	0.375
643.00	0.378
643.44	0.380
643.89	0.383
644.34	0.387
644.79	0.393
645.23	0.392
645.68	0.394
646.13	0.398
646.57	0.401
647.02	0.404
647.47	0.408
647.91	0.409
648.36	0.412
648.81	0.416
649.25	0.420
649.70	0.421
650.15	0.424
650.59	0.429
651.04	0.432
651.48	0.434
651.93	0.435
652.38	0.440
652.82	0.442
653.27	0.442
653.72	0.448
654.16	0.447
654.61	0.451
655.06	0.452
655.50	0.456
655.95	0.452
656.39	0.456
656.84	0.464
657.29	0.468
657.73	0.464
658.18	0.466
658.62	0.468
659.07	0.475
659.52	0.472
659.96	0.474
660.41	0.476
660.85	0.479
661.30	0.479
661.74	0.479
662.19	0.481
662.64	0.482
663.08	0.480
663.53	0.481
663.97	0.482
664.42	0.479
664.86	0.481
665.31	0.482
665.75	0.481
666.20	0.478
666.65	0.481
667.09	0.481
667.54	0.476
667.98	0.472
668.43	0.472
668.87	0.470
669.32	0.469
669.76	0.466
670.21	0.463
670.65	0.459
671.10	0.455
671.54	0.453
671.99	0.449
672.43	0.442
672.88	0.437
673.32	0.433
673.77	0.427
674.21	0.423
674.66	0.416
675.10	0.412
675.55	0.405
675.99	0.397
676.44	0.390
676.88	0.385
677.33	0.378
677.77	0.368
678.22	0.361
678.66	0.357
679.11	0.347
679.55	0.342
679.99	0.332
680.44	0.326
680.88	0.318
681.33	0.309
681.77	0.301
682.22	0.293
682.66	0.287
683.11	0.279
683.55	0.273
683.99	0.266
684.44	0.261
684.88	0.253
685.33	0.246
685.77	0.240
686.21	0.232
686.66	0.227
687.10	0.220
687.55	0.216
687.99	0.207
688.44	0.202
688.88	0.197
689.32	0.192
689.77	0.187
690.21	0.184
690.65	0.178
691.10	0.174
691.54	0.170
691.99	0.166
692.43	0.161
692.87	0.162
693.32	0.156
693.76	0.151
694.20	0.148
694.65	0.145
695.09	0.142
695.53	0.139
695.98	0.137
696.42	0.135
696.86	0.132
697.31	0.132
697.75	0.125
698.19	0.127
698.64	0.123
699.08	0.121
699.52	0.120
699.97	0.117
700.41	0.115
700.85	0.117
701.30	0.114
701.74	0.111
702.18	0.110
702.63	0.110
703.07	0.107
703.51	0.106
703.96	0.106
704.40	0.104
704.84	0.103
705.28	0.103
705.73	0.104
706.17	0.100
706.61	0.102
707.06	0.097
707.50	0.100
707.94	0.098
708.38	0.099
708.83	0.098
709.27	0.096
709.71	0.095
710.15	0.096
710.60	0.097
711.04	0.092
711.48	0.095
711.92	0.095
712.37	0.093
712.81	0.092
713.25	0.092
713.69	0.091
714.13	0.091
714.58	0.091
715.02	0.089
715.46	0.090
715.90	0.088
716.35	0.088
716.79	0.091
717.23	0.091
717.67	0.090
718.11	0.089
718.56	0.090
719.00	0.089
719.44	0.089
719.88	0.090
720.32	0.093
720.76	0.087
721.21	0.090
721.65	0.089
722.09	0.090
722.53	0.089
722.97	0.089
723.41	0.089
723.86	0.090
724.30	0.088
724.74	0.091
725.18	0.088
725.62	0.088
726.06	0.089
726.50	0.091
726.95	0.089
727.39	0.089
727.83	0.089
728.27	0.091
728.71	0.090
729.15	0.088
729.59	0.088
730.03	0.092
730.48	0.090
730.92	0.089
731.36	0.090
731.80	0.091
732.24	0.094
732.68	0.089
733.12	0.089
733.56	0.093
734.00	0.091
734.44	0.090
734.89	0.093
735.33	0.088
735.77	0.093
736.21	0.090
736.65	0.091
737.09	0.095
737.53	0.092
737.97	0.090
738.41	0.091
738.85	0.092
739.29	0.090
739.73	0.095
740.17	0.089
740.61	0.089
741.05	0.094
741.49	0.093
741.93	0.094
742.37	0.092
742.81	0.093
743.26	0.094
743.70	0.092
744.14	0.092
744.58	0.091
745.02	0.092
745.46	0.092
745.90	0.090
746.34	0.090
746.78	0.093
747.22	0.091
747.66	0.090
748.10	0.090
748.54	0.093
748.98	0.092
749.42	0.092
749.86	0.091
750.29	0.092
750.73	0.092
751.17	0.093
751.61	0.093
752.05	0.091
752.49	0.091
752.93	0.090
753.37	0.093
753.81	0.089
754.25	0.092
754.69	0.092
755.13	0.091
755.57	0.090
756.01	0.089
756.45	0.091
756.89	0.092
757.33	0.089
757.77	0.089
758.21	0.091
758.64	0.091
759.08	0.088
759.52	0.090
759.96	0.091
760.40	0.090
760.84	0.088
761.28	0.090
761.72	0.089
762.16	0.087
762.60	0.089
763.03	0.089
763.47	0.089
763.91	0.089
764.35	0.089
764.79	0.088
765.23	0.089
765.67	0.086
766.11	0.089
766.54	0.088
766.98	0.087
767.42	0.088
767.86	0.090
768.30	0.088
768.74	0.088
769.17	0.090
769.61	0.091
770.05	0.087
770.49	0.092
770.93	0.087
771.37	0.091
771.80	0.087
772.24	0.083
772.68	0.087
773.12	0.086
773.56	0.089
774.00	0.092
774.43	0.090
774.87	0.085
775.31	0.089
775.75	0.087
776.19	0.088
776.62	0.089
777.06	0.088
777.50	0.089
777.94	0.086
778.37	0.091
778.81	0.088
779.25	0.085
779.69	0.088
780.13	0.087
780.56	0.084
781.00	0.086
781.44	0.088
781.88	0.086
782.31	0.086
782.75	0.087
783.19	0.089
783.63	0.088
784.06	0.087
784.50	0.085
784.94	0.087
785.37	0.088
785.81	0.088
786.25	0.087
786.69	0.088
787.12	0.090
787.56	0.089
788.00	0.090
788.43	0.087
788.87	0.091
789.31	0.088
789.75	0.090
790.18	0.088
790.62	0.087
791.06	0.086
791.49	0.090
791.93	0.085
792.37	0.084
792.80	0.089
793.24	0.088
793.68	0.089
794.11	0.089
794.55	0.088
794.99	0.087
795.42	0.091
795.86	0.088
796.30	0.088
796.73	0.086
797.17	0.086
797.61	0.090
798.04	0.089
798.48	0.088
798.91	0.090
799.35	0.091
799.79	0.087
800.22	0.088
800.66	0.086
801.10	0.091
801.53	0.091
801.97	0.088
802.40	0.083
802.84	0.087
803.28	0.086
803.71	0.085
804.15	0.088
804.58	0.090
805.02	0.090
805.46	0.086
805.89	0.089
806.33	0.089
806.76	0.084
807.20	0.087
807.63	0.087
808.07	0.086
808.51	0.086
808.94	0.087
809.38	0.086
809.81	0.092
810.25	0.088
810.68	0.091
811.12	0.087
811.55	0.089
811.99	0.090
812.42	0.088
812.86	0.084
813.29	0.088
813.73	0.089
814.17	0.081
814.60	0.086
815.04	0.085
815.47	0.084
