SpectraSuite Data File
++++++++++++++++++++++++++++++++++++
Date: Wed May 04 15:45:52 CEST 2016
User: spectrasuite
Dark Spectrum Present: Yes
Reference Spectrum Present: Yes
Number of Sampled Component Spectra: 1
Spectrometers: HR+C0708
Integration Time (usec): 1000 (HR+C0708)
Spectra Averaged: 10 (HR+C0708)
Boxcar Smoothing: 0 (HR+C0708)
Correct for Electrical Dark: No (HR+C0708)
Strobe/Lamp Enabled: No (HR+C0708)
Correct for Detector Non-linearity: No (HR+C0708)
Correct for Stray Light: No (HR+C0708)
Number of Pixels in Processed Spectrum: 2048
>>>>>Begin Processed Spectral Data<<<<<
188.76	-0.000
189.23	-0.000
189.70	-0.000
190.17	-0.000
190.64	-0.000
191.12	-0.000
191.59	-0.000
192.06	-0.000
192.53	-0.000
193.01	-0.000
193.48	-0.000
193.95	-0.000
194.42	-0.000
194.90	-0.000
195.37	-0.000
195.84	-0.000
196.31	-0.000
196.78	-0.000
197.26	-0.000
197.73	-0.000
198.20	-0.000
198.67	-0.000
199.14	-0.000
199.62	-0.000
200.09	-0.000
200.56	-0.000
201.03	-0.000
201.50	-0.000
201.97	-0.000
202.45	-0.000
202.92	-0.000
203.39	-0.000
203.86	-0.000
204.33	-0.000
204.80	-0.000
205.28	0.976
205.75	-0.000
206.22	-0.000
206.69	-0.000
207.16	-0.000
207.63	-0.000
208.11	-0.000
208.58	-0.000
209.05	-0.000
209.52	-0.000
209.99	-0.000
210.46	0.862
210.93	-0.000
211.41	-0.000
211.88	-0.000
212.35	-0.000
212.82	-0.000
213.29	-0.000
213.76	-0.000
214.23	-0.000
214.70	-0.000
215.18	-0.000
215.65	0.693
216.12	-0.000
216.59	-0.000
217.06	0.839
217.53	-0.000
218.00	-0.000
218.47	1.137
218.94	1.157
219.41	1.496
219.89	-0.000
220.36	1.663
220.83	0.999
221.30	-0.000
221.77	-0.000
222.24	0.925
222.71	-0.000
223.18	-0.000
223.65	0.785
224.12	1.007
224.59	2.637
225.06	-0.000
225.54	1.744
226.01	-0.000
226.48	-0.000
226.95	-0.000
227.42	1.299
227.89	-0.000
228.36	-0.000
228.83	1.714
229.30	3.348
229.77	-0.000
230.24	2.564
230.71	1.882
231.18	2.272
231.65	-0.000
232.12	3.374
232.59	2.143
233.06	-0.000
233.53	-0.000
234.00	2.069
234.47	-0.000
234.94	-0.000
235.41	2.264
235.88	-0.000
236.35	-0.000
236.82	-0.000
237.29	2.637
237.76	2.602
238.23	-0.000
238.70	-0.000
239.17	2.268
239.64	-0.000
240.11	-0.000
240.58	2.459
241.05	2.961
241.52	-0.000
241.99	2.677
242.46	2.427
242.93	2.554
243.40	-0.000
243.87	3.069
244.34	2.402
244.81	3.910
245.28	3.675
245.75	2.581
246.22	2.782
246.69	-0.000
247.16	3.039
247.63	3.295
248.10	-0.000
248.57	-0.000
249.04	2.980
249.51	2.547
249.98	-0.000
250.45	3.259
250.92	2.499
251.39	2.592
251.85	2.683
252.32	2.298
252.79	2.126
253.26	1.976
253.73	1.870
254.20	1.691
254.67	1.595
255.14	1.569
255.61	1.460
256.08	1.375
256.55	1.327
257.02	1.290
257.49	1.217
257.95	1.178
258.42	1.130
258.89	1.112
259.36	1.072
259.83	1.046
260.30	1.024
260.77	0.996
261.24	0.963
261.71	0.952
262.17	0.932
262.64	0.907
263.11	0.889
263.58	0.876
264.05	0.865
264.52	0.844
264.99	0.835
265.46	0.824
265.92	0.808
266.39	0.792
266.86	0.783
267.33	0.772
267.80	0.762
268.27	0.749
268.74	0.744
269.20	0.729
269.67	0.725
270.14	0.718
270.61	0.711
271.08	0.697
271.55	0.690
272.01	0.687
272.48	0.677
272.95	0.668
273.42	0.661
273.89	0.661
274.36	0.648
274.82	0.646
275.29	0.642
275.76	0.637
276.23	0.631
276.70	0.627
277.16	0.626
277.63	0.617
278.10	0.611
278.57	0.615
279.04	0.614
279.50	0.608
279.97	0.606
280.44	0.600
280.91	0.600
281.38	0.596
281.84	0.597
282.31	0.596
282.78	0.594
283.25	0.592
283.72	0.592
284.18	0.592
284.65	0.585
285.12	0.587
285.59	0.589
286.05	0.584
286.52	0.585
286.99	0.587
287.46	0.588
287.92	0.582
288.39	0.582
288.86	0.583
289.33	0.582
289.79	0.580
290.26	0.580
290.73	0.579
291.20	0.575
291.66	0.573
292.13	0.571
292.60	0.568
293.07	0.562
293.53	0.560
294.00	0.558
294.47	0.545
294.93	0.544
295.40	0.539
295.87	0.539
296.34	0.525
296.80	0.521
297.27	0.509
297.74	0.502
298.20	0.495
298.67	0.489
299.14	0.484
299.60	0.471
300.07	0.464
300.54	0.459
301.01	0.449
301.47	0.442
301.94	0.437
302.41	0.429
302.87	0.420
303.34	0.413
303.81	0.409
304.27	0.400
304.74	0.395
305.21	0.385
305.67	0.382
306.14	0.376
306.61	0.370
307.07	0.362
307.54	0.360
308.01	0.353
308.47	0.349
308.94	0.342
309.40	0.341
309.87	0.336
310.34	0.335
310.80	0.329
311.27	0.325
311.74	0.324
312.20	0.320
312.67	0.316
313.13	0.312
313.60	0.310
314.07	0.309
314.53	0.305
315.00	0.303
315.47	0.301
315.93	0.302
316.40	0.299
316.86	0.297
317.33	0.295
317.80	0.294
318.26	0.290
318.73	0.291
319.19	0.290
319.66	0.286
320.13	0.284
320.59	0.285
321.06	0.283
321.52	0.283
321.99	0.284
322.45	0.279
322.92	0.279
323.39	0.275
323.85	0.276
324.32	0.272
324.78	0.270
325.25	0.269
325.71	0.271
326.18	0.268
326.64	0.265
327.11	0.265
327.58	0.262
328.04	0.265
328.51	0.260
328.97	0.261
329.44	0.255
329.90	0.254
330.37	0.253
330.83	0.252
331.30	0.248
331.76	0.248
332.23	0.248
332.69	0.246
333.16	0.246
333.62	0.241
334.09	0.240
334.56	0.240
335.02	0.236
335.49	0.235
335.95	0.230
336.42	0.232
336.88	0.229
337.35	0.225
337.81	0.224
338.28	0.225
338.74	0.224
339.20	0.225
339.67	0.224
340.13	0.224
340.60	0.222
341.06	0.218
341.53	0.214
341.99	0.212
342.46	0.214
342.92	0.211
343.39	0.211
343.85	0.208
344.32	0.207
344.78	0.207
345.25	0.209
345.71	0.208
346.17	0.211
346.64	0.209
347.10	0.205
347.57	0.202
348.03	0.196
348.50	0.200
348.96	0.202
349.43	0.201
349.89	0.201
350.35	0.201
350.82	0.200
351.28	0.201
351.75	0.195
352.21	0.199
352.67	0.193
353.14	0.197
353.60	0.195
354.07	0.195
354.53	0.192
355.00	0.193
355.46	0.191
355.92	0.188
356.39	0.189
356.85	0.187
357.31	0.183
357.78	0.182
358.24	0.181
358.71	0.184
359.17	0.184
359.63	0.180
360.10	0.181
360.56	0.181
361.03	0.180
361.49	0.179
361.95	0.179
362.42	0.180
362.88	0.180
363.34	0.181
363.81	0.179
364.27	0.176
364.73	0.179
365.20	0.175
365.66	0.175
366.12	0.176
366.59	0.176
367.05	0.176
367.51	0.176
367.98	0.173
368.44	0.176
368.90	0.176
369.37	0.174
369.83	0.173
370.29	0.172
370.76	0.171
371.22	0.172
371.68	0.171
372.15	0.168
372.61	0.167
373.07	0.169
373.54	0.167
374.00	0.168
374.46	0.170
374.92	0.169
375.39	0.168
375.85	0.168
376.31	0.169
376.78	0.168
377.24	0.168
377.70	0.166
378.16	0.166
378.63	0.167
379.09	0.168
379.55	0.166
380.01	0.169
380.48	0.168
380.94	0.165
381.40	0.165
381.87	0.168
382.33	0.166
382.79	0.163
383.25	0.166
383.72	0.167
384.18	0.164
384.64	0.165
385.10	0.165
385.56	0.162
386.03	0.162
386.49	0.160
386.95	0.163
387.41	0.163
387.88	0.158
388.34	0.158
388.80	0.163
389.26	0.161
389.72	0.163
390.19	0.160
390.65	0.159
391.11	0.157
391.57	0.159
392.04	0.161
392.50	0.160
392.96	0.159
393.42	0.158
393.88	0.161
394.34	0.157
394.81	0.159
395.27	0.157
395.73	0.156
396.19	0.158
396.65	0.156
397.12	0.157
397.58	0.156
398.04	0.155
398.50	0.153
398.96	0.156
399.42	0.157
399.89	0.158
400.35	0.156
400.81	0.153
401.27	0.155
401.73	0.154
402.19	0.154
402.65	0.149
403.12	0.151
403.58	0.153
404.04	0.149
404.50	0.149
404.96	0.148
405.42	0.150
405.88	0.150
406.34	0.152
406.81	0.151
407.27	0.149
407.73	0.146
408.19	0.151
408.65	0.147
409.11	0.147
409.57	0.144
410.03	0.149
410.49	0.147
410.96	0.149
411.42	0.147
411.88	0.145
412.34	0.141
412.80	0.145
413.26	0.145
413.72	0.144
414.18	0.141
414.64	0.146
415.10	0.144
415.56	0.147
416.02	0.142
416.48	0.143
416.95	0.145
417.41	0.142
417.87	0.144
418.33	0.143
418.79	0.142
419.25	0.145
419.71	0.140
420.17	0.140
420.63	0.138
421.09	0.137
421.55	0.140
422.01	0.142
422.47	0.146
422.93	0.143
423.39	0.143
423.85	0.139
424.31	0.140
424.77	0.137
425.23	0.141
425.69	0.141
426.15	0.143
426.61	0.141
427.07	0.137
427.53	0.138
427.99	0.138
428.45	0.140
428.91	0.137
429.37	0.138
429.83	0.138
430.29	0.140
430.75	0.140
431.21	0.142
431.67	0.143
432.13	0.142
432.59	0.138
433.05	0.138
433.51	0.135
433.97	0.133
434.43	0.143
434.89	0.144
435.35	0.138
435.81	0.139
436.27	0.141
436.73	0.138
437.19	0.140
437.65	0.138
438.11	0.139
438.57	0.139
439.03	0.137
439.48	0.137
439.94	0.137
440.40	0.138
440.86	0.134
441.32	0.138
441.78	0.136
442.24	0.138
442.70	0.137
443.16	0.135
443.62	0.136
444.08	0.136
444.54	0.137
444.99	0.138
445.45	0.133
445.91	0.134
446.37	0.134
446.83	0.133
447.29	0.134
447.75	0.135
448.21	0.138
448.67	0.135
449.12	0.136
449.58	0.132
450.04	0.138
450.50	0.135
450.96	0.134
451.42	0.135
451.88	0.134
452.34	0.131
452.79	0.133
453.25	0.135
453.71	0.136
454.17	0.132
454.63	0.137
455.09	0.134
455.55	0.132
456.00	0.133
456.46	0.134
456.92	0.134
457.38	0.133
457.84	0.133
458.30	0.133
458.75	0.131
459.21	0.128
459.67	0.130
460.13	0.132
460.59	0.131
461.04	0.131
461.50	0.130
461.96	0.129
462.42	0.129
462.88	0.131
463.33	0.131
463.79	0.130
464.25	0.129
464.71	0.133
465.17	0.131
465.62	0.131
466.08	0.133
466.54	0.132
467.00	0.131
467.46	0.132
467.91	0.133
468.37	0.134
468.83	0.133
469.29	0.134
469.74	0.132
470.20	0.133
470.66	0.132
471.12	0.133
471.57	0.131
472.03	0.131
472.49	0.132
472.95	0.134
473.40	0.133
473.86	0.133
474.32	0.132
474.78	0.132
475.23	0.132
475.69	0.130
476.15	0.134
476.60	0.134
477.06	0.131
477.52	0.132
477.98	0.132
478.43	0.133
478.89	0.131
479.35	0.134
479.80	0.131
480.26	0.131
480.72	0.130
481.18	0.131
481.63	0.134
482.09	0.130
482.55	0.131
483.00	0.130
483.46	0.130
483.92	0.128
484.37	0.130
484.83	0.130
485.29	0.132
485.74	0.128
486.20	0.130
486.66	0.132
487.11	0.129
487.57	0.130
488.03	0.129
488.48	0.132
488.94	0.129
489.40	0.130
489.85	0.131
490.31	0.130
490.77	0.129
491.22	0.131
491.68	0.129
492.13	0.130
492.59	0.134
493.05	0.129
493.50	0.128
493.96	0.128
494.42	0.132
494.87	0.130
495.33	0.129
495.78	0.129
496.24	0.130
496.70	0.132
497.15	0.130
497.61	0.131
498.06	0.129
498.52	0.128
498.98	0.129
499.43	0.129
499.89	0.128
500.34	0.126
500.80	0.128
501.25	0.127
501.71	0.128
502.17	0.127
502.62	0.127
503.08	0.127
503.53	0.127
503.99	0.128
504.44	0.128
504.90	0.126
505.36	0.125
505.81	0.129
506.27	0.127
506.72	0.126
507.18	0.128
507.63	0.127
508.09	0.128
508.54	0.126
509.00	0.128
509.45	0.125
509.91	0.126
510.36	0.126
510.82	0.129
511.27	0.126
511.73	0.127
512.19	0.128
512.64	0.126
513.10	0.127
513.55	0.125
514.01	0.129
514.46	0.128
514.92	0.126
515.37	0.130
515.83	0.126
516.28	0.127
516.73	0.126
517.19	0.126
517.64	0.127
518.10	0.126
518.55	0.126
519.01	0.126
519.46	0.124
519.92	0.125
520.37	0.124
520.83	0.124
521.28	0.121
521.74	0.124
522.19	0.124
522.65	0.125
523.10	0.122
523.55	0.127
524.01	0.124
524.46	0.125
524.92	0.122
525.37	0.125
525.83	0.126
526.28	0.125
526.73	0.126
527.19	0.125
527.64	0.124
528.10	0.126
528.55	0.126
529.01	0.125
529.46	0.124
529.91	0.124
530.37	0.126
530.82	0.124
531.28	0.125
531.73	0.126
532.18	0.125
532.64	0.126
533.09	0.127
533.54	0.125
534.00	0.125
534.45	0.128
534.91	0.124
535.36	0.127
535.81	0.124
536.27	0.125
536.72	0.125
537.17	0.125
537.63	0.127
538.08	0.127
538.54	0.128
538.99	0.129
539.44	0.128
539.90	0.128
540.35	0.127
540.80	0.125
541.26	0.127
541.71	0.131
542.16	0.128
542.62	0.132
543.07	0.130
543.52	0.130
543.98	0.127
544.43	0.129
544.88	0.129
545.34	0.131
545.79	0.130
546.24	0.129
546.69	0.130
547.15	0.131
547.60	0.131
548.05	0.131
548.51	0.132
548.96	0.132
549.41	0.131
549.86	0.133
550.32	0.135
550.77	0.135
551.22	0.133
551.68	0.135
552.13	0.134
552.58	0.136
553.03	0.138
553.49	0.135
553.94	0.135
554.39	0.136
554.84	0.139
555.30	0.138
555.75	0.138
556.20	0.140
556.65	0.139
557.11	0.139
557.56	0.141
558.01	0.142
558.46	0.140
558.92	0.142
559.37	0.143
559.82	0.143
560.27	0.144
560.72	0.144
561.18	0.145
561.63	0.143
562.08	0.145
562.53	0.144
562.99	0.145
563.44	0.146
563.89	0.144
564.34	0.149
564.79	0.148
565.25	0.149
565.70	0.150
566.15	0.148
566.60	0.151
567.05	0.149
567.50	0.153
567.96	0.153
568.41	0.153
568.86	0.154
569.31	0.155
569.76	0.154
570.21	0.155
570.67	0.153
571.12	0.155
571.57	0.155
572.02	0.157
572.47	0.158
572.92	0.157
573.37	0.162
573.83	0.160
574.28	0.162
574.73	0.161
575.18	0.162
575.63	0.162
576.08	0.163
576.53	0.163
576.98	0.166
577.44	0.167
577.89	0.167
578.34	0.170
578.79	0.170
579.24	0.170
579.69	0.170
580.14	0.172
580.59	0.174
581.04	0.175
581.49	0.173
581.95	0.176
582.40	0.178
582.85	0.180
583.30	0.181
583.75	0.182
584.20	0.182
584.65	0.183
585.10	0.186
585.55	0.188
586.00	0.187
586.45	0.189
586.90	0.191
587.35	0.192
587.80	0.194
588.25	0.195
588.71	0.198
589.16	0.199
589.61	0.197
590.06	0.203
590.51	0.203
590.96	0.205
591.41	0.206
591.86	0.208
592.31	0.210
592.76	0.210
593.21	0.214
593.66	0.214
594.11	0.218
594.56	0.218
595.01	0.222
595.46	0.221
595.91	0.225
596.36	0.224
596.81	0.229
597.26	0.229
597.71	0.230
598.16	0.234
598.61	0.235
599.06	0.234
599.51	0.237
599.96	0.242
600.41	0.242
600.86	0.244
601.31	0.246
601.76	0.249
602.21	0.250
602.65	0.252
603.10	0.253
603.55	0.254
604.00	0.258
604.45	0.257
604.90	0.258
605.35	0.262
605.80	0.263
606.25	0.265
606.70	0.268
607.15	0.265
607.60	0.268
608.05	0.272
608.50	0.270
608.95	0.273
609.39	0.276
609.84	0.274
610.29	0.277
610.74	0.277
611.19	0.279
611.64	0.280
612.09	0.280
612.54	0.282
612.99	0.281
613.44	0.282
613.88	0.282
614.33	0.282
614.78	0.287
615.23	0.286
615.68	0.287
616.13	0.289
616.58	0.288
617.03	0.288
617.47	0.288
617.92	0.292
618.37	0.291
618.82	0.291
619.27	0.293
619.72	0.294
620.17	0.291
620.61	0.293
621.06	0.294
621.51	0.290
621.96	0.293
622.41	0.296
622.86	0.296
623.30	0.298
623.75	0.298
624.20	0.300
624.65	0.300
625.10	0.300
625.54	0.301
625.99	0.300
626.44	0.303
626.89	0.302
627.34	0.304
627.78	0.306
628.23	0.307
628.68	0.307
629.13	0.306
629.58	0.309
630.02	0.311
630.47	0.312
630.92	0.314
631.37	0.317
631.81	0.318
632.26	0.317
632.71	0.320
633.16	0.323
633.61	0.325
634.05	0.325
634.50	0.325
634.95	0.330
635.40	0.332
635.84	0.333
636.29	0.337
636.74	0.338
637.18	0.344
637.63	0.343
638.08	0.345
638.53	0.346
638.97	0.349
639.42	0.353
639.87	0.354
640.32	0.357
640.76	0.360
641.21	0.364
641.66	0.364
642.10	0.368
642.55	0.371
643.00	0.371
643.44	0.376
643.89	0.381
644.34	0.381
644.79	0.386
645.23	0.387
645.68	0.389
646.13	0.393
646.57	0.399
647.02	0.399
647.47	0.403
647.91	0.405
648.36	0.409
648.81	0.411
649.25	0.414
649.70	0.417
650.15	0.417
650.59	0.422
651.04	0.427
651.48	0.428
651.93	0.429
652.38	0.433
652.82	0.438
653.27	0.436
653.72	0.440
654.16	0.442
654.61	0.446
655.06	0.444
655.50	0.447
655.95	0.446
656.39	0.447
656.84	0.458
657.29	0.461
657.73	0.459
658.18	0.461
658.62	0.458
659.07	0.465
659.52	0.467
659.96	0.466
660.41	0.467
660.85	0.469
661.30	0.474
661.74	0.475
662.19	0.476
662.64	0.475
663.08	0.473
663.53	0.472
663.97	0.475
664.42	0.473
664.86	0.473
665.31	0.474
665.75	0.475
666.20	0.471
666.65	0.472
667.09	0.473
667.54	0.470
667.98	0.465
668.43	0.465
668.87	0.462
669.32	0.461
669.76	0.458
670.21	0.457
670.65	0.451
671.10	0.448
671.54	0.446
671.99	0.443
672.43	0.435
672.88	0.432
673.32	0.426
673.77	0.424
674.21	0.415
674.66	0.408
675.10	0.404
675.55	0.399
675.99	0.390
676.44	0.383
676.88	0.380
677.33	0.371
677.77	0.363
678.22	0.358
678.66	0.350
679.11	0.343
679.55	0.334
679.99	0.327
680.44	0.318
680.88	0.311
681.33	0.306
681.77	0.298
682.22	0.290
682.66	0.283
683.11	0.273
683.55	0.269
683.99	0.262
684.44	0.254
684.88	0.247
685.33	0.242
685.77	0.233
686.21	0.231
686.66	0.224
687.10	0.215
687.55	0.211
687.99	0.205
688.44	0.199
688.88	0.196
689.32	0.192
689.77	0.186
690.21	0.182
690.65	0.176
691.10	0.172
691.54	0.170
691.99	0.162
692.43	0.160
692.87	0.158
693.32	0.153
693.76	0.150
694.20	0.148
694.65	0.142
695.09	0.140
695.53	0.137
695.98	0.134
696.42	0.135
696.86	0.130
697.31	0.130
697.75	0.126
698.19	0.126
698.64	0.121
699.08	0.120
699.52	0.118
699.97	0.115
700.41	0.116
700.85	0.116
701.30	0.111
701.74	0.112
702.18	0.108
702.63	0.108
703.07	0.106
703.51	0.106
703.96	0.105
704.40	0.104
704.84	0.103
705.28	0.101
705.73	0.102
706.17	0.101
706.61	0.101
707.06	0.100
707.50	0.100
707.94	0.099
708.38	0.096
708.83	0.099
709.27	0.097
709.71	0.095
710.15	0.095
710.60	0.096
711.04	0.093
711.48	0.093
711.92	0.093
712.37	0.093
712.81	0.091
713.25	0.093
713.69	0.091
714.13	0.088
714.58	0.090
715.02	0.087
715.46	0.089
715.90	0.088
716.35	0.089
716.79	0.092
717.23	0.091
717.67	0.092
718.11	0.090
718.56	0.087
719.00	0.088
719.44	0.088
719.88	0.089
720.32	0.092
720.76	0.088
721.21	0.088
721.65	0.089
722.09	0.090
722.53	0.088
722.97	0.088
723.41	0.089
723.86	0.089
724.30	0.087
724.74	0.090
725.18	0.088
725.62	0.089
726.06	0.091
726.50	0.090
726.95	0.088
727.39	0.090
727.83	0.089
728.27	0.091
728.71	0.089
729.15	0.090
729.59	0.087
730.03	0.088
730.48	0.089
730.92	0.093
731.36	0.088
731.80	0.089
732.24	0.094
732.68	0.091
733.12	0.090
733.56	0.093
734.00	0.092
734.44	0.090
734.89	0.091
735.33	0.090
735.77	0.092
736.21	0.091
736.65	0.091
737.09	0.094
737.53	0.092
737.97	0.092
738.41	0.090
738.85	0.091
739.29	0.092
739.73	0.092
740.17	0.090
740.61	0.090
741.05	0.093
741.49	0.091
741.93	0.092
742.37	0.094
742.81	0.091
743.26	0.091
743.70	0.092
744.14	0.093
744.58	0.089
745.02	0.092
745.46	0.093
745.90	0.090
746.34	0.092
746.78	0.094
747.22	0.090
747.66	0.090
748.10	0.091
748.54	0.093
748.98	0.089
749.42	0.093
749.86	0.095
750.29	0.092
750.73	0.092
751.17	0.091
751.61	0.094
752.05	0.090
752.49	0.091
752.93	0.090
753.37	0.093
753.81	0.091
754.25	0.090
754.69	0.090
755.13	0.094
755.57	0.089
756.01	0.091
756.45	0.089
756.89	0.092
757.33	0.089
757.77	0.091
758.21	0.091
758.64	0.088
759.08	0.088
759.52	0.089
759.96	0.091
760.40	0.089
760.84	0.089
761.28	0.088
761.72	0.088
762.16	0.085
762.60	0.088
763.03	0.089
763.47	0.089
763.91	0.089
764.35	0.090
764.79	0.090
765.23	0.089
765.67	0.088
766.11	0.092
766.54	0.088
766.98	0.086
767.42	0.089
767.86	0.091
768.30	0.090
768.74	0.089
769.17	0.089
769.61	0.088
770.05	0.088
770.49	0.092
770.93	0.090
771.37	0.092
771.80	0.087
772.24	0.086
772.68	0.086
773.12	0.086
773.56	0.090
774.00	0.090
774.43	0.088
774.87	0.089
775.31	0.091
775.75	0.086
776.19	0.087
776.62	0.088
777.06	0.086
777.50	0.091
777.94	0.085
778.37	0.089
778.81	0.089
779.25	0.086
779.69	0.088
780.13	0.089
780.56	0.086
781.00	0.087
781.44	0.088
781.88	0.088
782.31	0.085
782.75	0.084
783.19	0.088
783.63	0.089
784.06	0.089
784.50	0.089
784.94	0.091
785.37	0.086
785.81	0.087
786.25	0.087
786.69	0.088
787.12	0.091
787.56	0.090
788.00	0.089
788.43	0.088
788.87	0.088
789.31	0.089
789.75	0.087
790.18	0.087
790.62	0.089
791.06	0.089
791.49	0.088
791.93	0.085
792.37	0.087
792.80	0.088
793.24	0.087
793.68	0.090
794.11	0.091
794.55	0.089
794.99	0.087
795.42	0.091
795.86	0.093
796.30	0.090
796.73	0.085
797.17	0.090
797.61	0.088
798.04	0.087
798.48	0.087
798.91	0.089
799.35	0.087
799.79	0.085
800.22	0.088
800.66	0.088
801.10	0.088
801.53	0.092
801.97	0.091
802.40	0.084
802.84	0.088
803.28	0.085
803.71	0.087
804.15	0.090
804.58	0.095
805.02	0.089
805.46	0.086
805.89	0.085
806.33	0.090
806.76	0.084
807.20	0.087
807.63	0.087
808.07	0.088
808.51	0.090
808.94	0.088
809.38	0.089
809.81	0.092
810.25	0.086
810.68	0.089
811.12	0.088
811.55	0.088
811.99	0.087
812.42	0.091
812.86	0.089
813.29	0.088
813.73	0.087
814.17	0.084
814.60	0.087
815.04	0.086
