SpectraSuite Data File
++++++++++++++++++++++++++++++++++++
Date: Wed May 04 14:35:20 CEST 2016
User: spectrasuite
Dark Spectrum Present: Yes
Reference Spectrum Present: Yes
Number of Sampled Component Spectra: 1
Spectrometers: HR+C0708
Integration Time (usec): 1000 (HR+C0708)
Spectra Averaged: 10 (HR+C0708)
Boxcar Smoothing: 0 (HR+C0708)
Correct for Electrical Dark: No (HR+C0708)
Strobe/Lamp Enabled: No (HR+C0708)
Correct for Detector Non-linearity: No (HR+C0708)
Correct for Stray Light: No (HR+C0708)
Number of Pixels in Processed Spectrum: 2048
>>>>>Begin Processed Spectral Data<<<<<
188.76	-0.000
189.23	-0.000
189.70	-0.000
190.17	-0.000
190.64	-0.000
191.12	-0.000
191.59	-0.000
192.06	-0.000
192.53	-0.000
193.01	-0.000
193.48	-0.000
193.95	-0.000
194.42	-0.000
194.90	-0.000
195.37	-0.000
195.84	-0.000
196.31	-0.000
196.78	-0.000
197.26	-0.000
197.73	-0.000
198.20	-0.000
198.67	-0.000
199.14	-0.000
199.62	-0.000
200.09	-0.000
200.56	-0.000
201.03	1.187
201.50	0.776
201.97	1.220
202.45	1.052
202.92	1.165
203.39	0.815
203.86	1.371
204.33	0.804
204.80	0.859
205.28	0.788
205.75	-0.000
206.22	1.095
206.69	0.854
207.16	0.696
207.63	1.733
208.11	0.835
208.58	1.007
209.05	0.890
209.52	1.124
209.99	1.134
210.46	0.451
210.93	-0.000
211.41	0.708
211.88	1.059
212.35	-0.000
212.82	-0.000
213.29	0.873
213.76	1.368
214.23	0.968
214.70	-0.000
215.18	0.988
215.65	0.475
216.12	1.285
216.59	0.990
217.06	0.684
217.53	0.984
218.00	0.955
218.47	0.767
218.94	1.044
219.41	0.718
219.89	0.970
220.36	1.029
220.83	0.756
221.30	-0.000
221.77	1.335
222.24	0.714
222.71	2.080
223.18	1.024
223.65	0.592
224.12	0.902
224.59	1.407
225.06	1.143
225.54	0.913
226.01	1.259
226.48	1.132
226.95	1.115
227.42	1.022
227.89	-0.000
228.36	1.325
228.83	1.364
229.30	1.295
229.77	1.496
230.24	1.356
230.71	1.429
231.18	1.456
231.65	2.717
232.12	1.856
232.59	1.780
233.06	1.991
233.53	1.969
234.00	1.601
234.47	2.691
234.94	2.408
235.41	1.851
235.88	1.990
236.35	1.979
236.82	2.088
237.29	2.222
237.76	2.121
238.23	4.248
238.70	2.566
239.17	2.023
239.64	-0.000
240.11	3.207
240.58	2.238
241.05	2.540
241.52	2.395
241.99	2.353
242.46	2.266
242.93	2.189
243.40	-0.000
243.87	2.478
244.34	2.362
244.81	2.734
245.28	2.471
245.75	2.421
246.22	2.643
246.69	3.008
247.16	2.677
247.63	2.630
248.10	2.447
248.57	-0.000
249.04	2.506
249.51	2.307
249.98	3.752
250.45	2.564
250.92	2.330
251.39	2.478
251.85	2.335
252.32	2.229
252.79	2.042
253.26	1.856
253.73	1.802
254.20	1.731
254.67	1.579
255.14	1.577
255.61	1.481
256.08	1.402
256.55	1.357
257.02	1.313
257.49	1.253
257.95	1.222
258.42	1.168
258.89	1.144
259.36	1.109
259.83	1.079
260.30	1.059
260.77	1.032
261.24	1.005
261.71	0.991
262.17	0.967
262.64	0.953
263.11	0.936
263.58	0.917
264.05	0.905
264.52	0.886
264.99	0.868
265.46	0.859
265.92	0.844
266.39	0.834
266.86	0.827
267.33	0.812
267.80	0.801
268.27	0.797
268.74	0.784
269.20	0.769
269.67	0.771
270.14	0.759
270.61	0.752
271.08	0.740
271.55	0.732
272.01	0.730
272.48	0.719
272.95	0.707
273.42	0.703
273.89	0.701
274.36	0.694
274.82	0.691
275.29	0.686
275.76	0.679
276.23	0.679
276.70	0.669
277.16	0.669
277.63	0.664
278.10	0.661
278.57	0.661
279.04	0.658
279.50	0.655
279.97	0.650
280.44	0.648
280.91	0.647
281.38	0.650
281.84	0.644
282.31	0.645
282.78	0.643
283.25	0.641
283.72	0.639
284.18	0.640
284.65	0.638
285.12	0.640
285.59	0.639
286.05	0.640
286.52	0.639
286.99	0.640
287.46	0.639
287.92	0.638
288.39	0.639
288.86	0.639
289.33	0.638
289.79	0.639
290.26	0.638
290.73	0.637
291.20	0.632
291.66	0.633
292.13	0.630
292.60	0.626
293.07	0.622
293.53	0.614
294.00	0.613
294.47	0.609
294.93	0.605
295.40	0.598
295.87	0.593
296.34	0.582
296.80	0.577
297.27	0.565
297.74	0.559
298.20	0.552
298.67	0.542
299.14	0.537
299.60	0.526
300.07	0.517
300.54	0.513
301.01	0.505
301.47	0.494
301.94	0.487
302.41	0.475
302.87	0.471
303.34	0.463
303.81	0.453
304.27	0.447
304.74	0.443
305.21	0.430
305.67	0.427
306.14	0.420
306.61	0.416
307.07	0.412
307.54	0.404
308.01	0.397
308.47	0.392
308.94	0.386
309.40	0.383
309.87	0.379
310.34	0.377
310.80	0.372
311.27	0.365
311.74	0.364
312.20	0.359
312.67	0.358
313.13	0.354
313.60	0.352
314.07	0.348
314.53	0.347
315.00	0.341
315.47	0.342
315.93	0.343
316.40	0.338
316.86	0.336
317.33	0.333
317.80	0.333
318.26	0.330
318.73	0.333
319.19	0.332
319.66	0.327
320.13	0.326
320.59	0.324
321.06	0.325
321.52	0.322
321.99	0.322
322.45	0.319
322.92	0.318
323.39	0.317
323.85	0.315
324.32	0.313
324.78	0.311
325.25	0.309
325.71	0.309
326.18	0.305
326.64	0.306
327.11	0.299
327.58	0.304
328.04	0.304
328.51	0.300
328.97	0.299
329.44	0.295
329.90	0.292
330.37	0.291
330.83	0.292
331.30	0.290
331.76	0.286
332.23	0.285
332.69	0.284
333.16	0.284
333.62	0.279
334.09	0.275
334.56	0.276
335.02	0.271
335.49	0.270
335.95	0.268
336.42	0.269
336.88	0.264
337.35	0.262
337.81	0.259
338.28	0.260
338.74	0.261
339.20	0.261
339.67	0.259
340.13	0.260
340.60	0.257
341.06	0.253
341.53	0.251
341.99	0.247
342.46	0.247
342.92	0.248
343.39	0.244
343.85	0.240
344.32	0.241
344.78	0.242
345.25	0.246
345.71	0.241
346.17	0.244
346.64	0.247
347.10	0.242
347.57	0.236
348.03	0.233
348.50	0.236
348.96	0.233
349.43	0.233
349.89	0.233
350.35	0.229
350.82	0.230
351.28	0.231
351.75	0.231
352.21	0.236
352.67	0.225
353.14	0.229
353.60	0.224
354.07	0.221
354.53	0.224
355.00	0.223
355.46	0.219
355.92	0.217
356.39	0.217
356.85	0.214
357.31	0.209
357.78	0.210
358.24	0.212
358.71	0.214
359.17	0.211
359.63	0.208
360.10	0.209
360.56	0.202
361.03	0.202
361.49	0.199
361.95	0.198
362.42	0.200
362.88	0.201
363.34	0.198
363.81	0.197
364.27	0.195
364.73	0.194
365.20	0.192
365.66	0.189
366.12	0.190
366.59	0.189
367.05	0.189
367.51	0.187
367.98	0.186
368.44	0.184
368.90	0.182
369.37	0.182
369.83	0.183
370.29	0.183
370.76	0.180
371.22	0.178
371.68	0.180
372.15	0.179
372.61	0.177
373.07	0.180
373.54	0.179
374.00	0.179
374.46	0.178
374.92	0.178
375.39	0.177
375.85	0.177
376.31	0.174
376.78	0.178
377.24	0.176
377.70	0.176
378.16	0.176
378.63	0.175
379.09	0.176
379.55	0.175
380.01	0.178
380.48	0.176
380.94	0.176
381.40	0.173
381.87	0.174
382.33	0.173
382.79	0.171
383.25	0.174
383.72	0.174
384.18	0.171
384.64	0.173
385.10	0.171
385.56	0.169
386.03	0.173
386.49	0.169
386.95	0.170
387.41	0.169
387.88	0.167
388.34	0.166
388.80	0.170
389.26	0.168
389.72	0.169
390.19	0.165
390.65	0.169
391.11	0.166
391.57	0.165
392.04	0.167
392.50	0.167
392.96	0.166
393.42	0.165
393.88	0.167
394.34	0.165
394.81	0.165
395.27	0.166
395.73	0.161
396.19	0.164
396.65	0.164
397.12	0.164
397.58	0.163
398.04	0.162
398.50	0.164
398.96	0.163
399.42	0.164
399.89	0.164
400.35	0.163
400.81	0.160
401.27	0.162
401.73	0.160
402.19	0.161
402.65	0.155
403.12	0.158
403.58	0.158
404.04	0.157
404.50	0.156
404.96	0.155
405.42	0.158
405.88	0.156
406.34	0.159
406.81	0.157
407.27	0.155
407.73	0.154
408.19	0.155
408.65	0.152
409.11	0.153
409.57	0.153
410.03	0.155
410.49	0.153
410.96	0.152
411.42	0.153
411.88	0.151
412.34	0.150
412.80	0.151
413.26	0.151
413.72	0.152
414.18	0.149
414.64	0.150
415.10	0.151
415.56	0.150
416.02	0.147
416.48	0.148
416.95	0.150
417.41	0.148
417.87	0.147
418.33	0.146
418.79	0.148
419.25	0.149
419.71	0.147
420.17	0.145
420.63	0.145
421.09	0.144
421.55	0.143
422.01	0.146
422.47	0.151
422.93	0.148
423.39	0.148
423.85	0.145
424.31	0.144
424.77	0.146
425.23	0.147
425.69	0.147
426.15	0.147
426.61	0.146
427.07	0.143
427.53	0.145
427.99	0.144
428.45	0.145
428.91	0.143
429.37	0.143
429.83	0.144
430.29	0.146
430.75	0.147
431.21	0.146
431.67	0.151
432.13	0.146
432.59	0.143
433.05	0.144
433.51	0.141
433.97	0.139
434.43	0.148
434.89	0.144
435.35	0.145
435.81	0.143
436.27	0.144
436.73	0.140
437.19	0.143
437.65	0.142
438.11	0.141
438.57	0.142
439.03	0.140
439.48	0.141
439.94	0.141
440.40	0.142
440.86	0.141
441.32	0.141
441.78	0.141
442.24	0.144
442.70	0.140
443.16	0.141
443.62	0.144
444.08	0.138
444.54	0.141
444.99	0.142
445.45	0.138
445.91	0.138
446.37	0.138
446.83	0.139
447.29	0.140
447.75	0.138
448.21	0.143
448.67	0.140
449.12	0.137
449.58	0.137
450.04	0.138
450.50	0.139
450.96	0.137
451.42	0.138
451.88	0.140
452.34	0.135
452.79	0.137
453.25	0.140
453.71	0.138
454.17	0.136
454.63	0.139
455.09	0.137
455.55	0.136
456.00	0.135
456.46	0.137
456.92	0.134
457.38	0.136
457.84	0.136
458.30	0.139
458.75	0.134
459.21	0.135
459.67	0.138
460.13	0.136
460.59	0.135
461.04	0.137
461.50	0.134
461.96	0.136
462.42	0.136
462.88	0.137
463.33	0.137
463.79	0.136
464.25	0.137
464.71	0.138
465.17	0.137
465.62	0.136
466.08	0.137
466.54	0.138
467.00	0.138
467.46	0.138
467.91	0.139
468.37	0.138
468.83	0.137
469.29	0.136
469.74	0.137
470.20	0.137
470.66	0.139
471.12	0.137
471.57	0.136
472.03	0.137
472.49	0.136
472.95	0.139
473.40	0.138
473.86	0.138
474.32	0.137
474.78	0.135
475.23	0.138
475.69	0.136
476.15	0.137
476.60	0.138
477.06	0.138
477.52	0.136
477.98	0.137
478.43	0.137
478.89	0.138
479.35	0.139
479.80	0.138
480.26	0.134
480.72	0.135
481.18	0.135
481.63	0.138
482.09	0.137
482.55	0.135
483.00	0.134
483.46	0.136
483.92	0.136
484.37	0.135
484.83	0.136
485.29	0.136
485.74	0.135
486.20	0.136
486.66	0.136
487.11	0.135
487.57	0.134
488.03	0.136
488.48	0.138
488.94	0.133
489.40	0.134
489.85	0.136
490.31	0.136
490.77	0.134
491.22	0.136
491.68	0.136
492.13	0.134
492.59	0.138
493.05	0.133
493.50	0.134
493.96	0.135
494.42	0.135
494.87	0.137
495.33	0.135
495.78	0.133
496.24	0.136
496.70	0.138
497.15	0.134
497.61	0.136
498.06	0.134
498.52	0.136
498.98	0.134
499.43	0.135
499.89	0.134
500.34	0.133
500.80	0.134
501.25	0.134
501.71	0.132
502.17	0.132
502.62	0.133
503.08	0.133
503.53	0.132
503.99	0.132
504.44	0.133
504.90	0.130
505.36	0.133
505.81	0.133
506.27	0.133
506.72	0.132
507.18	0.132
507.63	0.133
508.09	0.131
508.54	0.131
509.00	0.132
509.45	0.132
509.91	0.132
510.36	0.132
510.82	0.136
511.27	0.131
511.73	0.132
512.19	0.131
512.64	0.131
513.10	0.131
513.55	0.129
514.01	0.133
514.46	0.131
514.92	0.130
515.37	0.133
515.83	0.129
516.28	0.130
516.73	0.132
517.19	0.129
517.64	0.131
518.10	0.132
518.55	0.132
519.01	0.131
519.46	0.129
519.92	0.129
520.37	0.129
520.83	0.130
521.28	0.128
521.74	0.129
522.19	0.131
522.65	0.129
523.10	0.129
523.55	0.129
524.01	0.131
524.46	0.129
524.92	0.128
525.37	0.131
525.83	0.130
526.28	0.130
526.73	0.130
527.19	0.128
527.64	0.129
528.10	0.131
528.55	0.132
529.01	0.131
529.46	0.131
529.91	0.129
530.37	0.131
530.82	0.131
531.28	0.132
531.73	0.130
532.18	0.131
532.64	0.129
533.09	0.130
533.54	0.131
534.00	0.134
534.45	0.131
534.91	0.130
535.36	0.131
535.81	0.129
536.27	0.130
536.72	0.131
537.17	0.129
537.63	0.132
538.08	0.134
538.54	0.133
538.99	0.134
539.44	0.133
539.90	0.131
540.35	0.133
540.80	0.130
541.26	0.134
541.71	0.137
542.16	0.135
542.62	0.136
543.07	0.134
543.52	0.135
543.98	0.133
544.43	0.136
544.88	0.135
545.34	0.137
545.79	0.136
546.24	0.135
546.69	0.137
547.15	0.138
547.60	0.136
548.05	0.138
548.51	0.137
548.96	0.138
549.41	0.139
549.86	0.137
550.32	0.143
550.77	0.139
551.22	0.138
551.68	0.138
552.13	0.141
552.58	0.141
553.03	0.141
553.49	0.140
553.94	0.142
554.39	0.143
554.84	0.143
555.30	0.143
555.75	0.144
556.20	0.144
556.65	0.147
557.11	0.146
557.56	0.144
558.01	0.150
558.46	0.147
558.92	0.150
559.37	0.152
559.82	0.149
560.27	0.149
560.72	0.150
561.18	0.150
561.63	0.153
562.08	0.152
562.53	0.151
562.99	0.153
563.44	0.155
563.89	0.154
564.34	0.157
564.79	0.156
565.25	0.156
565.70	0.157
566.15	0.155
566.60	0.160
567.05	0.158
567.50	0.160
567.96	0.161
568.41	0.162
568.86	0.163
569.31	0.163
569.76	0.162
570.21	0.164
570.67	0.163
571.12	0.165
571.57	0.165
572.02	0.166
572.47	0.168
572.92	0.170
573.37	0.173
573.83	0.170
574.28	0.172
574.73	0.169
575.18	0.171
575.63	0.174
576.08	0.174
576.53	0.174
576.98	0.175
577.44	0.178
577.89	0.177
578.34	0.178
578.79	0.180
579.24	0.181
579.69	0.181
580.14	0.184
580.59	0.184
581.04	0.185
581.49	0.186
581.95	0.187
582.40	0.189
582.85	0.191
583.30	0.190
583.75	0.195
584.20	0.195
584.65	0.195
585.10	0.198
585.55	0.198
586.00	0.201
586.45	0.202
586.90	0.205
587.35	0.204
587.80	0.207
588.25	0.207
588.71	0.211
589.16	0.213
589.61	0.213
590.06	0.216
590.51	0.215
590.96	0.218
591.41	0.222
591.86	0.223
592.31	0.225
592.76	0.227
593.21	0.227
593.66	0.232
594.11	0.233
594.56	0.235
595.01	0.235
595.46	0.239
595.91	0.240
596.36	0.241
596.81	0.245
597.26	0.246
597.71	0.247
598.16	0.249
598.61	0.254
599.06	0.254
599.51	0.257
599.96	0.259
600.41	0.260
600.86	0.263
601.31	0.263
601.76	0.267
602.21	0.269
602.65	0.274
603.10	0.273
603.55	0.274
604.00	0.278
604.45	0.278
604.90	0.278
605.35	0.283
605.80	0.282
606.25	0.283
606.70	0.288
607.15	0.287
607.60	0.290
608.05	0.292
608.50	0.292
608.95	0.295
609.39	0.297
609.84	0.299
610.29	0.298
610.74	0.298
611.19	0.301
611.64	0.302
612.09	0.305
612.54	0.305
612.99	0.306
613.44	0.309
613.88	0.307
614.33	0.307
614.78	0.312
615.23	0.312
615.68	0.311
616.13	0.311
616.58	0.312
617.03	0.313
617.47	0.313
617.92	0.315
618.37	0.317
618.82	0.316
619.27	0.316
619.72	0.319
620.17	0.317
620.61	0.319
621.06	0.318
621.51	0.318
621.96	0.322
622.41	0.320
622.86	0.322
623.30	0.322
623.75	0.322
624.20	0.323
624.65	0.325
625.10	0.326
625.54	0.325
625.99	0.323
626.44	0.328
626.89	0.329
627.34	0.329
627.78	0.330
628.23	0.331
628.68	0.332
629.13	0.334
629.58	0.334
630.02	0.337
630.47	0.338
630.92	0.338
631.37	0.343
631.81	0.343
632.26	0.344
632.71	0.347
633.16	0.348
633.61	0.349
634.05	0.355
634.50	0.353
634.95	0.355
635.40	0.359
635.84	0.362
636.29	0.365
636.74	0.366
637.18	0.369
637.63	0.370
638.08	0.373
638.53	0.374
638.97	0.377
639.42	0.380
639.87	0.383
640.32	0.387
640.76	0.390
641.21	0.393
641.66	0.394
642.10	0.398
642.55	0.402
643.00	0.404
643.44	0.408
643.89	0.412
644.34	0.413
644.79	0.418
645.23	0.421
645.68	0.424
646.13	0.426
646.57	0.432
647.02	0.431
647.47	0.438
647.91	0.441
648.36	0.443
648.81	0.448
649.25	0.450
649.70	0.451
650.15	0.459
650.59	0.460
651.04	0.464
651.48	0.466
651.93	0.469
652.38	0.471
652.82	0.476
653.27	0.476
653.72	0.482
654.16	0.483
654.61	0.484
655.06	0.488
655.50	0.490
655.95	0.491
656.39	0.491
656.84	0.498
657.29	0.502
657.73	0.504
658.18	0.504
658.62	0.507
659.07	0.510
659.52	0.512
659.96	0.515
660.41	0.514
660.85	0.515
661.30	0.518
661.74	0.521
662.19	0.522
662.64	0.522
663.08	0.521
663.53	0.521
663.97	0.522
664.42	0.520
664.86	0.522
665.31	0.523
665.75	0.518
666.20	0.518
666.65	0.521
667.09	0.522
667.54	0.521
667.98	0.515
668.43	0.518
668.87	0.514
669.32	0.509
669.76	0.507
670.21	0.505
670.65	0.499
671.10	0.496
671.54	0.492
671.99	0.492
672.43	0.482
672.88	0.476
673.32	0.472
673.77	0.466
674.21	0.461
674.66	0.454
675.10	0.448
675.55	0.438
675.99	0.432
676.44	0.424
676.88	0.419
677.33	0.409
677.77	0.398
678.22	0.394
678.66	0.385
679.11	0.375
679.55	0.367
679.99	0.359
680.44	0.349
680.88	0.343
681.33	0.335
681.77	0.326
682.22	0.317
682.66	0.310
683.11	0.300
683.55	0.293
683.99	0.285
684.44	0.279
684.88	0.271
685.33	0.264
685.77	0.256
686.21	0.248
686.66	0.243
687.10	0.234
687.55	0.230
687.99	0.221
688.44	0.216
688.88	0.209
689.32	0.205
689.77	0.200
690.21	0.192
690.65	0.187
691.10	0.185
691.54	0.179
691.99	0.176
692.43	0.170
692.87	0.166
693.32	0.162
693.76	0.159
694.20	0.155
694.65	0.152
695.09	0.147
695.53	0.143
695.98	0.142
696.42	0.141
696.86	0.138
697.31	0.136
697.75	0.133
698.19	0.131
698.64	0.128
699.08	0.126
699.52	0.123
699.97	0.122
700.41	0.120
700.85	0.117
701.30	0.114
701.74	0.114
702.18	0.112
702.63	0.110
703.07	0.109
703.51	0.110
703.96	0.110
704.40	0.107
704.84	0.107
705.28	0.102
705.73	0.106
706.17	0.101
706.61	0.105
707.06	0.099
707.50	0.100
707.94	0.100
708.38	0.097
708.83	0.099
709.27	0.097
709.71	0.099
710.15	0.095
710.60	0.098
711.04	0.092
711.48	0.097
711.92	0.095
712.37	0.093
712.81	0.094
713.25	0.094
713.69	0.091
714.13	0.092
714.58	0.092
715.02	0.090
715.46	0.089
715.90	0.092
716.35	0.091
716.79	0.091
717.23	0.091
717.67	0.089
718.11	0.090
718.56	0.089
719.00	0.091
719.44	0.091
719.88	0.090
720.32	0.090
720.76	0.088
721.21	0.089
721.65	0.090
722.09	0.090
722.53	0.088
722.97	0.087
723.41	0.088
723.86	0.090
724.30	0.086
724.74	0.091
725.18	0.088
725.62	0.088
726.06	0.089
726.50	0.091
726.95	0.089
727.39	0.090
727.83	0.091
728.27	0.090
728.71	0.090
729.15	0.088
729.59	0.088
730.03	0.089
730.48	0.088
730.92	0.091
731.36	0.090
731.80	0.088
732.24	0.094
732.68	0.091
733.12	0.090
733.56	0.094
734.00	0.091
734.44	0.091
734.89	0.091
735.33	0.087
735.77	0.092
736.21	0.089
736.65	0.091
737.09	0.092
737.53	0.093
737.97	0.093
738.41	0.091
738.85	0.089
739.29	0.091
739.73	0.092
740.17	0.090
740.61	0.089
741.05	0.093
741.49	0.091
741.93	0.091
742.37	0.091
742.81	0.094
743.26	0.093
743.70	0.089
744.14	0.093
744.58	0.091
745.02	0.092
745.46	0.091
745.90	0.090
746.34	0.091
746.78	0.093
747.22	0.090
747.66	0.090
748.10	0.089
748.54	0.091
748.98	0.090
749.42	0.091
749.86	0.093
750.29	0.092
750.73	0.093
751.17	0.092
751.61	0.090
752.05	0.088
752.49	0.090
752.93	0.088
753.37	0.094
753.81	0.089
754.25	0.090
754.69	0.091
755.13	0.091
755.57	0.090
756.01	0.088
756.45	0.086
756.89	0.090
757.33	0.088
757.77	0.091
758.21	0.090
758.64	0.086
759.08	0.089
759.52	0.090
759.96	0.088
760.40	0.088
760.84	0.086
761.28	0.089
761.72	0.090
762.16	0.087
762.60	0.089
763.03	0.088
763.47	0.087
763.91	0.089
764.35	0.088
764.79	0.088
765.23	0.089
765.67	0.085
766.11	0.088
766.54	0.088
766.98	0.084
767.42	0.090
767.86	0.089
768.30	0.087
768.74	0.086
769.17	0.089
769.61	0.085
770.05	0.088
770.49	0.090
770.93	0.086
771.37	0.091
771.80	0.087
772.24	0.084
772.68	0.088
773.12	0.087
773.56	0.088
774.00	0.090
774.43	0.088
774.87	0.085
775.31	0.089
775.75	0.084
776.19	0.086
776.62	0.088
777.06	0.084
777.50	0.086
777.94	0.084
778.37	0.087
778.81	0.090
779.25	0.083
779.69	0.087
780.13	0.087
780.56	0.082
781.00	0.087
781.44	0.085
781.88	0.086
782.31	0.084
782.75	0.086
783.19	0.087
783.63	0.088
784.06	0.083
784.50	0.085
784.94	0.087
785.37	0.082
785.81	0.085
786.25	0.087
786.69	0.088
787.12	0.086
787.56	0.085
788.00	0.086
788.43	0.090
788.87	0.086
789.31	0.087
789.75	0.085
790.18	0.087
790.62	0.086
791.06	0.086
791.49	0.088
791.93	0.085
792.37	0.082
792.80	0.088
793.24	0.084
793.68	0.085
794.11	0.089
794.55	0.089
794.99	0.082
795.42	0.088
795.86	0.088
796.30	0.086
796.73	0.085
797.17	0.082
797.61	0.085
798.04	0.086
798.48	0.084
798.91	0.086
799.35	0.086
799.79	0.082
800.22	0.084
800.66	0.083
801.10	0.088
801.53	0.092
801.97	0.087
802.40	0.083
802.84	0.086
803.28	0.083
803.71	0.084
804.15	0.089
804.58	0.088
805.02	0.087
805.46	0.082
805.89	0.083
806.33	0.086
806.76	0.086
807.20	0.086
807.63	0.087
808.07	0.085
808.51	0.084
808.94	0.086
809.38	0.084
809.81	0.090
810.25	0.082
810.68	0.087
811.12	0.084
811.55	0.083
811.99	0.085
812.42	0.090
812.86	0.086
813.29	0.085
813.73	0.086
814.17	0.081
814.60	0.083
815.04	0.085
815.47	0.085
815.91	0.083
816.34	0.084
816.78	0.088
