SpectraSuite Data File
++++++++++++++++++++++++++++++++++++
Date: Wed May 04 15:48:53 CEST 2016
User: spectrasuite
Dark Spectrum Present: Yes
Reference Spectrum Present: Yes
Number of Sampled Component Spectra: 1
Spectrometers: HR+C0708
Integration Time (usec): 1000 (HR+C0708)
Spectra Averaged: 10 (HR+C0708)
Boxcar Smoothing: 0 (HR+C0708)
Correct for Electrical Dark: No (HR+C0708)
Strobe/Lamp Enabled: No (HR+C0708)
Correct for Detector Non-linearity: No (HR+C0708)
Correct for Stray Light: No (HR+C0708)
Number of Pixels in Processed Spectrum: 2048
>>>>>Begin Processed Spectral Data<<<<<
188.76	-0.000
189.23	-0.000
189.70	-0.000
190.17	-0.000
190.64	-0.000
191.12	-0.000
191.59	-0.000
192.06	-0.000
192.53	-0.000
193.01	-0.000
193.48	-0.000
193.95	-0.000
194.42	-0.000
194.90	-0.000
195.37	-0.000
195.84	-0.000
196.31	-0.000
196.78	-0.000
197.26	-0.000
197.73	-0.000
198.20	-0.000
198.67	-0.000
199.14	-0.000
199.62	-0.000
200.09	-0.000
200.56	-0.000
201.03	-0.000
201.50	1.460
201.97	1.220
202.45	-0.000
202.92	-0.000
203.39	-0.000
203.86	-0.000
204.33	-0.000
204.80	-0.000
205.28	1.277
205.75	-0.000
206.22	1.016
206.69	2.712
207.16	-0.000
207.63	-0.000
208.11	-0.000
208.58	-0.000
209.05	-0.000
209.52	-0.000
209.99	-0.000
210.46	1.477
210.93	-0.000
211.41	-0.000
211.88	-0.000
212.35	1.512
212.82	-0.000
213.29	-0.000
213.76	-0.000
214.23	2.099
214.70	-0.000
215.18	1.744
215.65	0.771
216.12	-0.000
216.59	-0.000
217.06	0.741
217.53	-0.000
218.00	1.522
218.47	0.917
218.94	-0.000
219.41	1.051
219.89	1.389
220.36	0.951
220.83	1.300
221.30	-0.000
221.77	-0.000
222.24	1.207
222.71	-0.000
223.18	-0.000
223.65	0.872
224.12	1.122
224.59	1.336
225.06	2.264
225.54	1.065
226.01	-0.000
226.48	-0.000
226.95	-0.000
227.42	1.528
227.89	-0.000
228.36	2.943
228.83	1.622
229.30	-0.000
229.77	-0.000
230.24	1.768
230.71	2.613
231.18	1.960
231.65	-0.000
232.12	-0.000
232.59	2.320
233.06	-0.000
233.53	-0.000
234.00	2.127
234.47	-0.000
234.94	-0.000
235.41	2.734
235.88	2.420
236.35	-0.000
236.82	-0.000
237.29	2.395
237.76	2.181
238.23	-0.000
238.70	-0.000
239.17	2.414
239.64	-0.000
240.11	-0.000
240.58	2.445
241.05	2.894
241.52	3.391
241.99	2.512
242.46	2.708
242.93	2.491
243.40	-0.000
243.87	2.699
244.34	2.447
244.81	4.007
245.28	2.967
245.75	2.679
246.22	3.806
246.69	-0.000
247.16	2.840
247.63	3.278
248.10	2.721
248.57	-0.000
249.04	4.219
249.51	2.620
249.98	-0.000
250.45	3.560
250.92	2.592
251.39	2.544
251.85	2.483
252.32	2.267
252.79	2.147
253.26	1.973
253.73	1.857
254.20	1.703
254.67	1.601
255.14	1.545
255.61	1.450
256.08	1.366
256.55	1.332
257.02	1.279
257.49	1.217
257.95	1.187
258.42	1.139
258.89	1.106
259.36	1.069
259.83	1.042
260.30	1.016
260.77	0.993
261.24	0.970
261.71	0.949
262.17	0.922
262.64	0.909
263.11	0.889
263.58	0.874
264.05	0.857
264.52	0.839
264.99	0.830
265.46	0.819
265.92	0.805
266.39	0.790
266.86	0.782
267.33	0.772
267.80	0.755
268.27	0.756
268.74	0.738
269.20	0.732
269.67	0.722
270.14	0.714
270.61	0.707
271.08	0.697
271.55	0.688
272.01	0.685
272.48	0.675
272.95	0.665
273.42	0.660
273.89	0.659
274.36	0.647
274.82	0.646
275.29	0.638
275.76	0.637
276.23	0.629
276.70	0.625
277.16	0.621
277.63	0.618
278.10	0.615
278.57	0.611
279.04	0.609
279.50	0.602
279.97	0.600
280.44	0.599
280.91	0.596
281.38	0.593
281.84	0.590
282.31	0.589
282.78	0.589
283.25	0.587
283.72	0.587
284.18	0.586
284.65	0.584
285.12	0.586
285.59	0.586
286.05	0.583
286.52	0.581
286.99	0.583
287.46	0.584
287.92	0.580
288.39	0.577
288.86	0.583
289.33	0.575
289.79	0.578
290.26	0.575
290.73	0.575
291.20	0.572
291.66	0.572
292.13	0.566
292.60	0.563
293.07	0.561
293.53	0.555
294.00	0.551
294.47	0.545
294.93	0.543
295.40	0.537
295.87	0.533
296.34	0.522
296.80	0.519
297.27	0.507
297.74	0.499
298.20	0.495
298.67	0.486
299.14	0.477
299.60	0.470
300.07	0.461
300.54	0.455
301.01	0.451
301.47	0.441
301.94	0.435
302.41	0.423
302.87	0.417
303.34	0.416
303.81	0.402
304.27	0.398
304.74	0.391
305.21	0.382
305.67	0.379
306.14	0.374
306.61	0.367
307.07	0.361
307.54	0.359
308.01	0.351
308.47	0.345
308.94	0.344
309.40	0.339
309.87	0.334
310.34	0.331
310.80	0.327
311.27	0.322
311.74	0.321
312.20	0.316
312.67	0.315
313.13	0.312
313.60	0.307
314.07	0.306
314.53	0.303
315.00	0.298
315.47	0.297
315.93	0.300
316.40	0.293
316.86	0.295
317.33	0.289
317.80	0.289
318.26	0.286
318.73	0.288
319.19	0.288
319.66	0.284
320.13	0.283
320.59	0.281
321.06	0.283
321.52	0.279
321.99	0.281
322.45	0.277
322.92	0.275
323.39	0.276
323.85	0.274
324.32	0.274
324.78	0.269
325.25	0.266
325.71	0.266
326.18	0.265
326.64	0.262
327.11	0.261
327.58	0.264
328.04	0.262
328.51	0.258
328.97	0.256
329.44	0.254
329.90	0.252
330.37	0.252
330.83	0.251
331.30	0.251
331.76	0.247
332.23	0.248
332.69	0.242
333.16	0.243
333.62	0.239
334.09	0.239
334.56	0.236
335.02	0.233
335.49	0.232
335.95	0.228
336.42	0.229
336.88	0.225
337.35	0.223
337.81	0.222
338.28	0.222
338.74	0.221
339.20	0.222
339.67	0.224
340.13	0.222
340.60	0.219
341.06	0.216
341.53	0.212
341.99	0.214
342.46	0.210
342.92	0.209
343.39	0.206
343.85	0.204
344.32	0.206
344.78	0.203
345.25	0.205
345.71	0.207
346.17	0.209
346.64	0.207
347.10	0.205
347.57	0.203
348.03	0.199
348.50	0.199
348.96	0.197
349.43	0.199
349.89	0.200
350.35	0.198
350.82	0.196
351.28	0.196
351.75	0.196
352.21	0.202
352.67	0.193
353.14	0.194
353.60	0.193
354.07	0.190
354.53	0.188
355.00	0.189
355.46	0.188
355.92	0.184
356.39	0.185
356.85	0.180
357.31	0.179
357.78	0.182
358.24	0.181
358.71	0.182
359.17	0.181
359.63	0.177
360.10	0.177
360.56	0.178
361.03	0.176
361.49	0.176
361.95	0.176
362.42	0.177
362.88	0.178
363.34	0.177
363.81	0.175
364.27	0.177
364.73	0.177
365.20	0.175
365.66	0.175
366.12	0.176
366.59	0.175
367.05	0.175
367.51	0.173
367.98	0.172
368.44	0.170
368.90	0.172
369.37	0.171
369.83	0.170
370.29	0.172
370.76	0.168
371.22	0.168
371.68	0.168
372.15	0.168
372.61	0.166
373.07	0.168
373.54	0.165
374.00	0.165
374.46	0.168
374.92	0.165
375.39	0.165
375.85	0.166
376.31	0.167
376.78	0.166
377.24	0.161
377.70	0.163
378.16	0.165
378.63	0.165
379.09	0.166
379.55	0.165
380.01	0.167
380.48	0.164
380.94	0.166
381.40	0.165
381.87	0.166
382.33	0.162
382.79	0.161
383.25	0.164
383.72	0.163
384.18	0.163
384.64	0.161
385.10	0.158
385.56	0.160
386.03	0.163
386.49	0.158
386.95	0.161
387.41	0.160
387.88	0.158
388.34	0.158
388.80	0.160
389.26	0.159
389.72	0.160
390.19	0.158
390.65	0.158
391.11	0.155
391.57	0.156
392.04	0.158
392.50	0.155
392.96	0.156
393.42	0.156
393.88	0.158
394.34	0.156
394.81	0.157
395.27	0.154
395.73	0.154
396.19	0.156
396.65	0.154
397.12	0.154
397.58	0.155
398.04	0.154
398.50	0.154
398.96	0.155
399.42	0.153
399.89	0.156
400.35	0.155
400.81	0.151
401.27	0.152
401.73	0.151
402.19	0.151
402.65	0.146
403.12	0.150
403.58	0.150
404.04	0.149
404.50	0.147
404.96	0.146
405.42	0.149
405.88	0.148
406.34	0.149
406.81	0.148
407.27	0.145
407.73	0.146
408.19	0.146
408.65	0.145
409.11	0.144
409.57	0.145
410.03	0.146
410.49	0.145
410.96	0.143
411.42	0.145
411.88	0.143
412.34	0.138
412.80	0.143
413.26	0.142
413.72	0.139
414.18	0.140
414.64	0.141
415.10	0.141
415.56	0.144
416.02	0.141
416.48	0.140
416.95	0.143
417.41	0.142
417.87	0.141
418.33	0.140
418.79	0.139
419.25	0.142
419.71	0.139
420.17	0.139
420.63	0.136
421.09	0.135
421.55	0.139
422.01	0.142
422.47	0.144
422.93	0.143
423.39	0.138
423.85	0.138
424.31	0.139
424.77	0.140
425.23	0.138
425.69	0.140
426.15	0.140
426.61	0.140
427.07	0.134
427.53	0.136
427.99	0.137
428.45	0.139
428.91	0.134
429.37	0.134
429.83	0.135
430.29	0.138
430.75	0.139
431.21	0.141
431.67	0.143
432.13	0.140
432.59	0.132
433.05	0.138
433.51	0.132
433.97	0.132
434.43	0.140
434.89	0.142
435.35	0.137
435.81	0.135
436.27	0.136
436.73	0.135
437.19	0.138
437.65	0.136
438.11	0.140
438.57	0.138
439.03	0.136
439.48	0.138
439.94	0.136
440.40	0.137
440.86	0.133
441.32	0.134
441.78	0.134
442.24	0.133
442.70	0.135
443.16	0.134
443.62	0.137
444.08	0.130
444.54	0.133
444.99	0.133
445.45	0.132
445.91	0.130
446.37	0.131
446.83	0.132
447.29	0.130
447.75	0.130
448.21	0.136
448.67	0.131
449.12	0.134
449.58	0.131
450.04	0.132
450.50	0.133
450.96	0.131
451.42	0.134
451.88	0.135
452.34	0.132
452.79	0.130
453.25	0.135
453.71	0.133
454.17	0.132
454.63	0.134
455.09	0.132
455.55	0.132
456.00	0.129
456.46	0.130
456.92	0.129
457.38	0.133
457.84	0.130
458.30	0.131
458.75	0.130
459.21	0.130
459.67	0.129
460.13	0.130
460.59	0.130
461.04	0.129
461.50	0.129
461.96	0.130
462.42	0.130
462.88	0.129
463.33	0.128
463.79	0.128
464.25	0.128
464.71	0.130
465.17	0.130
465.62	0.131
466.08	0.131
466.54	0.132
467.00	0.131
467.46	0.131
467.91	0.130
468.37	0.131
468.83	0.131
469.29	0.130
469.74	0.131
470.20	0.131
470.66	0.130
471.12	0.131
471.57	0.128
472.03	0.132
472.49	0.132
472.95	0.132
473.40	0.130
473.86	0.132
474.32	0.129
474.78	0.131
475.23	0.131
475.69	0.129
476.15	0.133
476.60	0.132
477.06	0.131
477.52	0.131
477.98	0.130
478.43	0.132
478.89	0.132
479.35	0.131
479.80	0.131
480.26	0.128
480.72	0.127
481.18	0.129
481.63	0.132
482.09	0.129
482.55	0.127
483.00	0.128
483.46	0.130
483.92	0.127
484.37	0.127
484.83	0.127
485.29	0.130
485.74	0.127
486.20	0.128
486.66	0.132
487.11	0.130
487.57	0.128
488.03	0.128
488.48	0.130
488.94	0.127
489.40	0.127
489.85	0.128
490.31	0.129
490.77	0.127
491.22	0.130
491.68	0.127
492.13	0.127
492.59	0.130
493.05	0.129
493.50	0.128
493.96	0.127
494.42	0.132
494.87	0.130
495.33	0.127
495.78	0.127
496.24	0.126
496.70	0.130
497.15	0.128
497.61	0.128
498.06	0.126
498.52	0.129
498.98	0.127
499.43	0.128
499.89	0.128
500.34	0.128
500.80	0.127
501.25	0.125
501.71	0.125
502.17	0.127
502.62	0.125
503.08	0.123
503.53	0.124
503.99	0.126
504.44	0.126
504.90	0.123
505.36	0.127
505.81	0.124
506.27	0.124
506.72	0.126
507.18	0.126
507.63	0.126
508.09	0.128
508.54	0.123
509.00	0.126
509.45	0.126
509.91	0.124
510.36	0.129
510.82	0.128
511.27	0.125
511.73	0.126
512.19	0.125
512.64	0.122
513.10	0.126
513.55	0.124
514.01	0.125
514.46	0.126
514.92	0.126
515.37	0.125
515.83	0.124
516.28	0.125
516.73	0.126
517.19	0.124
517.64	0.124
518.10	0.125
518.55	0.124
519.01	0.125
519.46	0.124
519.92	0.123
520.37	0.123
520.83	0.125
521.28	0.120
521.74	0.123
522.19	0.125
522.65	0.122
523.10	0.122
523.55	0.124
524.01	0.124
524.46	0.123
524.92	0.121
525.37	0.124
525.83	0.125
526.28	0.125
526.73	0.123
527.19	0.122
527.64	0.122
528.10	0.124
528.55	0.123
529.01	0.125
529.46	0.123
529.91	0.122
530.37	0.123
530.82	0.123
531.28	0.123
531.73	0.124
532.18	0.124
532.64	0.123
533.09	0.126
533.54	0.123
534.00	0.125
534.45	0.126
534.91	0.123
535.36	0.123
535.81	0.126
536.27	0.122
536.72	0.125
537.17	0.124
537.63	0.125
538.08	0.127
538.54	0.124
538.99	0.127
539.44	0.125
539.90	0.125
540.35	0.125
540.80	0.124
541.26	0.127
541.71	0.128
542.16	0.128
542.62	0.129
543.07	0.128
543.52	0.127
543.98	0.127
544.43	0.127
544.88	0.127
545.34	0.127
545.79	0.129
546.24	0.127
546.69	0.126
547.15	0.132
547.60	0.130
548.05	0.131
548.51	0.129
548.96	0.132
549.41	0.129
549.86	0.130
550.32	0.133
550.77	0.131
551.22	0.131
551.68	0.132
552.13	0.133
552.58	0.133
553.03	0.136
553.49	0.133
553.94	0.135
554.39	0.135
554.84	0.136
555.30	0.135
555.75	0.137
556.20	0.137
556.65	0.138
557.11	0.137
557.56	0.138
558.01	0.141
558.46	0.140
558.92	0.140
559.37	0.141
559.82	0.141
560.27	0.141
560.72	0.142
561.18	0.142
561.63	0.144
562.08	0.143
562.53	0.141
562.99	0.143
563.44	0.144
563.89	0.144
564.34	0.145
564.79	0.147
565.25	0.146
565.70	0.147
566.15	0.147
566.60	0.148
567.05	0.149
567.50	0.149
567.96	0.152
568.41	0.151
568.86	0.150
569.31	0.151
569.76	0.151
570.21	0.154
570.67	0.154
571.12	0.154
571.57	0.156
572.02	0.156
572.47	0.156
572.92	0.158
573.37	0.159
573.83	0.161
574.28	0.161
574.73	0.160
575.18	0.161
575.63	0.161
576.08	0.163
576.53	0.163
576.98	0.164
577.44	0.165
577.89	0.164
578.34	0.168
578.79	0.167
579.24	0.168
579.69	0.170
580.14	0.169
580.59	0.172
581.04	0.173
581.49	0.173
581.95	0.175
582.40	0.176
582.85	0.178
583.30	0.178
583.75	0.180
584.20	0.181
584.65	0.183
585.10	0.185
585.55	0.186
586.00	0.186
586.45	0.188
586.90	0.189
587.35	0.190
587.80	0.193
588.25	0.193
588.71	0.197
589.16	0.198
589.61	0.197
590.06	0.200
590.51	0.200
590.96	0.202
591.41	0.206
591.86	0.207
592.31	0.209
592.76	0.211
593.21	0.210
593.66	0.215
594.11	0.215
594.56	0.216
595.01	0.220
595.46	0.220
595.91	0.222
596.36	0.224
596.81	0.227
597.26	0.226
597.71	0.228
598.16	0.231
598.61	0.234
599.06	0.234
599.51	0.235
599.96	0.236
600.41	0.237
600.86	0.243
601.31	0.244
601.76	0.246
602.21	0.249
602.65	0.251
603.10	0.251
603.55	0.251
604.00	0.253
604.45	0.256
604.90	0.256
605.35	0.260
605.80	0.259
606.25	0.261
606.70	0.264
607.15	0.264
607.60	0.267
608.05	0.267
608.50	0.269
608.95	0.269
609.39	0.272
609.84	0.271
610.29	0.271
610.74	0.274
611.19	0.276
611.64	0.277
612.09	0.277
612.54	0.280
612.99	0.279
613.44	0.282
613.88	0.281
614.33	0.282
614.78	0.284
615.23	0.284
615.68	0.286
616.13	0.285
616.58	0.286
617.03	0.287
617.47	0.286
617.92	0.288
618.37	0.290
618.82	0.287
619.27	0.291
619.72	0.291
620.17	0.290
620.61	0.290
621.06	0.291
621.51	0.290
621.96	0.292
622.41	0.293
622.86	0.294
623.30	0.295
623.75	0.295
624.20	0.297
624.65	0.297
625.10	0.297
625.54	0.297
625.99	0.298
626.44	0.300
626.89	0.301
627.34	0.300
627.78	0.304
628.23	0.305
628.68	0.305
629.13	0.306
629.58	0.306
630.02	0.309
630.47	0.311
630.92	0.310
631.37	0.314
631.81	0.317
632.26	0.316
632.71	0.319
633.16	0.319
633.61	0.321
634.05	0.324
634.50	0.324
634.95	0.327
635.40	0.328
635.84	0.333
636.29	0.333
636.74	0.336
637.18	0.338
637.63	0.337
638.08	0.342
638.53	0.342
638.97	0.347
639.42	0.349
639.87	0.350
640.32	0.354
640.76	0.357
641.21	0.359
641.66	0.361
642.10	0.365
642.55	0.367
643.00	0.371
643.44	0.371
643.89	0.378
644.34	0.378
644.79	0.382
645.23	0.385
645.68	0.389
646.13	0.389
646.57	0.394
647.02	0.396
647.47	0.399
647.91	0.400
648.36	0.406
648.81	0.409
649.25	0.413
649.70	0.413
650.15	0.417
650.59	0.420
651.04	0.422
651.48	0.422
651.93	0.427
652.38	0.431
652.82	0.433
653.27	0.430
653.72	0.437
654.16	0.436
654.61	0.441
655.06	0.444
655.50	0.445
655.95	0.440
656.39	0.446
656.84	0.454
657.29	0.456
657.73	0.455
658.18	0.457
658.62	0.458
659.07	0.461
659.52	0.461
659.96	0.462
660.41	0.464
660.85	0.464
661.30	0.466
661.74	0.468
662.19	0.469
662.64	0.469
663.08	0.468
663.53	0.469
663.97	0.469
664.42	0.470
664.86	0.469
665.31	0.471
665.75	0.471
666.20	0.467
666.65	0.471
667.09	0.467
667.54	0.466
667.98	0.462
668.43	0.461
668.87	0.461
669.32	0.455
669.76	0.452
670.21	0.452
670.65	0.448
671.10	0.444
671.54	0.441
671.99	0.438
672.43	0.430
672.88	0.428
673.32	0.424
673.77	0.419
674.21	0.412
674.66	0.405
675.10	0.400
675.55	0.393
675.99	0.387
676.44	0.382
676.88	0.375
677.33	0.368
677.77	0.360
678.22	0.353
678.66	0.346
679.11	0.339
679.55	0.331
679.99	0.323
680.44	0.316
680.88	0.309
681.33	0.303
681.77	0.295
682.22	0.286
682.66	0.281
683.11	0.273
683.55	0.267
683.99	0.261
684.44	0.254
684.88	0.249
685.33	0.239
685.77	0.233
686.21	0.228
686.66	0.221
687.10	0.214
687.55	0.213
687.99	0.204
688.44	0.199
688.88	0.191
689.32	0.187
689.77	0.183
690.21	0.181
690.65	0.172
691.10	0.171
691.54	0.167
691.99	0.162
692.43	0.159
692.87	0.155
693.32	0.152
693.76	0.147
694.20	0.146
694.65	0.143
695.09	0.139
695.53	0.134
695.98	0.133
696.42	0.133
696.86	0.130
697.31	0.127
697.75	0.127
698.19	0.123
698.64	0.121
699.08	0.118
699.52	0.119
699.97	0.116
700.41	0.115
700.85	0.114
701.30	0.111
701.74	0.110
702.18	0.109
702.63	0.108
703.07	0.103
703.51	0.104
703.96	0.103
704.40	0.103
704.84	0.103
705.28	0.100
705.73	0.100
706.17	0.098
706.61	0.101
707.06	0.097
707.50	0.097
707.94	0.097
708.38	0.095
708.83	0.096
709.27	0.093
709.71	0.093
710.15	0.094
710.60	0.094
711.04	0.089
711.48	0.094
711.92	0.091
712.37	0.091
712.81	0.090
713.25	0.091
713.69	0.090
714.13	0.089
714.58	0.088
715.02	0.088
715.46	0.088
715.90	0.089
716.35	0.090
716.79	0.091
717.23	0.091
717.67	0.089
718.11	0.086
718.56	0.088
719.00	0.089
719.44	0.088
719.88	0.088
720.32	0.089
720.76	0.085
721.21	0.088
721.65	0.087
722.09	0.087
722.53	0.086
722.97	0.087
723.41	0.087
723.86	0.087
724.30	0.086
724.74	0.088
725.18	0.087
725.62	0.089
726.06	0.088
726.50	0.089
726.95	0.088
727.39	0.089
727.83	0.090
728.27	0.090
728.71	0.088
729.15	0.087
729.59	0.088
730.03	0.088
730.48	0.088
730.92	0.091
731.36	0.087
731.80	0.090
732.24	0.092
732.68	0.090
733.12	0.090
733.56	0.090
734.00	0.091
734.44	0.089
734.89	0.090
735.33	0.089
735.77	0.090
736.21	0.091
736.65	0.091
737.09	0.090
737.53	0.090
737.97	0.092
738.41	0.090
738.85	0.090
739.29	0.092
739.73	0.090
740.17	0.090
740.61	0.089
741.05	0.091
741.49	0.091
741.93	0.092
742.37	0.091
742.81	0.090
743.26	0.090
743.70	0.089
744.14	0.091
744.58	0.091
745.02	0.091
745.46	0.089
745.90	0.087
746.34	0.091
746.78	0.091
747.22	0.088
747.66	0.089
748.10	0.088
748.54	0.092
748.98	0.091
749.42	0.090
749.86	0.091
750.29	0.092
750.73	0.089
751.17	0.091
751.61	0.090
752.05	0.089
752.49	0.092
752.93	0.087
753.37	0.091
753.81	0.089
754.25	0.089
754.69	0.092
755.13	0.091
755.57	0.089
756.01	0.089
756.45	0.087
756.89	0.089
757.33	0.090
757.77	0.091
758.21	0.089
758.64	0.086
759.08	0.088
759.52	0.089
759.96	0.088
760.40	0.088
760.84	0.088
761.28	0.086
761.72	0.089
762.16	0.087
762.60	0.087
763.03	0.091
763.47	0.089
763.91	0.088
764.35	0.086
764.79	0.087
765.23	0.087
765.67	0.087
766.11	0.088
766.54	0.089
766.98	0.083
767.42	0.089
767.86	0.091
768.30	0.086
768.74	0.085
769.17	0.089
769.61	0.087
770.05	0.089
770.49	0.089
770.93	0.088
771.37	0.088
771.80	0.088
772.24	0.086
772.68	0.085
773.12	0.084
773.56	0.087
774.00	0.089
774.43	0.090
774.87	0.086
775.31	0.089
775.75	0.086
776.19	0.084
776.62	0.087
777.06	0.086
777.50	0.090
777.94	0.085
778.37	0.089
778.81	0.088
779.25	0.084
779.69	0.086
780.13	0.088
780.56	0.083
781.00	0.087
781.44	0.086
781.88	0.088
782.31	0.083
782.75	0.085
783.19	0.086
783.63	0.088
784.06	0.085
784.50	0.086
784.94	0.092
785.37	0.084
785.81	0.084
786.25	0.087
786.69	0.089
787.12	0.089
787.56	0.087
788.00	0.090
788.43	0.089
788.87	0.087
789.31	0.088
789.75	0.087
790.18	0.087
790.62	0.087
791.06	0.087
791.49	0.089
791.93	0.084
792.37	0.085
792.80	0.087
793.24	0.088
793.68	0.091
794.11	0.092
794.55	0.086
794.99	0.086
795.42	0.088
795.86	0.089
796.30	0.087
796.73	0.083
797.17	0.084
797.61	0.089
798.04	0.086
798.48	0.087
798.91	0.086
799.35	0.086
799.79	0.087
800.22	0.088
800.66	0.087
801.10	0.091
801.53	0.091
801.97	0.088
802.40	0.081
802.84	0.085
803.28	0.085
803.71	0.086
804.15	0.087
804.58	0.088
805.02	0.087
805.46	0.087
805.89	0.088
806.33	0.090
806.76	0.087
807.20	0.086
807.63	0.087
808.07	0.087
808.51	0.088
808.94	0.087
809.38	0.087
809.81	0.091
810.25	0.087
810.68	0.087
811.12	0.087
811.55	0.089
811.99	0.088
812.42	0.089
812.86	0.090
813.29	0.087
813.73	0.086
814.17	0.083
814.60	0.085
815.04	0.083
815.47	0.088
