SpectraSuite Data File
++++++++++++++++++++++++++++++++++++
Date: Wed May 04 16:19:08 CEST 2016
User: spectrasuite
Dark Spectrum Present: Yes
Reference Spectrum Present: Yes
Number of Sampled Component Spectra: 1
Spectrometers: HR+C0708
Integration Time (usec): 1000 (HR+C0708)
Spectra Averaged: 10 (HR+C0708)
Boxcar Smoothing: 0 (HR+C0708)
Correct for Electrical Dark: No (HR+C0708)
Strobe/Lamp Enabled: No (HR+C0708)
Correct for Detector Non-linearity: No (HR+C0708)
Correct for Stray Light: No (HR+C0708)
Number of Pixels in Processed Spectrum: 2048
>>>>>Begin Processed Spectral Data<<<<<
188.76	-0.000
189.23	-0.000
189.70	-0.000
190.17	-0.000
190.64	-0.000
191.12	-0.000
191.59	-0.000
192.06	-0.000
192.53	-0.000
193.01	-0.000
193.48	-0.000
193.95	-0.000
194.42	-0.000
194.90	-0.000
195.37	-0.000
195.84	-0.000
196.31	-0.000
196.78	-0.000
197.26	-0.000
197.73	-0.000
198.20	-0.000
198.67	-0.000
199.14	-0.000
199.62	-0.000
200.09	-0.000
200.56	-0.000
201.03	-0.000
201.50	-0.000
201.97	-0.000
202.45	-0.000
202.92	1.348
203.39	-0.000
203.86	-0.000
204.33	-0.000
204.80	-0.000
205.28	-0.000
205.75	-0.000
206.22	-0.000
206.69	-0.000
207.16	-0.000
207.63	-0.000
208.11	-0.000
208.58	-0.000
209.05	-0.000
209.52	-0.000
209.99	-0.000
210.46	1.836
210.93	-0.000
211.41	2.376
211.88	-0.000
212.35	-0.000
212.82	-0.000
213.29	-0.000
213.76	-0.000
214.23	-0.000
214.70	-0.000
215.18	-0.000
215.65	1.350
216.12	-0.000
216.59	-0.000
217.06	0.857
217.53	-0.000
218.00	-0.000
218.47	-0.000
218.94	-0.000
219.41	-0.000
219.89	-0.000
220.36	-0.000
220.83	-0.000
221.30	-0.000
221.77	-0.000
222.24	1.099
222.71	-0.000
223.18	-0.000
223.65	1.170
224.12	1.130
224.59	-0.000
225.06	-0.000
225.54	-0.000
226.01	-0.000
226.48	-0.000
226.95	-0.000
227.42	2.208
227.89	-0.000
228.36	-0.000
228.83	-0.000
229.30	-0.000
229.77	-0.000
230.24	-0.000
230.71	-0.000
231.18	-0.000
231.65	-0.000
232.12	-0.000
232.59	2.956
233.06	-0.000
233.53	-0.000
234.00	2.097
234.47	-0.000
234.94	-0.000
235.41	2.379
235.88	3.054
236.35	-0.000
236.82	-0.000
237.29	-0.000
237.76	2.709
238.23	-0.000
238.70	-0.000
239.17	2.726
239.64	-0.000
240.11	-0.000
240.58	2.527
241.05	-0.000
241.52	-0.000
241.99	2.592
242.46	-0.000
242.93	-0.000
243.40	-0.000
243.87	-0.000
244.34	2.476
244.81	3.463
245.28	-0.000
245.75	2.922
246.22	-0.000
246.69	-0.000
247.16	2.775
247.63	-0.000
248.10	2.901
248.57	-0.000
249.04	-0.000
249.51	2.687
249.98	-0.000
250.45	-0.000
250.92	2.811
251.39	2.945
251.85	2.584
252.32	2.401
252.79	2.221
253.26	1.958
253.73	1.861
254.20	1.695
254.67	1.589
255.14	1.541
255.61	1.477
256.08	1.383
256.55	1.332
257.02	1.276
257.49	1.220
257.95	1.182
258.42	1.141
258.89	1.102
259.36	1.071
259.83	1.044
260.30	1.018
260.77	0.996
261.24	0.967
261.71	0.950
262.17	0.929
262.64	0.911
263.11	0.887
263.58	0.878
264.05	0.864
264.52	0.848
264.99	0.828
265.46	0.820
265.92	0.802
266.39	0.792
266.86	0.782
267.33	0.770
267.80	0.758
268.27	0.746
268.74	0.741
269.20	0.731
269.67	0.722
270.14	0.710
270.61	0.702
271.08	0.698
271.55	0.686
272.01	0.680
272.48	0.672
272.95	0.663
273.42	0.657
273.89	0.652
274.36	0.644
274.82	0.642
275.29	0.633
275.76	0.631
276.23	0.626
276.70	0.617
277.16	0.617
277.63	0.616
278.10	0.608
278.57	0.602
279.04	0.601
279.50	0.594
279.97	0.594
280.44	0.589
280.91	0.590
281.38	0.589
281.84	0.586
282.31	0.582
282.78	0.583
283.25	0.581
283.72	0.577
284.18	0.579
284.65	0.576
285.12	0.575
285.59	0.575
286.05	0.574
286.52	0.576
286.99	0.574
287.46	0.574
287.92	0.572
288.39	0.568
288.86	0.569
289.33	0.570
289.79	0.566
290.26	0.564
290.73	0.565
291.20	0.562
291.66	0.558
292.13	0.556
292.60	0.553
293.07	0.548
293.53	0.542
294.00	0.541
294.47	0.534
294.93	0.530
295.40	0.527
295.87	0.521
296.34	0.509
296.80	0.505
297.27	0.496
297.74	0.489
298.20	0.486
298.67	0.474
299.14	0.470
299.60	0.462
300.07	0.453
300.54	0.443
301.01	0.440
301.47	0.433
301.94	0.425
302.41	0.418
302.87	0.410
303.34	0.403
303.81	0.397
304.27	0.391
304.74	0.385
305.21	0.376
305.67	0.367
306.14	0.365
306.61	0.362
307.07	0.354
307.54	0.350
308.01	0.345
308.47	0.341
308.94	0.335
309.40	0.331
309.87	0.328
310.34	0.327
310.80	0.321
311.27	0.315
311.74	0.314
312.20	0.310
312.67	0.310
313.13	0.305
313.60	0.300
314.07	0.299
314.53	0.295
315.00	0.293
315.47	0.296
315.93	0.293
316.40	0.290
316.86	0.287
317.33	0.284
317.80	0.285
318.26	0.283
318.73	0.281
319.19	0.281
319.66	0.276
320.13	0.278
320.59	0.275
321.06	0.276
321.52	0.273
321.99	0.275
322.45	0.269
322.92	0.270
323.39	0.267
323.85	0.265
324.32	0.265
324.78	0.263
325.25	0.260
325.71	0.261
326.18	0.259
326.64	0.258
327.11	0.254
327.58	0.254
328.04	0.256
328.51	0.250
328.97	0.251
329.44	0.250
329.90	0.245
330.37	0.242
330.83	0.245
331.30	0.242
331.76	0.239
332.23	0.241
332.69	0.236
333.16	0.236
333.62	0.233
334.09	0.230
334.56	0.231
335.02	0.227
335.49	0.224
335.95	0.223
336.42	0.221
336.88	0.216
337.35	0.217
337.81	0.215
338.28	0.216
338.74	0.215
339.20	0.214
339.67	0.217
340.13	0.214
340.60	0.212
341.06	0.208
341.53	0.205
341.99	0.206
342.46	0.205
342.92	0.205
343.39	0.201
343.85	0.199
344.32	0.199
344.78	0.198
345.25	0.202
345.71	0.200
346.17	0.201
346.64	0.202
347.10	0.198
347.57	0.195
348.03	0.190
348.50	0.192
348.96	0.193
349.43	0.191
349.89	0.193
350.35	0.189
350.82	0.192
351.28	0.197
351.75	0.190
352.21	0.194
352.67	0.189
353.14	0.187
353.60	0.186
354.07	0.186
354.53	0.186
355.00	0.183
355.46	0.181
355.92	0.175
356.39	0.180
356.85	0.176
357.31	0.174
357.78	0.175
358.24	0.176
358.71	0.176
359.17	0.173
359.63	0.171
360.10	0.172
360.56	0.171
361.03	0.170
361.49	0.170
361.95	0.169
362.42	0.172
362.88	0.172
363.34	0.172
363.81	0.169
364.27	0.169
364.73	0.169
365.20	0.168
365.66	0.167
366.12	0.168
366.59	0.170
367.05	0.167
367.51	0.164
367.98	0.165
368.44	0.167
368.90	0.165
369.37	0.166
369.83	0.165
370.29	0.162
370.76	0.163
371.22	0.162
371.68	0.161
372.15	0.162
372.61	0.157
373.07	0.161
373.54	0.157
374.00	0.157
374.46	0.161
374.92	0.160
375.39	0.159
375.85	0.159
376.31	0.159
376.78	0.160
377.24	0.159
377.70	0.159
378.16	0.156
378.63	0.159
379.09	0.158
379.55	0.158
380.01	0.158
380.48	0.159
380.94	0.159
381.40	0.157
381.87	0.158
382.33	0.157
382.79	0.154
383.25	0.158
383.72	0.157
384.18	0.154
384.64	0.156
385.10	0.155
385.56	0.152
386.03	0.155
386.49	0.154
386.95	0.153
387.41	0.154
387.88	0.152
388.34	0.151
388.80	0.152
389.26	0.153
389.72	0.154
390.19	0.151
390.65	0.149
391.11	0.151
391.57	0.152
392.04	0.150
392.50	0.151
392.96	0.148
393.42	0.150
393.88	0.155
394.34	0.149
394.81	0.150
395.27	0.151
395.73	0.146
396.19	0.149
396.65	0.148
397.12	0.145
397.58	0.145
398.04	0.145
398.50	0.147
398.96	0.147
399.42	0.148
399.89	0.150
400.35	0.150
400.81	0.148
401.27	0.148
401.73	0.147
402.19	0.147
402.65	0.143
403.12	0.144
403.58	0.144
404.04	0.141
404.50	0.141
404.96	0.142
405.42	0.144
405.88	0.142
406.34	0.147
406.81	0.144
407.27	0.140
407.73	0.141
408.19	0.141
408.65	0.137
409.11	0.140
409.57	0.140
410.03	0.141
410.49	0.143
410.96	0.139
411.42	0.140
411.88	0.136
412.34	0.134
412.80	0.137
413.26	0.141
413.72	0.137
414.18	0.137
414.64	0.139
415.10	0.138
415.56	0.139
416.02	0.137
416.48	0.135
416.95	0.136
417.41	0.137
417.87	0.135
418.33	0.135
418.79	0.134
419.25	0.136
419.71	0.134
420.17	0.131
420.63	0.131
421.09	0.129
421.55	0.131
422.01	0.135
422.47	0.137
422.93	0.135
423.39	0.134
423.85	0.132
424.31	0.133
424.77	0.133
425.23	0.133
425.69	0.136
426.15	0.136
426.61	0.134
427.07	0.129
427.53	0.130
427.99	0.131
428.45	0.134
428.91	0.129
429.37	0.130
429.83	0.128
430.29	0.132
430.75	0.135
431.21	0.137
431.67	0.137
432.13	0.133
432.59	0.129
433.05	0.131
433.51	0.128
433.97	0.127
434.43	0.136
434.89	0.137
435.35	0.130
435.81	0.131
436.27	0.131
436.73	0.127
437.19	0.132
437.65	0.129
438.11	0.130
438.57	0.133
439.03	0.133
439.48	0.133
439.94	0.129
440.40	0.127
440.86	0.127
441.32	0.131
441.78	0.126
442.24	0.134
442.70	0.130
443.16	0.127
443.62	0.127
444.08	0.128
444.54	0.129
444.99	0.128
445.45	0.124
445.91	0.129
446.37	0.127
446.83	0.127
447.29	0.128
447.75	0.125
448.21	0.131
448.67	0.128
449.12	0.127
449.58	0.127
450.04	0.128
450.50	0.127
450.96	0.127
451.42	0.129
451.88	0.129
452.34	0.127
452.79	0.128
453.25	0.126
453.71	0.126
454.17	0.127
454.63	0.126
455.09	0.126
455.55	0.125
456.00	0.123
456.46	0.127
456.92	0.125
457.38	0.127
457.84	0.126
458.30	0.125
458.75	0.125
459.21	0.124
459.67	0.123
460.13	0.125
460.59	0.126
461.04	0.126
461.50	0.122
461.96	0.124
462.42	0.124
462.88	0.122
463.33	0.122
463.79	0.124
464.25	0.123
464.71	0.125
465.17	0.126
465.62	0.123
466.08	0.126
466.54	0.127
467.00	0.125
467.46	0.126
467.91	0.124
468.37	0.124
468.83	0.126
469.29	0.124
469.74	0.125
470.20	0.126
470.66	0.124
471.12	0.124
471.57	0.123
472.03	0.125
472.49	0.125
472.95	0.126
473.40	0.124
473.86	0.127
474.32	0.124
474.78	0.123
475.23	0.126
475.69	0.126
476.15	0.125
476.60	0.127
477.06	0.126
477.52	0.126
477.98	0.125
478.43	0.129
478.89	0.125
479.35	0.126
479.80	0.125
480.26	0.122
480.72	0.124
481.18	0.123
481.63	0.127
482.09	0.122
482.55	0.120
483.00	0.123
483.46	0.123
483.92	0.121
484.37	0.121
484.83	0.122
485.29	0.123
485.74	0.121
486.20	0.120
486.66	0.123
487.11	0.124
487.57	0.122
488.03	0.122
488.48	0.125
488.94	0.121
489.40	0.121
489.85	0.123
490.31	0.122
490.77	0.121
491.22	0.124
491.68	0.122
492.13	0.123
492.59	0.122
493.05	0.122
493.50	0.121
493.96	0.121
494.42	0.125
494.87	0.121
495.33	0.123
495.78	0.121
496.24	0.124
496.70	0.124
497.15	0.121
497.61	0.123
498.06	0.121
498.52	0.120
498.98	0.122
499.43	0.120
499.89	0.122
500.34	0.121
500.80	0.122
501.25	0.119
501.71	0.120
502.17	0.120
502.62	0.121
503.08	0.118
503.53	0.119
503.99	0.120
504.44	0.122
504.90	0.119
505.36	0.121
505.81	0.120
506.27	0.119
506.72	0.120
507.18	0.119
507.63	0.120
508.09	0.119
508.54	0.119
509.00	0.120
509.45	0.119
509.91	0.120
510.36	0.120
510.82	0.121
511.27	0.119
511.73	0.121
512.19	0.120
512.64	0.119
513.10	0.120
513.55	0.120
514.01	0.122
514.46	0.121
514.92	0.121
515.37	0.120
515.83	0.118
516.28	0.122
516.73	0.119
517.19	0.121
517.64	0.118
518.10	0.119
518.55	0.118
519.01	0.118
519.46	0.117
519.92	0.119
520.37	0.118
520.83	0.121
521.28	0.118
521.74	0.117
522.19	0.118
522.65	0.116
523.10	0.118
523.55	0.119
524.01	0.118
524.46	0.117
524.92	0.116
525.37	0.118
525.83	0.118
526.28	0.119
526.73	0.118
527.19	0.118
527.64	0.118
528.10	0.117
528.55	0.120
529.01	0.118
529.46	0.118
529.91	0.116
530.37	0.118
530.82	0.118
531.28	0.118
531.73	0.120
532.18	0.119
532.64	0.120
533.09	0.119
533.54	0.118
534.00	0.120
534.45	0.117
534.91	0.117
535.36	0.120
535.81	0.118
536.27	0.116
536.72	0.118
537.17	0.118
537.63	0.121
538.08	0.120
538.54	0.120
538.99	0.121
539.44	0.120
539.90	0.122
540.35	0.121
540.80	0.121
541.26	0.121
541.71	0.124
542.16	0.122
542.62	0.123
543.07	0.122
543.52	0.122
543.98	0.121
544.43	0.122
544.88	0.122
545.34	0.125
545.79	0.125
546.24	0.122
546.69	0.121
547.15	0.125
547.60	0.126
548.05	0.124
548.51	0.124
548.96	0.125
549.41	0.126
549.86	0.125
550.32	0.126
550.77	0.127
551.22	0.126
551.68	0.128
552.13	0.128
552.58	0.128
553.03	0.127
553.49	0.127
553.94	0.127
554.39	0.130
554.84	0.132
555.30	0.128
555.75	0.130
556.20	0.130
556.65	0.132
557.11	0.131
557.56	0.132
558.01	0.133
558.46	0.132
558.92	0.134
559.37	0.135
559.82	0.134
560.27	0.135
560.72	0.137
561.18	0.137
561.63	0.136
562.08	0.136
562.53	0.138
562.99	0.136
563.44	0.139
563.89	0.138
564.34	0.140
564.79	0.140
565.25	0.143
565.70	0.142
566.15	0.141
566.60	0.142
567.05	0.141
567.50	0.145
567.96	0.143
568.41	0.146
568.86	0.144
569.31	0.144
569.76	0.145
570.21	0.145
570.67	0.144
571.12	0.147
571.57	0.147
572.02	0.149
572.47	0.150
572.92	0.150
573.37	0.155
573.83	0.153
574.28	0.154
574.73	0.152
575.18	0.155
575.63	0.154
576.08	0.154
576.53	0.154
576.98	0.157
577.44	0.159
577.89	0.157
578.34	0.161
578.79	0.158
579.24	0.160
579.69	0.162
580.14	0.163
580.59	0.165
581.04	0.164
581.49	0.166
581.95	0.167
582.40	0.167
582.85	0.170
583.30	0.171
583.75	0.172
584.20	0.174
584.65	0.175
585.10	0.176
585.55	0.175
586.00	0.176
586.45	0.180
586.90	0.180
587.35	0.183
587.80	0.184
588.25	0.184
588.71	0.186
589.16	0.189
589.61	0.189
590.06	0.191
590.51	0.192
590.96	0.195
591.41	0.197
591.86	0.199
592.31	0.201
592.76	0.201
593.21	0.200
593.66	0.205
594.11	0.207
594.56	0.208
595.01	0.209
595.46	0.210
595.91	0.213
596.36	0.213
596.81	0.216
597.26	0.219
597.71	0.221
598.16	0.221
598.61	0.224
599.06	0.224
599.51	0.225
599.96	0.226
600.41	0.228
600.86	0.231
601.31	0.229
601.76	0.235
602.21	0.237
602.65	0.238
603.10	0.240
603.55	0.240
604.00	0.244
604.45	0.243
604.90	0.244
605.35	0.248
605.80	0.246
606.25	0.249
606.70	0.252
607.15	0.252
607.60	0.254
608.05	0.255
608.50	0.256
608.95	0.259
609.39	0.257
609.84	0.260
610.29	0.260
610.74	0.262
611.19	0.263
611.64	0.264
612.09	0.265
612.54	0.266
612.99	0.266
613.44	0.267
613.88	0.268
614.33	0.268
614.78	0.271
615.23	0.271
615.68	0.271
616.13	0.271
616.58	0.273
617.03	0.274
617.47	0.273
617.92	0.275
618.37	0.278
618.82	0.276
619.27	0.276
619.72	0.278
620.17	0.276
620.61	0.277
621.06	0.277
621.51	0.278
621.96	0.278
622.41	0.279
622.86	0.282
623.30	0.282
623.75	0.282
624.20	0.283
624.65	0.284
625.10	0.285
625.54	0.283
625.99	0.283
626.44	0.286
626.89	0.286
627.34	0.287
627.78	0.288
628.23	0.292
628.68	0.290
629.13	0.293
629.58	0.293
630.02	0.296
630.47	0.297
630.92	0.298
631.37	0.304
631.81	0.301
632.26	0.302
632.71	0.305
633.16	0.306
633.61	0.307
634.05	0.309
634.50	0.309
634.95	0.311
635.40	0.313
635.84	0.318
636.29	0.319
636.74	0.321
637.18	0.322
637.63	0.325
638.08	0.326
638.53	0.327
638.97	0.330
639.42	0.334
639.87	0.334
640.32	0.338
640.76	0.342
641.21	0.343
641.66	0.347
642.10	0.347
642.55	0.351
643.00	0.351
643.44	0.356
643.89	0.361
644.34	0.364
644.79	0.365
645.23	0.367
645.68	0.370
646.13	0.373
646.57	0.378
647.02	0.378
647.47	0.382
647.91	0.384
648.36	0.387
648.81	0.389
649.25	0.391
649.70	0.393
650.15	0.398
650.59	0.403
651.04	0.405
651.48	0.406
651.93	0.407
652.38	0.411
652.82	0.412
653.27	0.413
653.72	0.418
654.16	0.418
654.61	0.420
655.06	0.424
655.50	0.425
655.95	0.421
656.39	0.424
656.84	0.436
657.29	0.436
657.73	0.436
658.18	0.437
658.62	0.436
659.07	0.439
659.52	0.442
659.96	0.440
660.41	0.444
660.85	0.442
661.30	0.446
661.74	0.447
662.19	0.446
662.64	0.448
663.08	0.446
663.53	0.448
663.97	0.448
664.42	0.449
664.86	0.448
665.31	0.447
665.75	0.447
666.20	0.444
666.65	0.444
667.09	0.444
667.54	0.443
667.98	0.441
668.43	0.441
668.87	0.437
669.32	0.437
669.76	0.432
670.21	0.431
670.65	0.427
671.10	0.423
671.54	0.422
671.99	0.417
672.43	0.411
672.88	0.405
673.32	0.401
673.77	0.399
674.21	0.394
674.66	0.385
675.10	0.382
675.55	0.371
675.99	0.367
676.44	0.363
676.88	0.354
677.33	0.351
677.77	0.344
678.22	0.337
678.66	0.328
679.11	0.323
679.55	0.317
679.99	0.307
680.44	0.300
680.88	0.294
681.33	0.288
681.77	0.279
682.22	0.272
682.66	0.266
683.11	0.257
683.55	0.254
683.99	0.248
684.44	0.240
684.88	0.233
685.33	0.227
685.77	0.222
686.21	0.217
686.66	0.211
687.10	0.203
687.55	0.200
687.99	0.194
688.44	0.189
688.88	0.184
689.32	0.180
689.77	0.176
690.21	0.171
690.65	0.165
691.10	0.162
691.54	0.161
691.99	0.155
692.43	0.151
692.87	0.149
693.32	0.144
693.76	0.142
694.20	0.137
694.65	0.135
695.09	0.133
695.53	0.129
695.98	0.127
696.42	0.124
696.86	0.125
697.31	0.122
697.75	0.119
698.19	0.119
698.64	0.114
699.08	0.113
699.52	0.112
699.97	0.111
700.41	0.109
700.85	0.108
701.30	0.106
701.74	0.106
702.18	0.102
702.63	0.104
703.07	0.099
703.51	0.098
703.96	0.099
704.40	0.101
704.84	0.097
705.28	0.098
705.73	0.096
706.17	0.094
706.61	0.097
707.06	0.094
707.50	0.094
707.94	0.094
708.38	0.090
708.83	0.092
709.27	0.091
709.71	0.090
710.15	0.090
710.60	0.090
711.04	0.088
711.48	0.090
711.92	0.088
712.37	0.088
712.81	0.089
713.25	0.089
713.69	0.085
714.13	0.085
714.58	0.087
715.02	0.086
715.46	0.086
715.90	0.085
716.35	0.083
716.79	0.085
717.23	0.088
717.67	0.086
718.11	0.085
718.56	0.085
719.00	0.084
719.44	0.085
719.88	0.086
720.32	0.085
720.76	0.083
721.21	0.085
721.65	0.083
722.09	0.084
722.53	0.085
722.97	0.084
723.41	0.084
723.86	0.084
724.30	0.085
724.74	0.086
725.18	0.085
725.62	0.083
726.06	0.084
726.50	0.085
726.95	0.085
727.39	0.087
727.83	0.087
728.27	0.087
728.71	0.086
729.15	0.085
729.59	0.084
730.03	0.087
730.48	0.085
730.92	0.084
731.36	0.085
731.80	0.086
732.24	0.089
732.68	0.086
733.12	0.087
733.56	0.087
734.00	0.089
734.44	0.086
734.89	0.088
735.33	0.085
735.77	0.088
736.21	0.086
736.65	0.088
737.09	0.089
737.53	0.090
737.97	0.088
738.41	0.088
738.85	0.087
739.29	0.087
739.73	0.088
740.17	0.086
740.61	0.088
741.05	0.089
741.49	0.088
741.93	0.089
742.37	0.090
742.81	0.089
743.26	0.086
743.70	0.089
744.14	0.089
744.58	0.088
745.02	0.087
745.46	0.087
745.90	0.086
746.34	0.088
746.78	0.089
747.22	0.087
747.66	0.087
748.10	0.087
748.54	0.088
748.98	0.087
749.42	0.089
749.86	0.086
750.29	0.087
750.73	0.089
751.17	0.087
751.61	0.089
752.05	0.087
752.49	0.089
752.93	0.086
753.37	0.087
753.81	0.085
754.25	0.087
754.69	0.088
755.13	0.088
755.57	0.087
756.01	0.086
756.45	0.086
756.89	0.087
757.33	0.086
757.77	0.088
758.21	0.089
758.64	0.084
759.08	0.085
759.52	0.087
759.96	0.085
760.40	0.085
760.84	0.085
761.28	0.084
761.72	0.086
762.16	0.084
762.60	0.086
763.03	0.086
763.47	0.084
763.91	0.085
764.35	0.084
764.79	0.086
765.23	0.086
765.67	0.083
766.11	0.087
766.54	0.084
766.98	0.085
767.42	0.087
767.86	0.089
768.30	0.084
768.74	0.085
769.17	0.085
769.61	0.084
770.05	0.084
770.49	0.088
770.93	0.085
771.37	0.085
771.80	0.082
772.24	0.082
772.68	0.083
773.12	0.081
773.56	0.087
774.00	0.085
774.43	0.084
774.87	0.086
775.31	0.087
775.75	0.083
776.19	0.082
776.62	0.087
777.06	0.085
777.50	0.086
777.94	0.084
778.37	0.086
778.81	0.084
779.25	0.082
779.69	0.086
780.13	0.083
780.56	0.081
781.00	0.085
781.44	0.084
781.88	0.085
782.31	0.082
782.75	0.082
783.19	0.086
783.63	0.085
784.06	0.083
784.50	0.087
784.94	0.087
785.37	0.084
785.81	0.083
786.25	0.084
786.69	0.085
787.12	0.086
787.56	0.085
788.00	0.086
788.43	0.089
788.87	0.086
789.31	0.087
789.75	0.083
790.18	0.086
790.62	0.083
791.06	0.082
791.49	0.085
791.93	0.082
792.37	0.082
792.80	0.087
793.24	0.085
793.68	0.086
794.11	0.088
794.55	0.085
794.99	0.086
795.42	0.085
795.86	0.089
796.30	0.086
796.73	0.081
797.17	0.084
797.61	0.087
798.04	0.085
798.48	0.083
798.91	0.088
799.35	0.084
799.79	0.081
800.22	0.084
800.66	0.081
801.10	0.087
801.53	0.087
801.97	0.085
802.40	0.079
802.84	0.083
803.28	0.085
803.71	0.083
804.15	0.085
804.58	0.084
805.02	0.087
805.46	0.082
805.89	0.083
806.33	0.086
806.76	0.085
807.20	0.084
807.63	0.087
808.07	0.084
808.51	0.084
808.94	0.085
809.38	0.082
809.81	0.087
810.25	0.085
810.68	0.086
811.12	0.087
811.55	0.086
811.99	0.084
812.42	0.085
812.86	0.088
813.29	0.086
813.73	0.085
814.17	0.079
814.60	0.083
