SpectraSuite Data File
++++++++++++++++++++++++++++++++++++
Date: Wed May 04 16:18:07 CEST 2016
User: spectrasuite
Dark Spectrum Present: Yes
Reference Spectrum Present: Yes
Number of Sampled Component Spectra: 1
Spectrometers: HR+C0708
Integration Time (usec): 1000 (HR+C0708)
Spectra Averaged: 10 (HR+C0708)
Boxcar Smoothing: 0 (HR+C0708)
Correct for Electrical Dark: No (HR+C0708)
Strobe/Lamp Enabled: No (HR+C0708)
Correct for Detector Non-linearity: No (HR+C0708)
Correct for Stray Light: No (HR+C0708)
Number of Pixels in Processed Spectrum: 2048
>>>>>Begin Processed Spectral Data<<<<<
188.76	-0.000
189.23	-0.000
189.70	-0.000
190.17	-0.000
190.64	-0.000
191.12	-0.000
191.59	-0.000
192.06	-0.000
192.53	-0.000
193.01	-0.000
193.48	-0.000
193.95	-0.000
194.42	-0.000
194.90	-0.000
195.37	-0.000
195.84	-0.000
196.31	-0.000
196.78	-0.000
197.26	-0.000
197.73	-0.000
198.20	-0.000
198.67	-0.000
199.14	-0.000
199.62	-0.000
200.09	-0.000
200.56	-0.000
201.03	-0.000
201.50	-0.000
201.97	-0.000
202.45	-0.000
202.92	-0.000
203.39	-0.000
203.86	-0.000
204.33	-0.000
204.80	-0.000
205.28	-0.000
205.75	-0.000
206.22	1.794
206.69	1.934
207.16	-0.000
207.63	-0.000
208.11	-0.000
208.58	-0.000
209.05	-0.000
209.52	-0.000
209.99	-0.000
210.46	-0.000
210.93	-0.000
211.41	-0.000
211.88	-0.000
212.35	-0.000
212.82	-0.000
213.29	-0.000
213.76	-0.000
214.23	-0.000
214.70	-0.000
215.18	-0.000
215.65	1.730
216.12	-0.000
216.59	-0.000
217.06	-0.000
217.53	-0.000
218.00	-0.000
218.47	-0.000
218.94	-0.000
219.41	-0.000
219.89	-0.000
220.36	-0.000
220.83	1.198
221.30	-0.000
221.77	-0.000
222.24	-0.000
222.71	-0.000
223.18	-0.000
223.65	1.268
224.12	-0.000
224.59	1.825
225.06	-0.000
225.54	-0.000
226.01	-0.000
226.48	-0.000
226.95	-0.000
227.42	1.657
227.89	-0.000
228.36	-0.000
228.83	-0.000
229.30	-0.000
229.77	-0.000
230.24	-0.000
230.71	-0.000
231.18	1.930
231.65	-0.000
232.12	2.830
232.59	2.655
233.06	-0.000
233.53	-0.000
234.00	2.213
234.47	-0.000
234.94	-0.000
235.41	-0.000
235.88	-0.000
236.35	-0.000
236.82	-0.000
237.29	2.465
237.76	2.834
238.23	-0.000
238.70	-0.000
239.17	2.812
239.64	-0.000
240.11	-0.000
240.58	2.698
241.05	-0.000
241.52	-0.000
241.99	2.757
242.46	2.757
242.93	2.582
243.40	-0.000
243.87	-0.000
244.34	2.757
244.81	-0.000
245.28	-0.000
245.75	3.015
246.22	3.697
246.69	-0.000
247.16	2.786
247.63	3.676
248.10	2.860
248.57	-0.000
249.04	-0.000
249.51	2.731
249.98	-0.000
250.45	-0.000
250.92	2.932
251.39	2.883
251.85	2.712
252.32	2.273
252.79	2.186
253.26	1.950
253.73	1.833
254.20	1.705
254.67	1.587
255.14	1.542
255.61	1.461
256.08	1.387
256.55	1.326
257.02	1.282
257.49	1.229
257.95	1.180
258.42	1.140
258.89	1.109
259.36	1.074
259.83	1.046
260.30	1.021
260.77	0.992
261.24	0.965
261.71	0.950
262.17	0.930
262.64	0.910
263.11	0.889
263.58	0.877
264.05	0.862
264.52	0.845
264.99	0.824
265.46	0.815
265.92	0.802
266.39	0.785
266.86	0.781
267.33	0.769
267.80	0.759
268.27	0.749
268.74	0.738
269.20	0.728
269.67	0.720
270.14	0.711
270.61	0.706
271.08	0.696
271.55	0.684
272.01	0.681
272.48	0.673
272.95	0.663
273.42	0.659
273.89	0.654
274.36	0.645
274.82	0.638
275.29	0.634
275.76	0.632
276.23	0.629
276.70	0.621
277.16	0.620
277.63	0.614
278.10	0.610
278.57	0.606
279.04	0.601
279.50	0.599
279.97	0.596
280.44	0.594
280.91	0.592
281.38	0.586
281.84	0.584
282.31	0.583
282.78	0.581
283.25	0.581
283.72	0.579
284.18	0.577
284.65	0.578
285.12	0.576
285.59	0.576
286.05	0.576
286.52	0.574
286.99	0.574
287.46	0.574
287.92	0.573
288.39	0.568
288.86	0.571
289.33	0.571
289.79	0.567
290.26	0.566
290.73	0.565
291.20	0.562
291.66	0.561
292.13	0.558
292.60	0.554
293.07	0.549
293.53	0.543
294.00	0.545
294.47	0.535
294.93	0.532
295.40	0.527
295.87	0.521
296.34	0.510
296.80	0.504
297.27	0.496
297.74	0.493
298.20	0.485
298.67	0.474
299.14	0.466
299.60	0.461
300.07	0.452
300.54	0.447
301.01	0.442
301.47	0.432
301.94	0.425
302.41	0.415
302.87	0.410
303.34	0.403
303.81	0.399
304.27	0.389
304.74	0.384
305.21	0.377
305.67	0.372
306.14	0.366
306.61	0.363
307.07	0.353
307.54	0.351
308.01	0.341
308.47	0.339
308.94	0.335
309.40	0.333
309.87	0.327
310.34	0.325
310.80	0.322
311.27	0.317
311.74	0.314
312.20	0.312
312.67	0.311
313.13	0.303
313.60	0.304
314.07	0.301
314.53	0.297
315.00	0.292
315.47	0.295
315.93	0.295
316.40	0.291
316.86	0.290
317.33	0.287
317.80	0.287
318.26	0.282
318.73	0.281
319.19	0.281
319.66	0.277
320.13	0.275
320.59	0.278
321.06	0.277
321.52	0.274
321.99	0.274
322.45	0.271
322.92	0.270
323.39	0.269
323.85	0.268
324.32	0.267
324.78	0.264
325.25	0.260
325.71	0.262
326.18	0.260
326.64	0.256
327.11	0.252
327.58	0.255
328.04	0.257
328.51	0.251
328.97	0.249
329.44	0.250
329.90	0.246
330.37	0.246
330.83	0.245
331.30	0.241
331.76	0.238
332.23	0.241
332.69	0.237
333.16	0.237
333.62	0.234
334.09	0.229
334.56	0.230
335.02	0.227
335.49	0.224
335.95	0.224
336.42	0.226
336.88	0.219
337.35	0.219
337.81	0.215
338.28	0.218
338.74	0.215
339.20	0.219
339.67	0.216
340.13	0.215
340.60	0.212
341.06	0.209
341.53	0.208
341.99	0.208
342.46	0.204
342.92	0.200
343.39	0.198
343.85	0.199
344.32	0.197
344.78	0.200
345.25	0.202
345.71	0.201
346.17	0.202
346.64	0.202
347.10	0.199
347.57	0.196
348.03	0.191
348.50	0.191
348.96	0.193
349.43	0.193
349.89	0.191
350.35	0.195
350.82	0.191
351.28	0.195
351.75	0.189
352.21	0.192
352.67	0.187
353.14	0.187
353.60	0.188
354.07	0.183
354.53	0.185
355.00	0.182
355.46	0.181
355.92	0.181
356.39	0.184
356.85	0.175
357.31	0.176
357.78	0.171
358.24	0.177
358.71	0.173
359.17	0.176
359.63	0.172
360.10	0.175
360.56	0.171
361.03	0.171
361.49	0.172
361.95	0.168
362.42	0.171
362.88	0.172
363.34	0.171
363.81	0.171
364.27	0.169
364.73	0.170
365.20	0.168
365.66	0.168
366.12	0.170
366.59	0.168
367.05	0.169
367.51	0.169
367.98	0.167
368.44	0.165
368.90	0.165
369.37	0.166
369.83	0.165
370.29	0.165
370.76	0.164
371.22	0.163
371.68	0.166
372.15	0.161
372.61	0.158
373.07	0.162
373.54	0.160
374.00	0.160
374.46	0.161
374.92	0.161
375.39	0.160
375.85	0.163
376.31	0.160
376.78	0.160
377.24	0.159
377.70	0.158
378.16	0.158
378.63	0.160
379.09	0.157
379.55	0.158
380.01	0.158
380.48	0.160
380.94	0.159
381.40	0.157
381.87	0.160
382.33	0.156
382.79	0.153
383.25	0.157
383.72	0.158
384.18	0.157
384.64	0.156
385.10	0.156
385.56	0.155
386.03	0.157
386.49	0.154
386.95	0.155
387.41	0.154
387.88	0.152
388.34	0.152
388.80	0.155
389.26	0.154
389.72	0.154
390.19	0.149
390.65	0.150
391.11	0.152
391.57	0.152
392.04	0.152
392.50	0.151
392.96	0.151
393.42	0.151
393.88	0.152
394.34	0.150
394.81	0.150
395.27	0.149
395.73	0.148
396.19	0.148
396.65	0.149
397.12	0.146
397.58	0.145
398.04	0.144
398.50	0.148
398.96	0.146
399.42	0.148
399.89	0.151
400.35	0.149
400.81	0.147
401.27	0.149
401.73	0.145
402.19	0.146
402.65	0.142
403.12	0.144
403.58	0.145
404.04	0.144
404.50	0.141
404.96	0.142
405.42	0.144
405.88	0.145
406.34	0.146
406.81	0.147
407.27	0.139
407.73	0.141
408.19	0.143
408.65	0.138
409.11	0.139
409.57	0.140
410.03	0.143
410.49	0.141
410.96	0.138
411.42	0.142
411.88	0.135
412.34	0.134
412.80	0.138
413.26	0.136
413.72	0.137
414.18	0.136
414.64	0.138
415.10	0.138
415.56	0.138
416.02	0.135
416.48	0.136
416.95	0.138
417.41	0.136
417.87	0.136
418.33	0.136
418.79	0.134
419.25	0.136
419.71	0.134
420.17	0.133
420.63	0.130
421.09	0.130
421.55	0.132
422.01	0.134
422.47	0.138
422.93	0.136
423.39	0.135
423.85	0.133
424.31	0.135
424.77	0.135
425.23	0.133
425.69	0.135
426.15	0.136
426.61	0.135
427.07	0.127
427.53	0.131
427.99	0.132
428.45	0.134
428.91	0.130
429.37	0.129
429.83	0.129
430.29	0.131
430.75	0.136
431.21	0.136
431.67	0.137
432.13	0.137
432.59	0.131
433.05	0.130
433.51	0.128
433.97	0.128
434.43	0.135
434.89	0.139
435.35	0.133
435.81	0.133
436.27	0.132
436.73	0.130
437.19	0.134
437.65	0.129
438.11	0.132
438.57	0.132
439.03	0.131
439.48	0.133
439.94	0.131
440.40	0.128
440.86	0.130
441.32	0.128
441.78	0.130
442.24	0.133
442.70	0.131
443.16	0.129
443.62	0.132
444.08	0.128
444.54	0.128
444.99	0.129
445.45	0.127
445.91	0.129
446.37	0.127
446.83	0.128
447.29	0.129
447.75	0.126
448.21	0.130
448.67	0.127
449.12	0.129
449.58	0.130
450.04	0.128
450.50	0.129
450.96	0.127
451.42	0.131
451.88	0.129
452.34	0.128
452.79	0.128
453.25	0.130
453.71	0.128
454.17	0.126
454.63	0.128
455.09	0.128
455.55	0.126
456.00	0.123
456.46	0.126
456.92	0.126
457.38	0.125
457.84	0.126
458.30	0.127
458.75	0.124
459.21	0.124
459.67	0.122
460.13	0.124
460.59	0.124
461.04	0.126
461.50	0.125
461.96	0.123
462.42	0.124
462.88	0.122
463.33	0.125
463.79	0.124
464.25	0.123
464.71	0.125
465.17	0.124
465.62	0.123
466.08	0.126
466.54	0.128
467.00	0.125
467.46	0.126
467.91	0.126
468.37	0.126
468.83	0.125
469.29	0.126
469.74	0.125
470.20	0.125
470.66	0.124
471.12	0.124
471.57	0.125
472.03	0.125
472.49	0.126
472.95	0.128
473.40	0.126
473.86	0.126
474.32	0.125
474.78	0.126
475.23	0.126
475.69	0.123
476.15	0.126
476.60	0.124
477.06	0.128
477.52	0.124
477.98	0.124
478.43	0.127
478.89	0.125
479.35	0.128
479.80	0.125
480.26	0.123
480.72	0.125
481.18	0.124
481.63	0.125
482.09	0.123
482.55	0.121
483.00	0.121
483.46	0.123
483.92	0.122
484.37	0.122
484.83	0.122
485.29	0.123
485.74	0.122
486.20	0.123
486.66	0.125
487.11	0.122
487.57	0.122
488.03	0.121
488.48	0.125
488.94	0.123
489.40	0.123
489.85	0.123
490.31	0.123
490.77	0.121
491.22	0.124
491.68	0.124
492.13	0.122
492.59	0.125
493.05	0.123
493.50	0.123
493.96	0.122
494.42	0.123
494.87	0.125
495.33	0.121
495.78	0.122
496.24	0.122
496.70	0.124
497.15	0.122
497.61	0.122
498.06	0.120
498.52	0.123
498.98	0.122
499.43	0.123
499.89	0.123
500.34	0.119
500.80	0.121
501.25	0.122
501.71	0.118
502.17	0.120
502.62	0.120
503.08	0.118
503.53	0.121
503.99	0.122
504.44	0.122
504.90	0.119
505.36	0.121
505.81	0.122
506.27	0.120
506.72	0.119
507.18	0.121
507.63	0.119
508.09	0.120
508.54	0.119
509.00	0.121
509.45	0.120
509.91	0.119
510.36	0.119
510.82	0.122
511.27	0.119
511.73	0.123
512.19	0.121
512.64	0.120
513.10	0.121
513.55	0.121
514.01	0.121
514.46	0.120
514.92	0.121
515.37	0.122
515.83	0.119
516.28	0.122
516.73	0.120
517.19	0.119
517.64	0.120
518.10	0.119
518.55	0.118
519.01	0.119
519.46	0.119
519.92	0.119
520.37	0.118
520.83	0.119
521.28	0.115
521.74	0.118
522.19	0.117
522.65	0.118
523.10	0.116
523.55	0.119
524.01	0.118
524.46	0.118
524.92	0.119
525.37	0.120
525.83	0.119
526.28	0.118
526.73	0.118
527.19	0.117
527.64	0.118
528.10	0.120
528.55	0.118
529.01	0.119
529.46	0.118
529.91	0.118
530.37	0.119
530.82	0.119
531.28	0.119
531.73	0.118
532.18	0.120
532.64	0.119
533.09	0.119
533.54	0.118
534.00	0.121
534.45	0.119
534.91	0.118
535.36	0.120
535.81	0.118
536.27	0.118
536.72	0.121
537.17	0.121
537.63	0.119
538.08	0.119
538.54	0.119
538.99	0.123
539.44	0.119
539.90	0.119
540.35	0.121
540.80	0.120
541.26	0.121
541.71	0.122
542.16	0.122
542.62	0.123
543.07	0.124
543.52	0.119
543.98	0.122
544.43	0.122
544.88	0.121
545.34	0.124
545.79	0.123
546.24	0.124
546.69	0.122
547.15	0.126
547.60	0.124
548.05	0.125
548.51	0.126
548.96	0.126
549.41	0.125
549.86	0.127
550.32	0.127
550.77	0.125
551.22	0.126
551.68	0.129
552.13	0.130
552.58	0.127
553.03	0.128
553.49	0.126
553.94	0.128
554.39	0.129
554.84	0.130
555.30	0.129
555.75	0.131
556.20	0.131
556.65	0.131
557.11	0.132
557.56	0.132
558.01	0.137
558.46	0.133
558.92	0.132
559.37	0.136
559.82	0.134
560.27	0.135
560.72	0.134
561.18	0.134
561.63	0.137
562.08	0.136
562.53	0.135
562.99	0.139
563.44	0.137
563.89	0.140
564.34	0.141
564.79	0.140
565.25	0.141
565.70	0.141
566.15	0.142
566.60	0.143
567.05	0.143
567.50	0.142
567.96	0.145
568.41	0.145
568.86	0.144
569.31	0.146
569.76	0.145
570.21	0.147
570.67	0.144
571.12	0.148
571.57	0.149
572.02	0.150
572.47	0.150
572.92	0.151
573.37	0.153
573.83	0.151
574.28	0.154
574.73	0.154
575.18	0.152
575.63	0.155
576.08	0.155
576.53	0.155
576.98	0.157
577.44	0.158
577.89	0.157
578.34	0.159
578.79	0.159
579.24	0.161
579.69	0.160
580.14	0.164
580.59	0.165
581.04	0.165
581.49	0.166
581.95	0.167
582.40	0.169
582.85	0.170
583.30	0.171
583.75	0.173
584.20	0.174
584.65	0.174
585.10	0.177
585.55	0.178
586.00	0.179
586.45	0.180
586.90	0.181
587.35	0.181
587.80	0.184
588.25	0.184
588.71	0.186
589.16	0.190
589.61	0.188
590.06	0.192
590.51	0.193
590.96	0.193
591.41	0.198
591.86	0.197
592.31	0.200
592.76	0.201
593.21	0.201
593.66	0.204
594.11	0.206
594.56	0.207
595.01	0.209
595.46	0.209
595.91	0.212
596.36	0.214
596.81	0.214
597.26	0.217
597.71	0.219
598.16	0.222
598.61	0.224
599.06	0.223
599.51	0.224
599.96	0.227
600.41	0.228
600.86	0.233
601.31	0.232
601.76	0.236
602.21	0.237
602.65	0.240
603.10	0.240
603.55	0.240
604.00	0.244
604.45	0.243
604.90	0.244
605.35	0.249
605.80	0.247
606.25	0.248
606.70	0.253
607.15	0.252
607.60	0.256
608.05	0.256
608.50	0.257
608.95	0.257
609.39	0.258
609.84	0.261
610.29	0.262
610.74	0.261
611.19	0.264
611.64	0.266
612.09	0.266
612.54	0.266
612.99	0.266
613.44	0.267
613.88	0.269
614.33	0.268
614.78	0.270
615.23	0.272
615.68	0.273
616.13	0.272
616.58	0.275
617.03	0.275
617.47	0.275
617.92	0.275
618.37	0.277
618.82	0.276
619.27	0.276
619.72	0.277
620.17	0.279
620.61	0.278
621.06	0.280
621.51	0.278
621.96	0.279
622.41	0.279
622.86	0.280
623.30	0.282
623.75	0.283
624.20	0.283
624.65	0.285
625.10	0.284
625.54	0.283
625.99	0.285
626.44	0.285
626.89	0.287
627.34	0.289
627.78	0.290
628.23	0.292
628.68	0.291
629.13	0.293
629.58	0.293
630.02	0.295
630.47	0.297
630.92	0.296
631.37	0.300
631.81	0.301
632.26	0.303
632.71	0.305
633.16	0.307
633.61	0.307
634.05	0.309
634.50	0.311
634.95	0.315
635.40	0.315
635.84	0.318
636.29	0.320
636.74	0.322
637.18	0.323
637.63	0.324
638.08	0.325
638.53	0.328
638.97	0.332
639.42	0.335
639.87	0.335
640.32	0.340
640.76	0.340
641.21	0.343
641.66	0.345
642.10	0.350
642.55	0.353
643.00	0.354
643.44	0.354
643.89	0.361
644.34	0.364
644.79	0.365
645.23	0.369
645.68	0.371
646.13	0.375
646.57	0.377
647.02	0.379
647.47	0.382
647.91	0.386
648.36	0.387
648.81	0.392
649.25	0.394
649.70	0.394
650.15	0.397
650.59	0.402
651.04	0.403
651.48	0.406
651.93	0.407
652.38	0.409
652.82	0.411
653.27	0.411
653.72	0.419
654.16	0.419
654.61	0.419
655.06	0.423
655.50	0.424
655.95	0.423
656.39	0.423
656.84	0.434
657.29	0.439
657.73	0.435
658.18	0.434
658.62	0.437
659.07	0.440
659.52	0.441
659.96	0.441
660.41	0.444
660.85	0.445
661.30	0.446
661.74	0.445
662.19	0.446
662.64	0.448
663.08	0.448
663.53	0.446
663.97	0.446
664.42	0.447
664.86	0.448
665.31	0.448
665.75	0.446
666.20	0.444
666.65	0.447
667.09	0.443
667.54	0.445
667.98	0.439
668.43	0.441
668.87	0.438
669.32	0.438
669.76	0.431
670.21	0.430
670.65	0.427
671.10	0.425
671.54	0.420
671.99	0.417
672.43	0.409
672.88	0.405
673.32	0.404
673.77	0.397
674.21	0.392
674.66	0.387
675.10	0.382
675.55	0.374
675.99	0.369
676.44	0.363
676.88	0.355
677.33	0.350
677.77	0.345
678.22	0.336
678.66	0.331
679.11	0.323
679.55	0.317
679.99	0.309
680.44	0.301
680.88	0.293
681.33	0.289
681.77	0.279
682.22	0.272
682.66	0.267
683.11	0.260
683.55	0.253
683.99	0.247
684.44	0.242
684.88	0.235
685.33	0.229
685.77	0.223
686.21	0.218
686.66	0.209
687.10	0.204
687.55	0.200
687.99	0.194
688.44	0.189
688.88	0.184
689.32	0.179
689.77	0.175
690.21	0.171
690.65	0.167
691.10	0.163
691.54	0.159
691.99	0.156
692.43	0.151
692.87	0.150
693.32	0.146
693.76	0.143
694.20	0.140
694.65	0.138
695.09	0.131
695.53	0.130
695.98	0.129
696.42	0.128
696.86	0.123
697.31	0.121
697.75	0.120
698.19	0.119
698.64	0.116
699.08	0.114
699.52	0.113
699.97	0.111
700.41	0.108
700.85	0.111
701.30	0.105
701.74	0.105
702.18	0.104
702.63	0.102
703.07	0.100
703.51	0.100
703.96	0.098
704.40	0.098
704.84	0.098
705.28	0.096
705.73	0.098
706.17	0.095
706.61	0.096
707.06	0.094
707.50	0.094
707.94	0.092
708.38	0.093
708.83	0.092
709.27	0.092
709.71	0.091
710.15	0.090
710.60	0.090
711.04	0.088
711.48	0.091
711.92	0.089
712.37	0.086
712.81	0.088
713.25	0.089
713.69	0.085
714.13	0.087
714.58	0.088
715.02	0.086
715.46	0.085
715.90	0.085
716.35	0.085
716.79	0.087
717.23	0.087
717.67	0.086
718.11	0.085
718.56	0.085
719.00	0.086
719.44	0.084
719.88	0.086
720.32	0.087
720.76	0.083
721.21	0.085
721.65	0.083
722.09	0.085
722.53	0.084
722.97	0.085
723.41	0.085
723.86	0.084
724.30	0.085
724.74	0.086
725.18	0.085
725.62	0.084
726.06	0.087
726.50	0.085
726.95	0.087
727.39	0.086
727.83	0.086
728.27	0.085
728.71	0.087
729.15	0.085
729.59	0.085
730.03	0.086
730.48	0.084
730.92	0.089
731.36	0.086
731.80	0.086
732.24	0.087
732.68	0.089
733.12	0.087
733.56	0.088
734.00	0.088
734.44	0.087
734.89	0.087
735.33	0.084
735.77	0.087
736.21	0.086
736.65	0.088
737.09	0.091
737.53	0.089
737.97	0.088
738.41	0.086
738.85	0.089
739.29	0.087
739.73	0.089
740.17	0.087
740.61	0.087
741.05	0.089
741.49	0.087
741.93	0.088
742.37	0.087
742.81	0.088
743.26	0.087
743.70	0.087
744.14	0.088
744.58	0.087
745.02	0.087
745.46	0.090
745.90	0.086
746.34	0.086
746.78	0.090
747.22	0.088
747.66	0.083
748.10	0.085
748.54	0.088
748.98	0.088
749.42	0.089
749.86	0.089
750.29	0.089
750.73	0.088
751.17	0.088
751.61	0.088
752.05	0.086
752.49	0.089
752.93	0.086
753.37	0.088
753.81	0.085
754.25	0.087
754.69	0.089
755.13	0.089
755.57	0.087
756.01	0.086
756.45	0.086
756.89	0.088
757.33	0.087
757.77	0.086
758.21	0.085
758.64	0.083
759.08	0.086
759.52	0.086
759.96	0.087
760.40	0.085
760.84	0.085
761.28	0.086
761.72	0.087
762.16	0.084
762.60	0.085
763.03	0.087
763.47	0.085
763.91	0.085
764.35	0.084
764.79	0.085
765.23	0.086
765.67	0.084
766.11	0.086
766.54	0.083
766.98	0.084
767.42	0.086
767.86	0.087
768.30	0.083
768.74	0.083
769.17	0.086
769.61	0.088
770.05	0.086
770.49	0.087
770.93	0.084
771.37	0.087
771.80	0.084
772.24	0.082
772.68	0.085
773.12	0.088
773.56	0.085
774.00	0.087
774.43	0.085
774.87	0.082
775.31	0.085
775.75	0.083
776.19	0.084
776.62	0.085
777.06	0.085
777.50	0.084
777.94	0.085
778.37	0.088
778.81	0.084
779.25	0.085
779.69	0.083
780.13	0.086
780.56	0.082
781.00	0.083
781.44	0.085
781.88	0.086
782.31	0.081
782.75	0.082
783.19	0.084
783.63	0.086
784.06	0.084
784.50	0.084
784.94	0.088
785.37	0.083
785.81	0.085
786.25	0.085
786.69	0.089
787.12	0.086
787.56	0.083
788.00	0.087
788.43	0.087
788.87	0.087
789.31	0.087
789.75	0.084
790.18	0.087
790.62	0.086
791.06	0.084
791.49	0.086
791.93	0.086
792.37	0.080
792.80	0.084
793.24	0.082
793.68	0.086
794.11	0.087
794.55	0.084
794.99	0.085
795.42	0.087
795.86	0.087
796.30	0.084
796.73	0.083
797.17	0.082
797.61	0.085
798.04	0.085
798.48	0.084
798.91	0.087
799.35	0.085
799.79	0.085
800.22	0.085
800.66	0.084
801.10	0.088
801.53	0.088
801.97	0.086
802.40	0.082
802.84	0.085
803.28	0.085
803.71	0.083
804.15	0.087
804.58	0.088
805.02	0.085
805.46	0.084
805.89	0.085
806.33	0.085
806.76	0.084
807.20	0.087
807.63	0.085
808.07	0.086
808.51	0.085
808.94	0.085
809.38	0.084
809.81	0.086
810.25	0.081
810.68	0.087
811.12	0.084
811.55	0.085
811.99	0.082
812.42	0.084
812.86	0.085
813.29	0.085
813.73	0.083
814.17	0.081
814.60	0.081
