SpectraSuite Data File
++++++++++++++++++++++++++++++++++++
Date: Wed May 04 17:18:36 CEST 2016
User: spectrasuite
Dark Spectrum Present: Yes
Reference Spectrum Present: Yes
Number of Sampled Component Spectra: 1
Spectrometers: HR+C0708
Integration Time (usec): 1000 (HR+C0708)
Spectra Averaged: 10 (HR+C0708)
Boxcar Smoothing: 0 (HR+C0708)
Correct for Electrical Dark: No (HR+C0708)
Strobe/Lamp Enabled: No (HR+C0708)
Correct for Detector Non-linearity: No (HR+C0708)
Correct for Stray Light: No (HR+C0708)
Number of Pixels in Processed Spectrum: 2048
>>>>>Begin Processed Spectral Data<<<<<
188.76	-0.000
189.23	-0.000
189.70	-0.000
190.17	-0.000
190.64	-0.000
191.12	-0.000
191.59	-0.000
192.06	-0.000
192.53	-0.000
193.01	-0.000
193.48	-0.000
193.95	-0.000
194.42	-0.000
194.90	-0.000
195.37	-0.000
195.84	-0.000
196.31	-0.000
196.78	-0.000
197.26	-0.000
197.73	-0.000
198.20	-0.000
198.67	-0.000
199.14	-0.000
199.62	-0.000
200.09	-0.000
200.56	-0.000
201.03	-0.000
201.50	-0.000
201.97	-0.000
202.45	-0.000
202.92	-0.000
203.39	-0.000
203.86	-0.000
204.33	-0.000
204.80	-0.000
205.28	-0.000
205.75	-0.000
206.22	-0.000
206.69	-0.000
207.16	-0.000
207.63	-0.000
208.11	-0.000
208.58	-0.000
209.05	-0.000
209.52	-0.000
209.99	-0.000
210.46	-0.000
210.93	-0.000
211.41	-0.000
211.88	-0.000
212.35	-0.000
212.82	-0.000
213.29	-0.000
213.76	-0.000
214.23	-0.000
214.70	-0.000
215.18	-0.000
215.65	-0.000
216.12	1.051
216.59	-0.000
217.06	0.906
217.53	-0.000
218.00	-0.000
218.47	-0.000
218.94	-0.000
219.41	1.872
219.89	-0.000
220.36	1.286
220.83	-0.000
221.30	-0.000
221.77	-0.000
222.24	-0.000
222.71	-0.000
223.18	-0.000
223.65	1.027
224.12	1.085
224.59	-0.000
225.06	-0.000
225.54	1.102
226.01	-0.000
226.48	-0.000
226.95	-0.000
227.42	1.685
227.89	-0.000
228.36	-0.000
228.83	-0.000
229.30	-0.000
229.77	-0.000
230.24	2.321
230.71	1.925
231.18	-0.000
231.65	-0.000
232.12	-0.000
232.59	-0.000
233.06	-0.000
233.53	-0.000
234.00	1.984
234.47	-0.000
234.94	-0.000
235.41	-0.000
235.88	2.878
236.35	-0.000
236.82	-0.000
237.29	2.783
237.76	3.436
238.23	-0.000
238.70	-0.000
239.17	2.618
239.64	-0.000
240.11	-0.000
240.58	2.760
241.05	4.137
241.52	-0.000
241.99	2.799
242.46	3.058
242.93	3.179
243.40	-0.000
243.87	-0.000
244.34	3.359
244.81	-0.000
245.28	-0.000
245.75	2.882
246.22	-0.000
246.69	-0.000
247.16	4.195
247.63	-0.000
248.10	-0.000
248.57	-0.000
249.04	3.191
249.51	2.929
249.98	-0.000
250.45	-0.000
250.92	2.616
251.39	2.889
251.85	2.789
252.32	2.245
252.79	2.148
253.26	1.967
253.73	1.890
254.20	1.737
254.67	1.637
255.14	1.581
255.61	1.476
256.08	1.396
256.55	1.334
257.02	1.290
257.49	1.231
257.95	1.185
258.42	1.142
258.89	1.119
259.36	1.079
259.83	1.057
260.30	1.033
260.77	1.000
261.24	0.971
261.71	0.964
262.17	0.935
262.64	0.916
263.11	0.895
263.58	0.879
264.05	0.868
264.52	0.846
264.99	0.836
265.46	0.825
265.92	0.804
266.39	0.794
266.86	0.784
267.33	0.771
267.80	0.762
268.27	0.750
268.74	0.741
269.20	0.732
269.67	0.721
270.14	0.712
270.61	0.702
271.08	0.696
271.55	0.688
272.01	0.681
272.48	0.669
272.95	0.664
273.42	0.657
273.89	0.653
274.36	0.643
274.82	0.639
275.29	0.633
275.76	0.626
276.23	0.626
276.70	0.621
277.16	0.613
277.63	0.609
278.10	0.605
278.57	0.602
279.04	0.598
279.50	0.593
279.97	0.591
280.44	0.587
280.91	0.586
281.38	0.579
281.84	0.578
282.31	0.577
282.78	0.576
283.25	0.572
283.72	0.572
284.18	0.571
284.65	0.569
285.12	0.567
285.59	0.566
286.05	0.565
286.52	0.565
286.99	0.563
287.46	0.562
287.92	0.559
288.39	0.559
288.86	0.557
289.33	0.555
289.79	0.552
290.26	0.552
290.73	0.551
291.20	0.544
291.66	0.543
292.13	0.543
292.60	0.540
293.07	0.533
293.53	0.529
294.00	0.525
294.47	0.521
294.93	0.516
295.40	0.509
295.87	0.506
296.34	0.498
296.80	0.492
297.27	0.479
297.74	0.478
298.20	0.471
298.67	0.461
299.14	0.457
299.60	0.447
300.07	0.442
300.54	0.436
301.01	0.432
301.47	0.422
301.94	0.413
302.41	0.405
302.87	0.401
303.34	0.395
303.81	0.390
304.27	0.383
304.74	0.374
305.21	0.368
305.67	0.364
306.14	0.359
306.61	0.354
307.07	0.348
307.54	0.347
308.01	0.336
308.47	0.332
308.94	0.329
309.40	0.327
309.87	0.322
310.34	0.319
310.80	0.316
311.27	0.311
311.74	0.309
312.20	0.305
312.67	0.303
313.13	0.298
313.60	0.295
314.07	0.293
314.53	0.291
315.00	0.286
315.47	0.289
315.93	0.288
316.40	0.284
316.86	0.281
317.33	0.279
317.80	0.278
318.26	0.279
318.73	0.280
319.19	0.277
319.66	0.273
320.13	0.272
320.59	0.270
321.06	0.271
321.52	0.266
321.99	0.267
322.45	0.263
322.92	0.264
323.39	0.262
323.85	0.259
324.32	0.259
324.78	0.255
325.25	0.253
325.71	0.254
326.18	0.252
326.64	0.252
327.11	0.247
327.58	0.245
328.04	0.247
328.51	0.244
328.97	0.245
329.44	0.241
329.90	0.240
330.37	0.236
330.83	0.234
331.30	0.234
331.76	0.229
332.23	0.231
332.69	0.228
333.16	0.229
333.62	0.226
334.09	0.223
334.56	0.220
335.02	0.219
335.49	0.217
335.95	0.214
336.42	0.214
336.88	0.210
337.35	0.208
337.81	0.209
338.28	0.210
338.74	0.209
339.20	0.206
339.67	0.207
340.13	0.209
340.60	0.203
341.06	0.199
341.53	0.197
341.99	0.197
342.46	0.197
342.92	0.197
343.39	0.191
343.85	0.190
344.32	0.191
344.78	0.191
345.25	0.195
345.71	0.193
346.17	0.192
346.64	0.194
347.10	0.192
347.57	0.186
348.03	0.184
348.50	0.183
348.96	0.185
349.43	0.184
349.89	0.185
350.35	0.182
350.82	0.183
351.28	0.185
351.75	0.184
352.21	0.187
352.67	0.179
353.14	0.182
353.60	0.176
354.07	0.180
354.53	0.175
355.00	0.174
355.46	0.174
355.92	0.167
356.39	0.174
356.85	0.166
357.31	0.164
357.78	0.160
358.24	0.165
358.71	0.165
359.17	0.165
359.63	0.163
360.10	0.162
360.56	0.160
361.03	0.158
361.49	0.162
361.95	0.163
362.42	0.163
362.88	0.162
363.34	0.165
363.81	0.161
364.27	0.160
364.73	0.160
365.20	0.160
365.66	0.160
366.12	0.159
366.59	0.161
367.05	0.161
367.51	0.159
367.98	0.158
368.44	0.158
368.90	0.155
369.37	0.157
369.83	0.157
370.29	0.154
370.76	0.155
371.22	0.153
371.68	0.152
372.15	0.151
372.61	0.147
373.07	0.153
373.54	0.151
374.00	0.152
374.46	0.153
374.92	0.149
375.39	0.150
375.85	0.152
376.31	0.151
376.78	0.150
377.24	0.151
377.70	0.147
378.16	0.148
378.63	0.150
379.09	0.150
379.55	0.149
380.01	0.152
380.48	0.150
380.94	0.150
381.40	0.149
381.87	0.149
382.33	0.147
382.79	0.146
383.25	0.147
383.72	0.149
384.18	0.147
384.64	0.147
385.10	0.147
385.56	0.145
386.03	0.146
386.49	0.144
386.95	0.145
387.41	0.146
387.88	0.142
388.34	0.141
388.80	0.143
389.26	0.144
389.72	0.144
390.19	0.140
390.65	0.142
391.11	0.140
391.57	0.142
392.04	0.141
392.50	0.138
392.96	0.141
393.42	0.140
393.88	0.145
394.34	0.141
394.81	0.141
395.27	0.141
395.73	0.136
396.19	0.140
396.65	0.139
397.12	0.136
397.58	0.136
398.04	0.138
398.50	0.140
398.96	0.141
399.42	0.141
399.89	0.141
400.35	0.141
400.81	0.137
401.27	0.138
401.73	0.137
402.19	0.138
402.65	0.133
403.12	0.138
403.58	0.135
404.04	0.132
404.50	0.130
404.96	0.134
405.42	0.134
405.88	0.134
406.34	0.137
406.81	0.136
407.27	0.132
407.73	0.129
408.19	0.132
408.65	0.128
409.11	0.131
409.57	0.131
410.03	0.132
410.49	0.132
410.96	0.131
411.42	0.131
411.88	0.127
412.34	0.125
412.80	0.129
413.26	0.129
413.72	0.129
414.18	0.129
414.64	0.131
415.10	0.127
415.56	0.129
416.02	0.127
416.48	0.126
416.95	0.129
417.41	0.129
417.87	0.127
418.33	0.128
418.79	0.125
419.25	0.127
419.71	0.126
420.17	0.124
420.63	0.122
421.09	0.122
421.55	0.123
422.01	0.125
422.47	0.130
422.93	0.130
423.39	0.128
423.85	0.127
424.31	0.127
424.77	0.126
425.23	0.126
425.69	0.126
426.15	0.128
426.61	0.127
427.07	0.121
427.53	0.122
427.99	0.124
428.45	0.126
428.91	0.122
429.37	0.122
429.83	0.121
430.29	0.124
430.75	0.125
431.21	0.127
431.67	0.130
432.13	0.127
432.59	0.122
433.05	0.123
433.51	0.118
433.97	0.118
434.43	0.129
434.89	0.129
435.35	0.124
435.81	0.124
436.27	0.125
436.73	0.122
437.19	0.126
437.65	0.122
438.11	0.124
438.57	0.125
439.03	0.121
439.48	0.127
439.94	0.125
440.40	0.120
440.86	0.119
441.32	0.121
441.78	0.120
442.24	0.126
442.70	0.124
443.16	0.120
443.62	0.119
444.08	0.120
444.54	0.120
444.99	0.122
445.45	0.118
445.91	0.119
446.37	0.119
446.83	0.119
447.29	0.119
447.75	0.118
448.21	0.121
448.67	0.119
449.12	0.119
449.58	0.120
450.04	0.120
450.50	0.120
450.96	0.117
451.42	0.119
451.88	0.120
452.34	0.117
452.79	0.118
453.25	0.120
453.71	0.118
454.17	0.118
454.63	0.120
455.09	0.120
455.55	0.117
456.00	0.114
456.46	0.114
456.92	0.118
457.38	0.118
457.84	0.119
458.30	0.117
458.75	0.116
459.21	0.116
459.67	0.115
460.13	0.116
460.59	0.115
461.04	0.114
461.50	0.115
461.96	0.115
462.42	0.115
462.88	0.113
463.33	0.115
463.79	0.115
464.25	0.114
464.71	0.116
465.17	0.115
465.62	0.115
466.08	0.116
466.54	0.118
467.00	0.117
467.46	0.118
467.91	0.119
468.37	0.117
468.83	0.118
469.29	0.118
469.74	0.116
470.20	0.117
470.66	0.117
471.12	0.116
471.57	0.114
472.03	0.117
472.49	0.117
472.95	0.120
473.40	0.117
473.86	0.119
474.32	0.117
474.78	0.117
475.23	0.118
475.69	0.117
476.15	0.119
476.60	0.119
477.06	0.118
477.52	0.118
477.98	0.118
478.43	0.120
478.89	0.117
479.35	0.118
479.80	0.118
480.26	0.114
480.72	0.117
481.18	0.116
481.63	0.117
482.09	0.117
482.55	0.113
483.00	0.112
483.46	0.115
483.92	0.114
484.37	0.114
484.83	0.113
485.29	0.117
485.74	0.114
486.20	0.115
486.66	0.116
487.11	0.114
487.57	0.115
488.03	0.115
488.48	0.117
488.94	0.114
489.40	0.116
489.85	0.114
490.31	0.116
490.77	0.114
491.22	0.116
491.68	0.115
492.13	0.115
492.59	0.116
493.05	0.114
493.50	0.114
493.96	0.115
494.42	0.114
494.87	0.116
495.33	0.113
495.78	0.115
496.24	0.115
496.70	0.115
497.15	0.114
497.61	0.115
498.06	0.112
498.52	0.114
498.98	0.113
499.43	0.115
499.89	0.113
500.34	0.112
500.80	0.113
501.25	0.112
501.71	0.111
502.17	0.111
502.62	0.110
503.08	0.110
503.53	0.113
503.99	0.110
504.44	0.113
504.90	0.110
505.36	0.112
505.81	0.114
506.27	0.111
506.72	0.112
507.18	0.112
507.63	0.113
508.09	0.113
508.54	0.111
509.00	0.111
509.45	0.111
509.91	0.113
510.36	0.113
510.82	0.113
511.27	0.112
511.73	0.113
512.19	0.113
512.64	0.113
513.10	0.113
513.55	0.112
514.01	0.112
514.46	0.111
514.92	0.111
515.37	0.113
515.83	0.111
516.28	0.111
516.73	0.111
517.19	0.109
517.64	0.111
518.10	0.111
518.55	0.112
519.01	0.112
519.46	0.110
519.92	0.110
520.37	0.110
520.83	0.111
521.28	0.109
521.74	0.111
522.19	0.111
522.65	0.109
523.10	0.109
523.55	0.112
524.01	0.111
524.46	0.109
524.92	0.110
525.37	0.113
525.83	0.110
526.28	0.111
526.73	0.109
527.19	0.109
527.64	0.110
528.10	0.112
528.55	0.111
529.01	0.111
529.46	0.110
529.91	0.109
530.37	0.109
530.82	0.111
531.28	0.110
531.73	0.111
532.18	0.113
532.64	0.110
533.09	0.112
533.54	0.109
534.00	0.110
534.45	0.112
534.91	0.109
535.36	0.108
535.81	0.110
536.27	0.109
536.72	0.110
537.17	0.110
537.63	0.110
538.08	0.113
538.54	0.112
538.99	0.113
539.44	0.113
539.90	0.114
540.35	0.112
540.80	0.112
541.26	0.112
541.71	0.116
542.16	0.112
542.62	0.115
543.07	0.115
543.52	0.114
543.98	0.113
544.43	0.114
544.88	0.113
545.34	0.115
545.79	0.115
546.24	0.115
546.69	0.115
547.15	0.115
547.60	0.116
548.05	0.115
548.51	0.116
548.96	0.117
549.41	0.116
549.86	0.115
550.32	0.118
550.77	0.119
551.22	0.118
551.68	0.119
552.13	0.121
552.58	0.118
553.03	0.120
553.49	0.117
553.94	0.118
554.39	0.119
554.84	0.121
555.30	0.119
555.75	0.120
556.20	0.118
556.65	0.121
557.11	0.123
557.56	0.122
558.01	0.127
558.46	0.121
558.92	0.126
559.37	0.127
559.82	0.125
560.27	0.125
560.72	0.125
561.18	0.126
561.63	0.128
562.08	0.127
562.53	0.126
562.99	0.127
563.44	0.128
563.89	0.129
564.34	0.131
564.79	0.129
565.25	0.129
565.70	0.128
566.15	0.131
566.60	0.133
567.05	0.131
567.50	0.133
567.96	0.134
568.41	0.133
568.86	0.134
569.31	0.135
569.76	0.135
570.21	0.136
570.67	0.133
571.12	0.138
571.57	0.137
572.02	0.139
572.47	0.138
572.92	0.139
573.37	0.141
573.83	0.142
574.28	0.143
574.73	0.143
575.18	0.142
575.63	0.145
576.08	0.144
576.53	0.143
576.98	0.145
577.44	0.146
577.89	0.145
578.34	0.148
578.79	0.147
579.24	0.149
579.69	0.150
580.14	0.151
580.59	0.151
581.04	0.152
581.49	0.154
581.95	0.154
582.40	0.156
582.85	0.158
583.30	0.158
583.75	0.159
584.20	0.159
584.65	0.163
585.10	0.164
585.55	0.165
586.00	0.163
586.45	0.166
586.90	0.167
587.35	0.167
587.80	0.168
588.25	0.171
588.71	0.171
589.16	0.176
589.61	0.173
590.06	0.178
590.51	0.176
590.96	0.181
591.41	0.182
591.86	0.183
592.31	0.184
592.76	0.184
593.21	0.185
593.66	0.190
594.11	0.188
594.56	0.191
595.01	0.193
595.46	0.194
595.91	0.198
596.36	0.198
596.81	0.200
597.26	0.200
597.71	0.201
598.16	0.205
598.61	0.207
599.06	0.207
599.51	0.208
599.96	0.210
600.41	0.209
600.86	0.214
601.31	0.213
601.76	0.216
602.21	0.219
602.65	0.219
603.10	0.220
603.55	0.223
604.00	0.224
604.45	0.225
604.90	0.227
605.35	0.228
605.80	0.227
606.25	0.230
606.70	0.232
607.15	0.232
607.60	0.234
608.05	0.235
608.50	0.237
608.95	0.238
609.39	0.240
609.84	0.240
610.29	0.241
610.74	0.243
611.19	0.242
611.64	0.243
612.09	0.245
612.54	0.246
612.99	0.244
613.44	0.244
613.88	0.246
614.33	0.247
614.78	0.252
615.23	0.251
615.68	0.249
616.13	0.251
616.58	0.253
617.03	0.254
617.47	0.251
617.92	0.253
618.37	0.253
618.82	0.254
619.27	0.255
619.72	0.254
620.17	0.256
620.61	0.255
621.06	0.255
621.51	0.255
621.96	0.258
622.41	0.259
622.86	0.258
623.30	0.261
623.75	0.262
624.20	0.262
624.65	0.262
625.10	0.264
625.54	0.262
625.99	0.262
626.44	0.265
626.89	0.266
627.34	0.266
627.78	0.267
628.23	0.267
628.68	0.268
629.13	0.268
629.58	0.271
630.02	0.272
630.47	0.276
630.92	0.274
631.37	0.276
631.81	0.277
632.26	0.278
632.71	0.280
633.16	0.281
633.61	0.283
634.05	0.284
634.50	0.286
634.95	0.290
635.40	0.289
635.84	0.294
636.29	0.295
636.74	0.297
637.18	0.297
637.63	0.299
638.08	0.302
638.53	0.303
638.97	0.306
639.42	0.308
639.87	0.310
640.32	0.311
640.76	0.313
641.21	0.318
641.66	0.320
642.10	0.322
642.55	0.323
643.00	0.329
643.44	0.329
643.89	0.332
644.34	0.335
644.79	0.337
645.23	0.340
645.68	0.341
646.13	0.346
646.57	0.347
647.02	0.349
647.47	0.353
647.91	0.353
648.36	0.357
648.81	0.358
649.25	0.361
649.70	0.363
650.15	0.366
650.59	0.368
651.04	0.373
651.48	0.374
651.93	0.375
652.38	0.379
652.82	0.381
653.27	0.379
653.72	0.383
654.16	0.384
654.61	0.386
655.06	0.388
655.50	0.390
655.95	0.386
656.39	0.389
656.84	0.400
657.29	0.402
657.73	0.401
658.18	0.397
658.62	0.404
659.07	0.404
659.52	0.405
659.96	0.406
660.41	0.406
660.85	0.407
661.30	0.407
661.74	0.408
662.19	0.411
662.64	0.410
663.08	0.409
663.53	0.410
663.97	0.412
664.42	0.407
664.86	0.410
665.31	0.414
665.75	0.409
666.20	0.407
666.65	0.410
667.09	0.407
667.54	0.405
667.98	0.403
668.43	0.405
668.87	0.401
669.32	0.400
669.76	0.395
670.21	0.396
670.65	0.391
671.10	0.388
671.54	0.383
671.99	0.382
672.43	0.377
672.88	0.372
673.32	0.369
673.77	0.366
674.21	0.358
674.66	0.353
675.10	0.351
675.55	0.342
675.99	0.335
676.44	0.333
676.88	0.326
677.33	0.319
677.77	0.312
678.22	0.305
678.66	0.299
679.11	0.295
679.55	0.289
679.99	0.282
680.44	0.276
680.88	0.268
681.33	0.264
681.77	0.256
682.22	0.249
682.66	0.245
683.11	0.239
683.55	0.234
683.99	0.226
684.44	0.221
684.88	0.215
685.33	0.210
685.77	0.203
686.21	0.198
686.66	0.192
687.10	0.186
687.55	0.183
687.99	0.180
688.44	0.176
688.88	0.169
689.32	0.166
689.77	0.161
690.21	0.159
690.65	0.152
691.10	0.149
691.54	0.145
691.99	0.145
692.43	0.141
692.87	0.137
693.32	0.132
693.76	0.131
694.20	0.128
694.65	0.126
695.09	0.122
695.53	0.121
695.98	0.118
696.42	0.117
696.86	0.115
697.31	0.112
697.75	0.109
698.19	0.109
698.64	0.106
699.08	0.106
699.52	0.105
699.97	0.104
700.41	0.101
700.85	0.102
701.30	0.098
701.74	0.098
702.18	0.096
702.63	0.096
703.07	0.093
703.51	0.094
703.96	0.093
704.40	0.093
704.84	0.092
705.28	0.090
705.73	0.092
706.17	0.087
706.61	0.089
707.06	0.087
707.50	0.087
707.94	0.088
708.38	0.083
708.83	0.087
709.27	0.088
709.71	0.085
710.15	0.085
710.60	0.087
711.04	0.082
711.48	0.084
711.92	0.084
712.37	0.080
712.81	0.082
713.25	0.083
713.69	0.080
714.13	0.080
714.58	0.081
715.02	0.079
715.46	0.082
715.90	0.080
716.35	0.081
716.79	0.080
717.23	0.081
717.67	0.081
718.11	0.079
718.56	0.080
719.00	0.080
719.44	0.079
719.88	0.082
720.32	0.081
720.76	0.079
721.21	0.081
721.65	0.080
722.09	0.082
722.53	0.078
722.97	0.079
723.41	0.077
723.86	0.078
724.30	0.079
724.74	0.081
725.18	0.078
725.62	0.079
726.06	0.079
726.50	0.079
726.95	0.082
727.39	0.081
727.83	0.081
728.27	0.080
728.71	0.080
729.15	0.082
729.59	0.077
730.03	0.080
730.48	0.079
730.92	0.081
731.36	0.078
731.80	0.080
732.24	0.083
732.68	0.080
733.12	0.082
733.56	0.085
734.00	0.084
734.44	0.081
734.89	0.084
735.33	0.079
735.77	0.084
736.21	0.082
736.65	0.081
737.09	0.085
737.53	0.081
737.97	0.081
738.41	0.083
738.85	0.083
739.29	0.082
739.73	0.084
740.17	0.083
740.61	0.082
741.05	0.085
741.49	0.081
741.93	0.081
742.37	0.083
742.81	0.083
743.26	0.083
743.70	0.082
744.14	0.083
744.58	0.081
745.02	0.083
745.46	0.080
745.90	0.080
746.34	0.083
746.78	0.084
747.22	0.082
747.66	0.083
748.10	0.082
748.54	0.083
748.98	0.082
749.42	0.082
749.86	0.084
750.29	0.082
750.73	0.082
751.17	0.082
751.61	0.084
752.05	0.082
752.49	0.082
752.93	0.084
753.37	0.084
753.81	0.083
754.25	0.083
754.69	0.084
755.13	0.085
755.57	0.082
756.01	0.081
756.45	0.082
756.89	0.086
757.33	0.082
757.77	0.082
758.21	0.084
758.64	0.080
759.08	0.080
759.52	0.083
759.96	0.085
760.40	0.081
760.84	0.079
761.28	0.079
761.72	0.082
762.16	0.080
762.60	0.079
763.03	0.083
763.47	0.081
763.91	0.080
764.35	0.081
764.79	0.080
765.23	0.080
765.67	0.078
766.11	0.082
766.54	0.080
766.98	0.080
767.42	0.081
767.86	0.084
768.30	0.080
768.74	0.079
769.17	0.083
769.61	0.080
770.05	0.080
770.49	0.081
770.93	0.082
771.37	0.083
771.80	0.078
772.24	0.078
772.68	0.080
773.12	0.081
773.56	0.080
774.00	0.080
774.43	0.079
774.87	0.078
775.31	0.081
775.75	0.079
776.19	0.081
776.62	0.080
777.06	0.082
777.50	0.082
777.94	0.080
778.37	0.080
778.81	0.084
779.25	0.078
779.69	0.080
780.13	0.081
780.56	0.077
781.00	0.079
781.44	0.081
781.88	0.080
782.31	0.078
782.75	0.078
783.19	0.082
783.63	0.084
784.06	0.080
784.50	0.080
784.94	0.081
785.37	0.077
785.81	0.080
786.25	0.080
786.69	0.082
787.12	0.083
787.56	0.081
788.00	0.082
788.43	0.081
788.87	0.085
789.31	0.082
789.75	0.081
790.18	0.084
790.62	0.077
791.06	0.078
791.49	0.082
791.93	0.077
792.37	0.079
792.80	0.083
793.24	0.078
793.68	0.084
794.11	0.081
794.55	0.079
794.99	0.080
795.42	0.082
795.86	0.084
796.30	0.082
796.73	0.079
797.17	0.080
797.61	0.078
798.04	0.080
798.48	0.081
798.91	0.086
799.35	0.082
799.79	0.083
800.22	0.080
800.66	0.077
801.10	0.082
801.53	0.083
801.97	0.081
802.40	0.079
802.84	0.082
803.28	0.079
803.71	0.080
804.15	0.083
804.58	0.084
805.02	0.081
805.46	0.080
805.89	0.081
806.33	0.084
806.76	0.080
807.20	0.084
807.63	0.083
808.07	0.082
808.51	0.082
808.94	0.082
809.38	0.080
809.81	0.082
810.25	0.082
810.68	0.081
811.12	0.082
811.55	0.082
811.99	0.079
812.42	0.080
812.86	0.077
813.29	0.082
813.73	0.082
814.17	0.075
814.60	0.081
