SpectraSuite Data File
++++++++++++++++++++++++++++++++++++
Date: Wed May 04 16:28:12 CEST 2016
User: spectrasuite
Dark Spectrum Present: Yes
Reference Spectrum Present: Yes
Number of Sampled Component Spectra: 1
Spectrometers: HR+C0708
Integration Time (usec): 1000 (HR+C0708)
Spectra Averaged: 10 (HR+C0708)
Boxcar Smoothing: 0 (HR+C0708)
Correct for Electrical Dark: No (HR+C0708)
Strobe/Lamp Enabled: No (HR+C0708)
Correct for Detector Non-linearity: No (HR+C0708)
Correct for Stray Light: No (HR+C0708)
Number of Pixels in Processed Spectrum: 2048
>>>>>Begin Processed Spectral Data<<<<<
188.76	-0.000
189.23	-0.000
189.70	-0.000
190.17	-0.000
190.64	-0.000
191.12	-0.000
191.59	-0.000
192.06	-0.000
192.53	-0.000
193.01	-0.000
193.48	-0.000
193.95	-0.000
194.42	-0.000
194.90	-0.000
195.37	-0.000
195.84	-0.000
196.31	-0.000
196.78	-0.000
197.26	-0.000
197.73	-0.000
198.20	-0.000
198.67	-0.000
199.14	-0.000
199.62	-0.000
200.09	-0.000
200.56	-0.000
201.03	-0.000
201.50	-0.000
201.97	-0.000
202.45	-0.000
202.92	-0.000
203.39	-0.000
203.86	-0.000
204.33	-0.000
204.80	-0.000
205.28	-0.000
205.75	-0.000
206.22	-0.000
206.69	-0.000
207.16	0.783
207.63	-0.000
208.11	-0.000
208.58	-0.000
209.05	-0.000
209.52	-0.000
209.99	-0.000
210.46	1.426
210.93	-0.000
211.41	-0.000
211.88	-0.000
212.35	-0.000
212.82	-0.000
213.29	-0.000
213.76	-0.000
214.23	-0.000
214.70	-0.000
215.18	-0.000
215.65	2.429
216.12	-0.000
216.59	-0.000
217.06	1.123
217.53	-0.000
218.00	-0.000
218.47	-0.000
218.94	-0.000
219.41	-0.000
219.89	-0.000
220.36	1.272
220.83	-0.000
221.30	-0.000
221.77	-0.000
222.24	1.154
222.71	-0.000
223.18	-0.000
223.65	1.216
224.12	1.092
224.59	-0.000
225.06	-0.000
225.54	1.376
226.01	-0.000
226.48	-0.000
226.95	-0.000
227.42	-0.000
227.89	-0.000
228.36	-0.000
228.83	-0.000
229.30	1.570
229.77	-0.000
230.24	2.004
230.71	1.730
231.18	-0.000
231.65	-0.000
232.12	-0.000
232.59	-0.000
233.06	-0.000
233.53	-0.000
234.00	1.926
234.47	-0.000
234.94	-0.000
235.41	-0.000
235.88	2.322
236.35	-0.000
236.82	-0.000
237.29	-0.000
237.76	-0.000
238.23	-0.000
238.70	-0.000
239.17	2.664
239.64	-0.000
240.11	-0.000
240.58	2.732
241.05	3.359
241.52	-0.000
241.99	-0.000
242.46	2.414
242.93	3.586
243.40	-0.000
243.87	3.232
244.34	2.556
244.81	3.706
245.28	-0.000
245.75	2.890
246.22	3.220
246.69	-0.000
247.16	4.070
247.63	2.703
248.10	3.232
248.57	-0.000
249.04	2.858
249.51	3.087
249.98	-0.000
250.45	-0.000
250.92	2.730
251.39	2.667
251.85	3.075
252.32	2.244
252.79	2.058
253.26	2.003
253.73	1.871
254.20	1.695
254.67	1.622
255.14	1.553
255.61	1.469
256.08	1.389
256.55	1.337
257.02	1.288
257.49	1.220
257.95	1.180
258.42	1.153
258.89	1.114
259.36	1.076
259.83	1.052
260.30	1.023
260.77	1.005
261.24	0.971
261.71	0.956
262.17	0.932
262.64	0.911
263.11	0.895
263.58	0.882
264.05	0.862
264.52	0.844
264.99	0.839
265.46	0.824
265.92	0.806
266.39	0.792
266.86	0.782
267.33	0.772
267.80	0.764
268.27	0.755
268.74	0.749
269.20	0.731
269.67	0.722
270.14	0.712
270.61	0.709
271.08	0.698
271.55	0.692
272.01	0.686
272.48	0.671
272.95	0.668
273.42	0.658
273.89	0.656
274.36	0.649
274.82	0.642
275.29	0.643
275.76	0.632
276.23	0.626
276.70	0.625
277.16	0.617
277.63	0.614
278.10	0.614
278.57	0.605
279.04	0.606
279.50	0.601
279.97	0.599
280.44	0.599
280.91	0.593
281.38	0.590
281.84	0.587
282.31	0.584
282.78	0.580
283.25	0.582
283.72	0.580
284.18	0.579
284.65	0.577
285.12	0.576
285.59	0.576
286.05	0.574
286.52	0.572
286.99	0.575
287.46	0.574
287.92	0.571
288.39	0.573
288.86	0.573
289.33	0.570
289.79	0.571
290.26	0.567
290.73	0.569
291.20	0.563
291.66	0.558
292.13	0.559
292.60	0.555
293.07	0.550
293.53	0.548
294.00	0.542
294.47	0.536
294.93	0.533
295.40	0.524
295.87	0.520
296.34	0.514
296.80	0.505
297.27	0.499
297.74	0.491
298.20	0.483
298.67	0.477
299.14	0.469
299.60	0.460
300.07	0.453
300.54	0.447
301.01	0.440
301.47	0.433
301.94	0.424
302.41	0.416
302.87	0.410
303.34	0.406
303.81	0.398
304.27	0.393
304.74	0.384
305.21	0.383
305.67	0.373
306.14	0.367
306.61	0.362
307.07	0.358
307.54	0.353
308.01	0.345
308.47	0.342
308.94	0.337
309.40	0.333
309.87	0.331
310.34	0.325
310.80	0.323
311.27	0.318
311.74	0.318
312.20	0.313
312.67	0.311
313.13	0.307
313.60	0.304
314.07	0.301
314.53	0.297
315.00	0.293
315.47	0.298
315.93	0.293
316.40	0.293
316.86	0.290
317.33	0.288
317.80	0.287
318.26	0.287
318.73	0.285
319.19	0.284
319.66	0.280
320.13	0.277
320.59	0.281
321.06	0.279
321.52	0.275
321.99	0.275
322.45	0.272
322.92	0.271
323.39	0.272
323.85	0.267
324.32	0.267
324.78	0.266
325.25	0.261
325.71	0.264
326.18	0.260
326.64	0.257
327.11	0.256
327.58	0.255
328.04	0.255
328.51	0.257
328.97	0.254
329.44	0.252
329.90	0.250
330.37	0.242
330.83	0.245
331.30	0.243
331.76	0.241
332.23	0.242
332.69	0.236
333.16	0.238
333.62	0.235
334.09	0.233
334.56	0.231
335.02	0.230
335.49	0.227
335.95	0.224
336.42	0.223
336.88	0.220
337.35	0.219
337.81	0.217
338.28	0.217
338.74	0.216
339.20	0.218
339.67	0.218
340.13	0.218
340.60	0.214
341.06	0.210
341.53	0.209
341.99	0.206
342.46	0.205
342.92	0.205
343.39	0.201
343.85	0.201
344.32	0.200
344.78	0.199
345.25	0.202
345.71	0.199
346.17	0.202
346.64	0.203
347.10	0.199
347.57	0.196
348.03	0.196
348.50	0.193
348.96	0.197
349.43	0.197
349.89	0.194
350.35	0.197
350.82	0.192
351.28	0.193
351.75	0.194
352.21	0.198
352.67	0.186
353.14	0.192
353.60	0.189
354.07	0.186
354.53	0.188
355.00	0.184
355.46	0.183
355.92	0.181
356.39	0.181
356.85	0.177
357.31	0.174
357.78	0.174
358.24	0.176
358.71	0.177
359.17	0.174
359.63	0.171
360.10	0.173
360.56	0.176
361.03	0.170
361.49	0.172
361.95	0.172
362.42	0.172
362.88	0.172
363.34	0.172
363.81	0.171
364.27	0.169
364.73	0.171
365.20	0.168
365.66	0.167
366.12	0.169
366.59	0.166
367.05	0.167
367.51	0.168
367.98	0.169
368.44	0.168
368.90	0.166
369.37	0.166
369.83	0.165
370.29	0.164
370.76	0.165
371.22	0.162
371.68	0.161
372.15	0.164
372.61	0.160
373.07	0.158
373.54	0.159
374.00	0.161
374.46	0.163
374.92	0.161
375.39	0.161
375.85	0.161
376.31	0.162
376.78	0.158
377.24	0.160
377.70	0.157
378.16	0.157
378.63	0.160
379.09	0.158
379.55	0.158
380.01	0.160
380.48	0.159
380.94	0.159
381.40	0.157
381.87	0.159
382.33	0.159
382.79	0.153
383.25	0.155
383.72	0.161
384.18	0.156
384.64	0.157
385.10	0.158
385.56	0.154
386.03	0.156
386.49	0.156
386.95	0.157
387.41	0.155
387.88	0.153
388.34	0.152
388.80	0.155
389.26	0.154
389.72	0.154
390.19	0.153
390.65	0.149
391.11	0.150
391.57	0.152
392.04	0.151
392.50	0.151
392.96	0.151
393.42	0.150
393.88	0.154
394.34	0.149
394.81	0.150
395.27	0.151
395.73	0.146
396.19	0.148
396.65	0.149
397.12	0.147
397.58	0.147
398.04	0.147
398.50	0.147
398.96	0.149
399.42	0.151
399.89	0.150
400.35	0.151
400.81	0.147
401.27	0.147
401.73	0.149
402.19	0.148
402.65	0.142
403.12	0.146
403.58	0.144
404.04	0.140
404.50	0.144
404.96	0.142
405.42	0.143
405.88	0.144
406.34	0.144
406.81	0.143
407.27	0.140
407.73	0.138
408.19	0.141
408.65	0.139
409.11	0.139
409.57	0.138
410.03	0.142
410.49	0.141
410.96	0.139
411.42	0.139
411.88	0.139
412.34	0.134
412.80	0.135
413.26	0.138
413.72	0.135
414.18	0.137
414.64	0.139
415.10	0.137
415.56	0.140
416.02	0.135
416.48	0.137
416.95	0.137
417.41	0.135
417.87	0.134
418.33	0.136
418.79	0.132
419.25	0.135
419.71	0.134
420.17	0.133
420.63	0.131
421.09	0.129
421.55	0.132
422.01	0.135
422.47	0.138
422.93	0.136
423.39	0.135
423.85	0.134
424.31	0.133
424.77	0.136
425.23	0.133
425.69	0.136
426.15	0.137
426.61	0.134
427.07	0.131
427.53	0.132
427.99	0.132
428.45	0.136
428.91	0.130
429.37	0.128
429.83	0.129
430.29	0.131
430.75	0.134
431.21	0.135
431.67	0.138
432.13	0.135
432.59	0.133
433.05	0.130
433.51	0.129
433.97	0.126
434.43	0.135
434.89	0.138
435.35	0.132
435.81	0.132
436.27	0.134
436.73	0.130
437.19	0.134
437.65	0.133
438.11	0.131
438.57	0.133
439.03	0.132
439.48	0.133
439.94	0.135
440.40	0.128
440.86	0.127
441.32	0.129
441.78	0.127
442.24	0.131
442.70	0.134
443.16	0.129
443.62	0.132
444.08	0.127
444.54	0.130
444.99	0.134
445.45	0.127
445.91	0.127
446.37	0.130
446.83	0.128
447.29	0.127
447.75	0.127
448.21	0.132
448.67	0.127
449.12	0.126
449.58	0.125
450.04	0.129
450.50	0.125
450.96	0.127
451.42	0.131
451.88	0.127
452.34	0.125
452.79	0.127
453.25	0.130
453.71	0.128
454.17	0.126
454.63	0.127
455.09	0.127
455.55	0.127
456.00	0.123
456.46	0.127
456.92	0.128
457.38	0.125
457.84	0.124
458.30	0.127
458.75	0.122
459.21	0.123
459.67	0.121
460.13	0.124
460.59	0.125
461.04	0.124
461.50	0.123
461.96	0.127
462.42	0.124
462.88	0.124
463.33	0.124
463.79	0.123
464.25	0.124
464.71	0.124
465.17	0.122
465.62	0.123
466.08	0.125
466.54	0.128
467.00	0.124
467.46	0.125
467.91	0.124
468.37	0.125
468.83	0.126
469.29	0.127
469.74	0.125
470.20	0.126
470.66	0.126
471.12	0.127
471.57	0.124
472.03	0.123
472.49	0.126
472.95	0.126
473.40	0.125
473.86	0.124
474.32	0.124
474.78	0.123
475.23	0.125
475.69	0.127
476.15	0.129
476.60	0.128
477.06	0.127
477.52	0.124
477.98	0.125
478.43	0.127
478.89	0.125
479.35	0.128
479.80	0.124
480.26	0.122
480.72	0.125
481.18	0.124
481.63	0.125
482.09	0.125
482.55	0.122
483.00	0.122
483.46	0.125
483.92	0.123
484.37	0.122
484.83	0.123
485.29	0.124
485.74	0.123
486.20	0.122
486.66	0.123
487.11	0.125
487.57	0.124
488.03	0.122
488.48	0.123
488.94	0.123
489.40	0.122
489.85	0.123
490.31	0.123
490.77	0.123
491.22	0.125
491.68	0.122
492.13	0.123
492.59	0.124
493.05	0.123
493.50	0.123
493.96	0.122
494.42	0.125
494.87	0.124
495.33	0.122
495.78	0.124
496.24	0.122
496.70	0.125
497.15	0.124
497.61	0.124
498.06	0.121
498.52	0.122
498.98	0.122
499.43	0.123
499.89	0.122
500.34	0.120
500.80	0.123
501.25	0.120
501.71	0.121
502.17	0.120
502.62	0.121
503.08	0.119
503.53	0.119
503.99	0.121
504.44	0.122
504.90	0.119
505.36	0.121
505.81	0.122
506.27	0.120
506.72	0.119
507.18	0.121
507.63	0.118
508.09	0.118
508.54	0.119
509.00	0.121
509.45	0.119
509.91	0.120
510.36	0.122
510.82	0.122
511.27	0.119
511.73	0.119
512.19	0.121
512.64	0.119
513.10	0.121
513.55	0.121
514.01	0.121
514.46	0.119
514.92	0.120
515.37	0.121
515.83	0.118
516.28	0.120
516.73	0.119
517.19	0.119
517.64	0.120
518.10	0.120
518.55	0.123
519.01	0.120
519.46	0.116
519.92	0.118
520.37	0.118
520.83	0.118
521.28	0.117
521.74	0.118
522.19	0.118
522.65	0.118
523.10	0.118
523.55	0.119
524.01	0.118
524.46	0.119
524.92	0.119
525.37	0.120
525.83	0.118
526.28	0.120
526.73	0.119
527.19	0.116
527.64	0.118
528.10	0.118
528.55	0.118
529.01	0.119
529.46	0.119
529.91	0.118
530.37	0.118
530.82	0.117
531.28	0.120
531.73	0.118
532.18	0.120
532.64	0.118
533.09	0.119
533.54	0.118
534.00	0.121
534.45	0.119
534.91	0.118
535.36	0.117
535.81	0.119
536.27	0.117
536.72	0.117
537.17	0.119
537.63	0.120
538.08	0.119
538.54	0.122
538.99	0.121
539.44	0.119
539.90	0.121
540.35	0.120
540.80	0.119
541.26	0.123
541.71	0.123
542.16	0.123
542.62	0.124
543.07	0.124
543.52	0.121
543.98	0.122
544.43	0.124
544.88	0.122
545.34	0.124
545.79	0.124
546.24	0.124
546.69	0.122
547.15	0.124
547.60	0.126
548.05	0.124
548.51	0.125
548.96	0.125
549.41	0.125
549.86	0.126
550.32	0.127
550.77	0.127
551.22	0.129
551.68	0.125
552.13	0.127
552.58	0.126
553.03	0.129
553.49	0.126
553.94	0.128
554.39	0.130
554.84	0.130
555.30	0.130
555.75	0.130
556.20	0.130
556.65	0.131
557.11	0.133
557.56	0.131
558.01	0.134
558.46	0.131
558.92	0.134
559.37	0.134
559.82	0.133
560.27	0.135
560.72	0.135
561.18	0.136
561.63	0.137
562.08	0.137
562.53	0.135
562.99	0.136
563.44	0.138
563.89	0.139
564.34	0.138
564.79	0.140
565.25	0.140
565.70	0.143
566.15	0.141
566.60	0.142
567.05	0.142
567.50	0.144
567.96	0.144
568.41	0.144
568.86	0.145
569.31	0.144
569.76	0.143
570.21	0.147
570.67	0.146
571.12	0.146
571.57	0.147
572.02	0.149
572.47	0.149
572.92	0.150
573.37	0.153
573.83	0.152
574.28	0.152
574.73	0.151
575.18	0.154
575.63	0.152
576.08	0.154
576.53	0.154
576.98	0.155
577.44	0.159
577.89	0.157
578.34	0.159
578.79	0.159
579.24	0.159
579.69	0.159
580.14	0.163
580.59	0.163
581.04	0.163
581.49	0.164
581.95	0.165
582.40	0.167
582.85	0.170
583.30	0.169
583.75	0.172
584.20	0.172
584.65	0.173
585.10	0.176
585.55	0.176
586.00	0.176
586.45	0.178
586.90	0.180
587.35	0.180
587.80	0.182
588.25	0.183
588.71	0.185
589.16	0.188
589.61	0.188
590.06	0.191
590.51	0.191
590.96	0.191
591.41	0.196
591.86	0.197
592.31	0.197
592.76	0.199
593.21	0.201
593.66	0.205
594.11	0.205
594.56	0.206
595.01	0.208
595.46	0.207
595.91	0.210
596.36	0.212
596.81	0.217
597.26	0.217
597.71	0.216
598.16	0.219
598.61	0.223
599.06	0.221
599.51	0.222
599.96	0.224
600.41	0.228
600.86	0.230
601.31	0.231
601.76	0.233
602.21	0.234
602.65	0.238
603.10	0.236
603.55	0.237
604.00	0.244
604.45	0.242
604.90	0.243
605.35	0.247
605.80	0.246
606.25	0.247
606.70	0.250
607.15	0.250
607.60	0.251
608.05	0.253
608.50	0.252
608.95	0.256
609.39	0.257
609.84	0.258
610.29	0.259
610.74	0.261
611.19	0.261
611.64	0.263
612.09	0.262
612.54	0.265
612.99	0.262
613.44	0.262
613.88	0.268
614.33	0.264
614.78	0.268
615.23	0.271
615.68	0.270
616.13	0.269
616.58	0.270
617.03	0.272
617.47	0.272
617.92	0.274
618.37	0.273
618.82	0.274
619.27	0.273
619.72	0.274
620.17	0.276
620.61	0.273
621.06	0.277
621.51	0.277
621.96	0.279
622.41	0.278
622.86	0.276
623.30	0.279
623.75	0.280
624.20	0.281
624.65	0.280
625.10	0.283
625.54	0.281
625.99	0.280
626.44	0.286
626.89	0.286
627.34	0.287
627.78	0.287
628.23	0.289
628.68	0.289
629.13	0.288
629.58	0.290
630.02	0.293
630.47	0.295
630.92	0.295
631.37	0.298
631.81	0.297
632.26	0.299
632.71	0.300
633.16	0.302
633.61	0.305
634.05	0.306
634.50	0.308
634.95	0.311
635.40	0.312
635.84	0.312
636.29	0.317
636.74	0.317
637.18	0.321
637.63	0.322
638.08	0.326
638.53	0.324
638.97	0.327
639.42	0.330
639.87	0.333
640.32	0.335
640.76	0.337
641.21	0.343
641.66	0.341
642.10	0.345
642.55	0.348
643.00	0.351
643.44	0.353
643.89	0.357
644.34	0.361
644.79	0.365
645.23	0.365
645.68	0.366
646.13	0.374
646.57	0.373
647.02	0.373
647.47	0.380
647.91	0.381
648.36	0.383
648.81	0.385
649.25	0.388
649.70	0.390
650.15	0.395
650.59	0.399
651.04	0.402
651.48	0.401
651.93	0.402
652.38	0.407
652.82	0.410
653.27	0.407
653.72	0.412
654.16	0.416
654.61	0.416
655.06	0.418
655.50	0.418
655.95	0.419
656.39	0.420
656.84	0.428
657.29	0.434
657.73	0.430
658.18	0.430
658.62	0.435
659.07	0.436
659.52	0.435
659.96	0.436
660.41	0.439
660.85	0.441
661.30	0.442
661.74	0.444
662.19	0.446
662.64	0.443
663.08	0.440
663.53	0.442
663.97	0.444
664.42	0.440
664.86	0.444
665.31	0.441
665.75	0.443
666.20	0.442
666.65	0.442
667.09	0.443
667.54	0.437
667.98	0.434
668.43	0.434
668.87	0.435
669.32	0.432
669.76	0.429
670.21	0.427
670.65	0.423
671.10	0.418
671.54	0.416
671.99	0.413
672.43	0.404
672.88	0.402
673.32	0.400
673.77	0.397
674.21	0.387
674.66	0.383
675.10	0.376
675.55	0.370
675.99	0.361
676.44	0.359
676.88	0.355
677.33	0.346
677.77	0.338
678.22	0.332
678.66	0.327
679.11	0.317
679.55	0.312
679.99	0.307
680.44	0.299
680.88	0.291
681.33	0.285
681.77	0.277
682.22	0.268
682.66	0.264
683.11	0.257
683.55	0.253
683.99	0.243
684.44	0.241
684.88	0.235
685.33	0.225
685.77	0.221
686.21	0.215
686.66	0.210
687.10	0.204
687.55	0.197
687.99	0.193
688.44	0.187
688.88	0.183
689.32	0.179
689.77	0.174
690.21	0.170
690.65	0.166
691.10	0.163
691.54	0.158
691.99	0.155
692.43	0.151
692.87	0.148
693.32	0.146
693.76	0.141
694.20	0.139
694.65	0.135
695.09	0.130
695.53	0.130
695.98	0.129
696.42	0.125
696.86	0.124
697.31	0.121
697.75	0.118
698.19	0.120
698.64	0.115
699.08	0.113
699.52	0.113
699.97	0.109
700.41	0.111
700.85	0.110
701.30	0.103
701.74	0.106
702.18	0.102
702.63	0.102
703.07	0.100
703.51	0.101
703.96	0.100
704.40	0.098
704.84	0.097
705.28	0.097
705.73	0.097
706.17	0.094
706.61	0.096
707.06	0.094
707.50	0.092
707.94	0.094
708.38	0.091
708.83	0.093
709.27	0.092
709.71	0.090
710.15	0.090
710.60	0.091
711.04	0.088
711.48	0.091
711.92	0.088
712.37	0.087
712.81	0.088
713.25	0.089
713.69	0.085
714.13	0.086
714.58	0.087
715.02	0.086
715.46	0.085
715.90	0.084
716.35	0.083
716.79	0.087
717.23	0.086
717.67	0.087
718.11	0.083
718.56	0.087
719.00	0.085
719.44	0.085
719.88	0.088
720.32	0.088
720.76	0.082
721.21	0.086
721.65	0.084
722.09	0.084
722.53	0.086
722.97	0.085
723.41	0.084
723.86	0.084
724.30	0.084
724.74	0.086
725.18	0.084
725.62	0.084
726.06	0.087
726.50	0.087
726.95	0.084
727.39	0.086
727.83	0.084
728.27	0.085
728.71	0.087
729.15	0.085
729.59	0.083
730.03	0.086
730.48	0.086
730.92	0.087
731.36	0.085
731.80	0.085
732.24	0.089
732.68	0.086
733.12	0.085
733.56	0.088
734.00	0.087
734.44	0.087
734.89	0.088
735.33	0.086
735.77	0.086
736.21	0.086
736.65	0.087
737.09	0.090
737.53	0.090
737.97	0.088
738.41	0.090
738.85	0.087
739.29	0.087
739.73	0.088
740.17	0.087
740.61	0.087
741.05	0.088
741.49	0.090
741.93	0.088
742.37	0.089
742.81	0.087
743.26	0.090
743.70	0.086
744.14	0.086
744.58	0.090
745.02	0.087
745.46	0.085
745.90	0.086
746.34	0.086
746.78	0.089
747.22	0.088
747.66	0.086
748.10	0.086
748.54	0.087
748.98	0.087
749.42	0.087
749.86	0.086
750.29	0.086
750.73	0.089
751.17	0.091
751.61	0.088
752.05	0.088
752.49	0.086
752.93	0.085
753.37	0.089
753.81	0.086
754.25	0.092
754.69	0.089
755.13	0.089
755.57	0.087
756.01	0.088
756.45	0.086
756.89	0.087
757.33	0.086
757.77	0.088
758.21	0.088
758.64	0.086
759.08	0.085
759.52	0.085
759.96	0.085
760.40	0.087
760.84	0.084
761.28	0.084
761.72	0.088
762.16	0.086
762.60	0.085
763.03	0.087
763.47	0.084
763.91	0.086
764.35	0.085
764.79	0.086
765.23	0.087
765.67	0.084
766.11	0.087
766.54	0.086
766.98	0.083
767.42	0.084
767.86	0.089
768.30	0.084
768.74	0.087
769.17	0.086
769.61	0.084
770.05	0.087
770.49	0.088
770.93	0.082
771.37	0.088
771.80	0.081
772.24	0.081
772.68	0.085
773.12	0.083
773.56	0.085
774.00	0.085
774.43	0.083
774.87	0.082
775.31	0.087
775.75	0.084
776.19	0.088
776.62	0.086
777.06	0.084
777.50	0.088
777.94	0.083
778.37	0.088
778.81	0.085
779.25	0.084
779.69	0.083
780.13	0.084
780.56	0.081
781.00	0.085
781.44	0.087
781.88	0.084
782.31	0.082
782.75	0.083
783.19	0.083
783.63	0.086
784.06	0.082
784.50	0.084
784.94	0.084
785.37	0.081
785.81	0.083
786.25	0.086
786.69	0.086
787.12	0.088
787.56	0.087
788.00	0.087
788.43	0.086
788.87	0.086
789.31	0.085
789.75	0.086
790.18	0.083
790.62	0.084
791.06	0.088
791.49	0.085
791.93	0.084
792.37	0.080
792.80	0.085
793.24	0.083
793.68	0.088
794.11	0.089
794.55	0.085
794.99	0.084
795.42	0.085
795.86	0.089
796.30	0.084
796.73	0.084
797.17	0.086
797.61	0.085
798.04	0.087
798.48	0.083
798.91	0.086
799.35	0.086
799.79	0.082
800.22	0.084
800.66	0.083
801.10	0.085
801.53	0.090
801.97	0.084
802.40	0.078
802.84	0.087
803.28	0.082
803.71	0.082
804.15	0.087
804.58	0.085
805.02	0.087
805.46	0.084
805.89	0.085
806.33	0.089
806.76	0.084
807.20	0.085
807.63	0.089
808.07	0.087
808.51	0.082
808.94	0.087
809.38	0.087
809.81	0.089
810.25	0.085
810.68	0.086
811.12	0.084
811.55	0.088
811.99	0.083
812.42	0.087
812.86	0.085
813.29	0.085
813.73	0.086
814.17	0.079
814.60	0.086
