SpectraSuite Data File
++++++++++++++++++++++++++++++++++++
Date: Wed May 04 12:36:25 CEST 2016
User: spectrasuite
Dark Spectrum Present: Yes
Reference Spectrum Present: Yes
Number of Sampled Component Spectra: 1
Spectrometers: HR+C0708
Integration Time (usec): 1000 (HR+C0708)
Spectra Averaged: 10 (HR+C0708)
Boxcar Smoothing: 0 (HR+C0708)
Correct for Electrical Dark: No (HR+C0708)
Strobe/Lamp Enabled: No (HR+C0708)
Correct for Detector Non-linearity: No (HR+C0708)
Correct for Stray Light: No (HR+C0708)
Number of Pixels in Processed Spectrum: 2048
>>>>>Begin Processed Spectral Data<<<<<
188.76	0.219
189.23	0.067
189.70	0.283
190.17	-0.004
190.64	-0.000
191.12	0.226
191.59	-0.000
192.06	0.324
192.53	-0.000
193.01	0.524
193.48	0.390
193.95	-0.000
194.42	0.524
194.90	0.195
195.37	0.135
195.84	-0.000
196.31	0.119
196.78	0.240
197.26	-0.000
197.73	0.778
198.20	0.114
198.67	0.064
199.14	0.163
199.62	1.077
200.09	0.689
200.56	0.258
201.03	0.589
201.50	0.421
201.97	0.518
202.45	0.707
202.92	0.637
203.39	0.755
203.86	0.511
204.33	0.412
204.80	0.505
205.28	0.296
205.75	0.437
206.22	0.442
206.69	0.459
207.16	0.473
207.63	0.595
208.11	0.553
208.58	0.537
209.05	0.485
209.52	0.615
209.99	0.432
210.46	0.391
210.93	0.611
211.41	0.624
211.88	0.421
212.35	0.442
212.82	0.714
213.29	0.462
213.76	0.718
214.23	0.597
214.70	0.580
215.18	0.531
215.65	0.374
216.12	0.593
216.59	0.531
217.06	0.376
217.53	0.515
218.00	0.602
218.47	0.417
218.94	0.490
219.41	0.336
219.89	0.479
220.36	0.490
220.83	0.497
221.30	1.132
221.77	0.789
222.24	0.539
222.71	0.583
223.18	0.648
223.65	0.555
224.12	0.534
224.59	0.600
225.06	0.722
225.54	0.777
226.01	0.726
226.48	0.886
226.95	0.845
227.42	0.834
227.89	1.166
228.36	1.012
228.83	0.974
229.30	0.981
229.77	1.372
230.24	1.168
230.71	1.223
231.18	1.229
231.65	1.820
232.12	1.488
232.59	1.434
233.06	1.601
233.53	1.902
234.00	1.520
234.47	1.839
234.94	2.045
235.41	1.782
235.88	1.792
236.35	1.848
236.82	1.963
237.29	1.938
237.76	1.899
238.23	2.275
238.70	2.139
239.17	1.902
239.64	2.180
240.11	2.341
240.58	2.046
241.05	2.218
241.52	2.253
241.99	2.167
242.46	2.233
242.93	2.074
243.40	2.719
243.87	2.545
244.34	2.168
244.81	2.291
245.28	2.453
245.75	2.238
246.22	2.531
246.69	2.572
247.16	2.234
247.63	2.360
248.10	2.401
248.57	3.842
249.04	2.529
249.51	2.365
249.98	3.175
250.45	2.539
250.92	2.424
251.39	2.389
251.85	2.575
252.32	2.382
252.79	2.572
253.26	2.399
253.73	2.628
254.20	2.485
254.67	2.326
255.14	2.709
255.61	2.706
256.08	2.620
256.55	2.570
257.02	3.037
257.49	2.538
257.95	2.577
258.42	2.594
258.89	2.717
259.36	2.905
259.83	2.708
260.30	3.112
260.77	2.850
261.24	2.536
261.71	2.537
262.17	3.012
262.64	2.868
263.11	2.804
263.58	2.796
264.05	2.580
264.52	2.754
264.99	2.670
265.46	2.719
265.92	2.683
266.39	2.664
266.86	2.816
267.33	2.868
267.80	2.655
268.27	2.683
268.74	3.072
269.20	2.634
269.67	2.773
270.14	2.717
270.61	2.710
271.08	2.650
271.55	2.506
272.01	2.844
272.48	2.626
272.95	2.461
273.42	2.635
273.89	2.878
274.36	2.516
274.82	2.655
275.29	2.677
275.76	2.644
276.23	2.839
276.70	2.428
277.16	2.805
277.63	2.580
278.10	2.484
278.57	2.533
279.04	2.733
279.50	2.575
279.97	2.621
280.44	2.676
280.91	2.662
281.38	2.953
281.84	2.561
282.31	2.697
282.78	2.585
283.25	2.630
283.72	2.689
284.18	2.566
284.65	2.576
285.12	2.641
285.59	2.656
286.05	2.710
286.52	2.692
286.99	2.622
287.46	2.814
287.92	2.564
288.39	2.392
288.86	2.903
289.33	2.668
289.79	2.375
290.26	2.622
290.73	2.716
291.20	2.381
291.66	2.511
292.13	2.551
292.60	2.553
293.07	2.625
293.53	2.512
294.00	2.614
294.47	2.726
294.93	2.520
295.40	2.587
295.87	2.752
296.34	2.541
296.80	2.395
297.27	2.422
297.74	2.619
298.20	2.482
298.67	2.439
299.14	2.749
299.60	2.513
300.07	2.325
300.54	2.568
301.01	2.527
301.47	2.344
301.94	2.325
302.41	2.431
302.87	2.394
303.34	2.601
303.81	2.372
304.27	2.462
304.74	2.462
305.21	2.322
305.67	2.485
306.14	2.545
306.61	2.350
307.07	2.356
307.54	2.482
308.01	2.428
308.47	2.495
308.94	2.374
309.40	2.345
309.87	2.301
310.34	2.280
310.80	2.393
311.27	2.269
311.74	2.308
312.20	2.271
312.67	2.539
313.13	2.464
313.60	2.467
314.07	2.332
314.53	2.404
315.00	2.308
315.47	2.276
315.93	2.464
316.40	2.397
316.86	2.286
317.33	2.276
317.80	2.376
318.26	2.216
318.73	2.251
319.19	2.273
319.66	2.293
320.13	2.213
320.59	2.146
321.06	2.253
321.52	2.237
321.99	2.157
322.45	2.224
322.92	2.209
323.39	2.166
323.85	2.187
324.32	2.261
324.78	2.164
325.25	2.162
325.71	2.149
326.18	2.133
326.64	2.159
327.11	2.057
327.58	2.105
328.04	2.084
328.51	1.973
328.97	2.083
329.44	2.132
329.90	2.017
330.37	2.079
330.83	2.013
331.30	2.068
331.76	2.057
332.23	2.019
332.69	2.071
333.16	2.071
333.62	2.041
334.09	2.006
334.56	2.073
335.02	2.003
335.49	2.031
335.95	2.017
336.42	2.029
336.88	1.991
337.35	1.946
337.81	1.989
338.28	2.015
338.74	1.950
339.20	2.030
339.67	2.015
340.13	1.951
340.60	1.985
341.06	2.015
341.53	1.994
341.99	1.950
342.46	1.983
342.92	1.996
343.39	1.971
343.85	1.924
344.32	1.906
344.78	1.963
345.25	1.882
345.71	1.878
346.17	1.932
346.64	1.870
347.10	1.888
347.57	1.815
348.03	1.801
348.50	1.800
348.96	1.745
349.43	1.789
349.89	1.741
350.35	1.657
350.82	1.615
351.28	1.659
351.75	1.555
352.21	1.550
352.67	1.499
353.14	1.514
353.60	1.483
354.07	1.412
354.53	1.412
355.00	1.355
355.46	1.297
355.92	1.267
356.39	1.242
356.85	1.157
357.31	1.095
357.78	1.040
358.24	0.982
358.71	0.906
359.17	0.839
359.63	0.787
360.10	0.714
360.56	0.646
361.03	0.590
361.49	0.532
361.95	0.467
362.42	0.417
362.88	0.371
363.34	0.329
363.81	0.285
364.27	0.252
364.73	0.223
365.20	0.192
365.66	0.169
366.12	0.151
366.59	0.134
367.05	0.121
367.51	0.110
367.98	0.101
368.44	0.092
368.90	0.089
369.37	0.081
369.83	0.077
370.29	0.073
370.76	0.070
371.22	0.066
371.68	0.067
372.15	0.065
372.61	0.060
373.07	0.061
373.54	0.058
374.00	0.058
374.46	0.059
374.92	0.057
375.39	0.055
375.85	0.055
376.31	0.055
376.78	0.055
377.24	0.054
377.70	0.053
378.16	0.055
378.63	0.055
379.09	0.054
379.55	0.052
380.01	0.053
380.48	0.052
380.94	0.053
381.40	0.052
381.87	0.053
382.33	0.051
382.79	0.048
383.25	0.051
383.72	0.051
384.18	0.051
384.64	0.051
385.10	0.050
385.56	0.052
386.03	0.052
386.49	0.050
386.95	0.052
387.41	0.052
387.88	0.050
388.34	0.048
388.80	0.050
389.26	0.048
389.72	0.053
390.19	0.048
390.65	0.048
391.11	0.050
391.57	0.052
392.04	0.051
392.50	0.051
392.96	0.049
393.42	0.047
393.88	0.050
394.34	0.047
394.81	0.049
395.27	0.048
395.73	0.046
396.19	0.048
396.65	0.050
397.12	0.047
397.58	0.048
398.04	0.048
398.50	0.047
398.96	0.046
399.42	0.048
399.89	0.048
400.35	0.046
400.81	0.044
401.27	0.047
401.73	0.046
402.19	0.046
402.65	0.043
403.12	0.048
403.58	0.045
404.04	0.043
404.50	0.043
404.96	0.043
405.42	0.043
405.88	0.042
406.34	0.042
406.81	0.042
407.27	0.043
407.73	0.041
408.19	0.042
408.65	0.040
409.11	0.041
409.57	0.042
410.03	0.042
410.49	0.043
410.96	0.040
411.42	0.042
411.88	0.040
412.34	0.040
412.80	0.041
413.26	0.043
413.72	0.038
414.18	0.035
414.64	0.038
415.10	0.040
415.56	0.040
416.02	0.040
416.48	0.039
416.95	0.038
417.41	0.039
417.87	0.041
418.33	0.039
418.79	0.038
419.25	0.041
419.71	0.039
420.17	0.038
420.63	0.036
421.09	0.036
421.55	0.037
422.01	0.037
422.47	0.038
422.93	0.038
423.39	0.039
423.85	0.037
424.31	0.035
424.77	0.038
425.23	0.037
425.69	0.041
426.15	0.039
426.61	0.039
427.07	0.036
427.53	0.040
427.99	0.038
428.45	0.038
428.91	0.039
429.37	0.037
429.83	0.039
430.29	0.039
430.75	0.039
431.21	0.037
431.67	0.040
432.13	0.037
432.59	0.038
433.05	0.039
433.51	0.038
433.97	0.038
434.43	0.040
434.89	0.042
435.35	0.039
435.81	0.040
436.27	0.041
436.73	0.039
437.19	0.040
437.65	0.037
438.11	0.040
438.57	0.040
439.03	0.040
439.48	0.041
439.94	0.040
440.40	0.039
440.86	0.039
441.32	0.040
441.78	0.038
442.24	0.039
442.70	0.041
443.16	0.041
443.62	0.043
444.08	0.042
444.54	0.043
444.99	0.042
445.45	0.039
445.91	0.041
446.37	0.043
446.83	0.042
447.29	0.043
447.75	0.040
448.21	0.045
448.67	0.042
449.12	0.043
449.58	0.042
450.04	0.044
450.50	0.043
450.96	0.041
451.42	0.043
451.88	0.043
452.34	0.039
452.79	0.041
453.25	0.041
453.71	0.043
454.17	0.041
454.63	0.044
455.09	0.043
455.55	0.042
456.00	0.042
456.46	0.047
456.92	0.044
457.38	0.045
457.84	0.046
458.30	0.046
458.75	0.045
459.21	0.045
459.67	0.045
460.13	0.045
460.59	0.045
461.04	0.047
461.50	0.045
461.96	0.046
462.42	0.044
462.88	0.047
463.33	0.045
463.79	0.046
464.25	0.045
464.71	0.046
465.17	0.045
465.62	0.043
466.08	0.045
466.54	0.048
467.00	0.045
467.46	0.046
467.91	0.046
468.37	0.044
468.83	0.046
469.29	0.047
469.74	0.045
470.20	0.047
470.66	0.046
471.12	0.046
471.57	0.046
472.03	0.046
472.49	0.048
472.95	0.050
473.40	0.048
473.86	0.048
474.32	0.047
474.78	0.046
475.23	0.049
475.69	0.046
476.15	0.048
476.60	0.047
477.06	0.052
477.52	0.048
477.98	0.049
478.43	0.051
478.89	0.050
479.35	0.052
479.80	0.051
480.26	0.047
480.72	0.049
481.18	0.051
481.63	0.051
482.09	0.051
482.55	0.049
483.00	0.049
483.46	0.051
483.92	0.050
484.37	0.051
484.83	0.050
485.29	0.052
485.74	0.052
486.20	0.052
486.66	0.051
487.11	0.051
487.57	0.051
488.03	0.048
488.48	0.053
488.94	0.050
489.40	0.051
489.85	0.053
490.31	0.052
490.77	0.051
491.22	0.054
491.68	0.053
492.13	0.051
492.59	0.053
493.05	0.052
493.50	0.051
493.96	0.052
494.42	0.054
494.87	0.055
495.33	0.050
495.78	0.051
496.24	0.053
496.70	0.055
497.15	0.052
497.61	0.054
498.06	0.053
498.52	0.053
498.98	0.053
499.43	0.054
499.89	0.055
500.34	0.052
500.80	0.054
501.25	0.053
501.71	0.052
502.17	0.054
502.62	0.054
503.08	0.052
503.53	0.052
503.99	0.054
504.44	0.052
504.90	0.052
505.36	0.053
505.81	0.056
506.27	0.053
506.72	0.051
507.18	0.053
507.63	0.053
508.09	0.053
508.54	0.052
509.00	0.054
509.45	0.052
509.91	0.052
510.36	0.053
510.82	0.054
511.27	0.052
511.73	0.052
512.19	0.051
512.64	0.052
513.10	0.052
513.55	0.052
514.01	0.054
514.46	0.053
514.92	0.053
515.37	0.053
515.83	0.053
516.28	0.054
516.73	0.053
517.19	0.052
517.64	0.052
518.10	0.053
518.55	0.055
519.01	0.054
519.46	0.053
519.92	0.053
520.37	0.051
520.83	0.054
521.28	0.051
521.74	0.055
522.19	0.054
522.65	0.054
523.10	0.053
523.55	0.055
524.01	0.054
524.46	0.052
524.92	0.052
525.37	0.056
525.83	0.054
526.28	0.054
526.73	0.057
527.19	0.053
527.64	0.056
528.10	0.054
528.55	0.056
529.01	0.053
529.46	0.053
529.91	0.054
530.37	0.054
530.82	0.055
531.28	0.056
531.73	0.057
532.18	0.058
532.64	0.059
533.09	0.056
533.54	0.059
534.00	0.059
534.45	0.059
534.91	0.058
535.36	0.058
535.81	0.058
536.27	0.059
536.72	0.058
537.17	0.059
537.63	0.058
538.08	0.060
538.54	0.062
538.99	0.063
539.44	0.061
539.90	0.063
540.35	0.061
540.80	0.061
541.26	0.064
541.71	0.067
542.16	0.065
542.62	0.068
543.07	0.066
543.52	0.066
543.98	0.068
544.43	0.067
544.88	0.066
545.34	0.068
545.79	0.069
546.24	0.068
546.69	0.069
547.15	0.071
547.60	0.072
548.05	0.074
548.51	0.073
548.96	0.073
549.41	0.073
549.86	0.075
550.32	0.078
550.77	0.076
551.22	0.076
551.68	0.077
552.13	0.078
552.58	0.078
553.03	0.078
553.49	0.077
553.94	0.080
554.39	0.081
554.84	0.082
555.30	0.083
555.75	0.083
556.20	0.084
556.65	0.084
557.11	0.086
557.56	0.088
558.01	0.090
558.46	0.088
558.92	0.090
559.37	0.091
559.82	0.090
560.27	0.092
560.72	0.093
561.18	0.094
561.63	0.095
562.08	0.095
562.53	0.096
562.99	0.099
563.44	0.097
563.89	0.101
564.34	0.100
564.79	0.101
565.25	0.104
565.70	0.105
566.15	0.104
566.60	0.107
567.05	0.107
567.50	0.109
567.96	0.110
568.41	0.109
568.86	0.109
569.31	0.113
569.76	0.113
570.21	0.114
570.67	0.115
571.12	0.117
571.57	0.117
572.02	0.119
572.47	0.120
572.92	0.121
573.37	0.124
573.83	0.124
574.28	0.125
574.73	0.127
575.18	0.127
575.63	0.127
576.08	0.129
576.53	0.132
576.98	0.130
577.44	0.134
577.89	0.136
578.34	0.139
578.79	0.138
579.24	0.139
579.69	0.142
580.14	0.144
580.59	0.147
581.04	0.147
581.49	0.150
581.95	0.151
582.40	0.152
582.85	0.156
583.30	0.156
583.75	0.159
584.20	0.160
584.65	0.163
585.10	0.168
585.55	0.168
586.00	0.169
586.45	0.172
586.90	0.174
587.35	0.177
587.80	0.180
588.25	0.181
588.71	0.184
589.16	0.189
589.61	0.187
590.06	0.194
590.51	0.196
590.96	0.197
591.41	0.201
591.86	0.202
592.31	0.206
592.76	0.210
593.21	0.210
593.66	0.217
594.11	0.220
594.56	0.221
595.01	0.224
595.46	0.227
595.91	0.229
596.36	0.233
596.81	0.235
597.26	0.240
597.71	0.242
598.16	0.246
598.61	0.249
599.06	0.252
599.51	0.254
599.96	0.256
600.41	0.261
600.86	0.266
601.31	0.266
601.76	0.274
602.21	0.275
602.65	0.280
603.10	0.279
603.55	0.283
604.00	0.288
604.45	0.291
604.90	0.290
605.35	0.296
605.80	0.298
606.25	0.300
606.70	0.305
607.15	0.306
607.60	0.309
608.05	0.312
608.50	0.315
608.95	0.317
609.39	0.317
609.84	0.321
610.29	0.323
610.74	0.323
611.19	0.326
611.64	0.327
612.09	0.328
612.54	0.330
612.99	0.330
613.44	0.334
613.88	0.334
614.33	0.337
614.78	0.339
615.23	0.341
615.68	0.339
616.13	0.338
616.58	0.341
617.03	0.343
617.47	0.345
617.92	0.345
618.37	0.348
618.82	0.345
619.27	0.345
619.72	0.349
620.17	0.349
620.61	0.348
621.06	0.347
621.51	0.348
621.96	0.349
622.41	0.350
622.86	0.352
623.30	0.355
623.75	0.353
624.20	0.355
624.65	0.358
625.10	0.357
625.54	0.357
625.99	0.355
626.44	0.360
626.89	0.361
627.34	0.363
627.78	0.363
628.23	0.367
628.68	0.366
629.13	0.366
629.58	0.369
630.02	0.373
630.47	0.375
630.92	0.375
631.37	0.381
631.81	0.381
632.26	0.383
632.71	0.385
633.16	0.390
633.61	0.390
634.05	0.393
634.50	0.395
634.95	0.400
635.40	0.404
635.84	0.407
636.29	0.410
636.74	0.412
637.18	0.415
637.63	0.421
638.08	0.422
638.53	0.426
638.97	0.429
639.42	0.435
639.87	0.440
640.32	0.442
640.76	0.447
641.21	0.454
641.66	0.454
642.10	0.462
642.55	0.468
643.00	0.470
643.44	0.476
643.89	0.483
644.34	0.486
644.79	0.493
645.23	0.497
645.68	0.502
646.13	0.509
646.57	0.514
647.02	0.518
647.47	0.525
647.91	0.528
648.36	0.534
648.81	0.538
649.25	0.544
649.70	0.547
650.15	0.557
650.59	0.563
651.04	0.568
651.48	0.570
651.93	0.581
652.38	0.583
652.82	0.589
653.27	0.587
653.72	0.596
654.16	0.602
654.61	0.604
655.06	0.608
655.50	0.614
655.95	0.621
656.39	0.623
656.84	0.622
657.29	0.631
657.73	0.633
658.18	0.640
658.62	0.641
659.07	0.649
659.52	0.651
659.96	0.655
660.41	0.661
660.85	0.663
661.30	0.665
661.74	0.669
662.19	0.674
662.64	0.673
663.08	0.674
663.53	0.678
663.97	0.678
664.42	0.680
664.86	0.684
665.31	0.684
665.75	0.687
666.20	0.683
666.65	0.681
667.09	0.684
667.54	0.682
667.98	0.683
668.43	0.680
668.87	0.677
669.32	0.675
669.76	0.666
670.21	0.665
670.65	0.661
671.10	0.654
671.54	0.649
671.99	0.645
672.43	0.637
672.88	0.629
673.32	0.621
673.77	0.613
674.21	0.599
674.66	0.594
675.10	0.583
675.55	0.569
675.99	0.558
676.44	0.549
676.88	0.539
677.33	0.525
677.77	0.512
678.22	0.499
678.66	0.487
679.11	0.473
679.55	0.461
679.99	0.449
680.44	0.437
680.88	0.423
681.33	0.411
681.77	0.397
682.22	0.382
682.66	0.371
683.11	0.356
683.55	0.347
683.99	0.336
684.44	0.325
684.88	0.313
685.33	0.301
685.77	0.289
686.21	0.282
686.66	0.268
687.10	0.256
687.55	0.248
687.99	0.237
688.44	0.228
688.88	0.216
689.32	0.211
689.77	0.200
690.21	0.194
690.65	0.184
691.10	0.177
691.54	0.169
691.99	0.163
692.43	0.157
692.87	0.152
693.32	0.143
693.76	0.138
694.20	0.133
694.65	0.128
695.09	0.122
695.53	0.118
695.98	0.113
696.42	0.111
696.86	0.106
697.31	0.100
697.75	0.096
698.19	0.095
698.64	0.091
699.08	0.087
699.52	0.084
699.97	0.081
700.41	0.077
700.85	0.076
701.30	0.073
701.74	0.074
702.18	0.070
702.63	0.067
703.07	0.062
703.51	0.063
703.96	0.061
704.40	0.061
704.84	0.057
705.28	0.054
705.73	0.056
706.17	0.051
706.61	0.053
707.06	0.049
707.50	0.049
707.94	0.048
708.38	0.046
708.83	0.045
709.27	0.046
709.71	0.043
710.15	0.042
710.60	0.044
711.04	0.040
711.48	0.041
711.92	0.039
712.37	0.039
712.81	0.039
713.25	0.040
713.69	0.038
714.13	0.037
714.58	0.036
715.02	0.036
715.46	0.036
715.90	0.035
716.35	0.032
716.79	0.036
717.23	0.034
717.67	0.034
718.11	0.034
718.56	0.032
719.00	0.034
719.44	0.034
719.88	0.034
720.32	0.035
720.76	0.030
721.21	0.034
721.65	0.032
722.09	0.030
722.53	0.033
722.97	0.032
723.41	0.033
723.86	0.031
724.30	0.033
724.74	0.034
725.18	0.031
725.62	0.032
726.06	0.032
726.50	0.031
726.95	0.032
727.39	0.034
727.83	0.031
728.27	0.033
728.71	0.031
729.15	0.031
729.59	0.031
730.03	0.032
730.48	0.032
730.92	0.033
731.36	0.033
731.80	0.032
732.24	0.034
732.68	0.032
733.12	0.034
733.56	0.032
734.00	0.034
734.44	0.031
734.89	0.033
735.33	0.032
735.77	0.034
736.21	0.031
736.65	0.034
737.09	0.036
737.53	0.035
737.97	0.035
738.41	0.034
738.85	0.033
739.29	0.032
739.73	0.034
740.17	0.033
740.61	0.033
741.05	0.035
741.49	0.032
741.93	0.032
742.37	0.033
742.81	0.034
743.26	0.033
743.70	0.034
744.14	0.033
744.58	0.032
745.02	0.035
745.46	0.035
745.90	0.033
746.34	0.032
746.78	0.035
747.22	0.034
747.66	0.034
748.10	0.033
748.54	0.031
748.98	0.033
749.42	0.031
749.86	0.036
750.29	0.033
750.73	0.034
751.17	0.033
751.61	0.034
752.05	0.032
752.49	0.033
752.93	0.031
753.37	0.033
753.81	0.033
754.25	0.032
754.69	0.034
755.13	0.034
755.57	0.030
756.01	0.031
756.45	0.032
756.89	0.030
757.33	0.033
757.77	0.033
758.21	0.034
758.64	0.029
759.08	0.033
759.52	0.031
759.96	0.030
760.40	0.031
760.84	0.029
761.28	0.031
761.72	0.033
762.16	0.031
762.60	0.031
763.03	0.033
763.47	0.032
763.91	0.030
764.35	0.031
764.79	0.031
765.23	0.033
765.67	0.031
766.11	0.034
766.54	0.032
766.98	0.029
767.42	0.033
767.86	0.033
768.30	0.030
768.74	0.031
769.17	0.032
769.61	0.030
770.05	0.030
770.49	0.034
770.93	0.030
771.37	0.035
771.80	0.032
772.24	0.030
772.68	0.031
773.12	0.031
773.56	0.033
774.00	0.032
774.43	0.031
774.87	0.028
775.31	0.032
775.75	0.030
776.19	0.031
776.62	0.031
777.06	0.032
777.50	0.033
777.94	0.030
778.37	0.032
778.81	0.030
779.25	0.029
779.69	0.029
780.13	0.030
780.56	0.026
781.00	0.030
781.44	0.030
781.88	0.030
782.31	0.028
782.75	0.029
783.19	0.029
783.63	0.031
784.06	0.031
784.50	0.030
784.94	0.032
785.37	0.028
785.81	0.029
786.25	0.030
786.69	0.033
787.12	0.032
787.56	0.030
788.00	0.032
788.43	0.032
788.87	0.031
789.31	0.031
789.75	0.031
790.18	0.029
790.62	0.031
791.06	0.028
791.49	0.032
791.93	0.027
792.37	0.030
792.80	0.031
793.24	0.030
793.68	0.032
794.11	0.034
794.55	0.028
794.99	0.028
795.42	0.033
795.86	0.035
796.30	0.033
796.73	0.028
797.17	0.030
797.61	0.031
798.04	0.029
798.48	0.031
798.91	0.029
799.35	0.029
799.79	0.029
800.22	0.032
800.66	0.027
801.10	0.031
801.53	0.035
801.97	0.028
802.40	0.028
802.84	0.028
803.28	0.031
803.71	0.030
804.15	0.032
804.58	0.029
805.02	0.034
805.46	0.029
805.89	0.029
806.33	0.029
806.76	0.027
807.20	0.029
807.63	0.028
808.07	0.031
808.51	0.031
808.94	0.030
809.38	0.031
809.81	0.034
810.25	0.029
810.68	0.031
811.12	0.033
811.55	0.030
811.99	0.028
812.42	0.033
812.86	0.033
813.29	0.031
813.73	0.030
814.17	0.027
814.60	0.027
815.04	0.029
815.47	0.028
815.91	0.027
816.34	0.028
816.78	0.031
817.21	0.032
817.65	0.030
