SpectraSuite Data File
++++++++++++++++++++++++++++++++++++
Date: Wed May 04 12:52:33 CEST 2016
User: spectrasuite
Dark Spectrum Present: Yes
Reference Spectrum Present: Yes
Number of Sampled Component Spectra: 1
Spectrometers: HR+C0708
Integration Time (usec): 1000 (HR+C0708)
Spectra Averaged: 10 (HR+C0708)
Boxcar Smoothing: 0 (HR+C0708)
Correct for Electrical Dark: No (HR+C0708)
Strobe/Lamp Enabled: No (HR+C0708)
Correct for Detector Non-linearity: No (HR+C0708)
Correct for Stray Light: No (HR+C0708)
Number of Pixels in Processed Spectrum: 2048
>>>>>Begin Processed Spectral Data<<<<<
188.76	0.391
189.23	0.748
189.70	0.550
190.17	-0.071
190.64	0.433
191.12	0.931
191.59	-1.342
192.06	0.682
192.53	-0.000
193.01	0.386
193.48	0.285
193.95	0.238
194.42	1.803
194.90	1.415
195.37	-0.000
195.84	-0.000
196.31	-0.000
196.78	0.865
197.26	0.630
197.73	0.722
198.20	0.178
198.67	0.927
199.14	0.470
199.62	0.998
200.09	2.322
200.56	0.759
201.03	0.375
201.50	0.622
201.97	0.368
202.45	0.495
202.92	0.914
203.39	0.667
203.86	0.546
204.33	0.724
204.80	0.532
205.28	0.482
205.75	0.675
206.22	0.442
206.69	0.730
207.16	0.533
207.63	0.384
208.11	0.927
208.58	0.547
209.05	0.556
209.52	0.719
209.99	0.504
210.46	0.598
210.93	0.711
211.41	0.484
211.88	1.158
212.35	0.465
212.82	0.468
213.29	0.793
213.76	0.617
214.23	0.502
214.70	0.745
215.18	0.668
215.65	0.447
216.12	0.528
216.59	0.494
217.06	0.484
217.53	0.598
218.00	0.404
218.47	0.667
218.94	0.601
219.41	0.503
219.89	0.937
220.36	0.457
220.83	0.603
221.30	0.825
221.77	0.622
222.24	0.721
222.71	0.487
223.18	0.683
223.65	0.659
224.12	0.572
224.59	0.631
225.06	0.925
225.54	0.661
226.01	0.777
226.48	1.052
226.95	0.923
227.42	1.025
227.89	1.065
228.36	1.027
228.83	1.197
229.30	1.299
229.77	1.113
230.24	1.321
230.71	1.173
231.18	1.189
231.65	1.787
232.12	1.529
232.59	1.514
233.06	1.656
233.53	1.619
234.00	1.635
234.47	1.676
234.94	1.752
235.41	2.004
235.88	1.831
236.35	1.858
236.82	2.120
237.29	1.977
237.76	2.087
238.23	2.403
238.70	2.353
239.17	2.193
239.64	2.490
240.11	2.125
240.58	2.191
241.05	2.321
241.52	2.116
241.99	2.288
242.46	2.296
242.93	2.148
243.40	2.562
243.87	2.265
244.34	2.265
244.81	2.301
245.28	2.339
245.75	2.359
246.22	2.445
246.69	2.378
247.16	2.523
247.63	2.372
248.10	2.383
248.57	3.119
249.04	2.582
249.51	2.485
249.98	3.592
250.45	2.492
250.92	2.917
251.39	2.612
251.85	2.429
252.32	2.669
252.79	2.606
253.26	2.432
253.73	2.632
254.20	2.386
254.67	2.475
255.14	2.855
255.61	2.679
256.08	2.943
256.55	2.958
257.02	2.802
257.49	2.909
257.95	2.978
258.42	2.519
258.89	2.964
259.36	2.718
259.83	2.865
260.30	3.112
260.77	2.698
261.24	2.793
261.71	2.626
262.17	2.766
262.64	2.886
263.11	2.716
263.58	2.720
264.05	2.945
264.52	2.752
264.99	2.750
265.46	2.819
265.92	2.762
266.39	2.692
266.86	3.169
267.33	2.651
267.80	2.793
268.27	2.778
268.74	2.887
269.20	2.877
269.67	2.770
270.14	2.641
270.61	2.778
271.08	2.593
271.55	2.661
272.01	2.989
272.48	2.511
272.95	2.598
273.42	2.713
273.89	2.565
274.36	2.715
274.82	2.681
275.29	2.613
275.76	2.865
276.23	2.811
276.70	2.554
277.16	3.077
277.63	2.613
278.10	2.568
278.57	2.603
279.04	2.583
279.50	2.890
279.97	2.518
280.44	2.589
280.91	2.859
281.38	2.589
281.84	2.611
282.31	2.798
282.78	2.633
283.25	2.836
283.72	2.718
284.18	2.584
284.65	2.763
285.12	2.740
285.59	2.518
286.05	2.730
286.52	2.507
286.99	2.611
287.46	2.866
287.92	2.605
288.39	2.505
288.86	2.911
289.33	2.717
289.79	2.637
290.26	2.694
290.73	2.577
291.20	2.737
291.66	2.486
292.13	2.440
292.60	2.783
293.07	2.497
293.53	2.572
294.00	2.696
294.47	2.499
294.93	2.656
295.40	2.541
295.87	2.584
296.34	2.784
296.80	2.527
297.27	2.439
297.74	2.706
298.20	2.499
298.67	2.467
299.14	2.518
299.60	2.499
300.07	2.485
300.54	2.542
301.01	2.441
301.47	2.515
301.94	2.356
302.41	2.439
302.87	2.662
303.34	2.563
303.81	2.309
304.27	2.460
304.74	2.463
305.21	2.419
305.67	2.483
306.14	2.479
306.61	2.525
307.07	2.477
307.54	2.453
308.01	2.531
308.47	2.412
308.94	2.341
309.40	2.564
309.87	2.381
310.34	2.428
310.80	2.574
311.27	2.446
311.74	2.405
312.20	2.471
312.67	2.508
313.13	2.574
313.60	2.444
314.07	2.319
314.53	2.411
315.00	2.329
315.47	2.399
315.93	2.604
316.40	2.369
316.86	2.338
317.33	2.410
317.80	2.435
318.26	2.397
318.73	2.409
319.19	2.340
319.66	2.435
320.13	2.303
320.59	2.252
321.06	2.326
321.52	2.300
321.99	2.247
322.45	2.312
322.92	2.300
323.39	2.313
323.85	2.217
324.32	2.232
324.78	2.262
325.25	2.180
325.71	2.159
326.18	2.239
326.64	2.270
327.11	2.153
327.58	2.150
328.04	2.192
328.51	2.152
328.97	2.202
329.44	2.174
329.90	2.226
330.37	2.131
330.83	2.125
331.30	2.269
331.76	2.146
332.23	2.184
332.69	2.223
333.16	2.279
333.62	2.172
334.09	2.182
334.56	2.142
335.02	2.223
335.49	2.092
335.95	2.143
336.42	2.186
336.88	2.092
337.35	2.051
337.81	2.117
338.28	2.145
338.74	2.081
339.20	2.146
339.67	2.103
340.13	2.099
340.60	2.067
341.06	2.063
341.53	2.175
341.99	2.048
342.46	2.051
342.92	2.081
343.39	2.071
343.85	2.018
344.32	2.042
344.78	2.025
345.25	2.033
345.71	1.945
346.17	1.986
346.64	2.031
347.10	1.958
347.57	1.910
348.03	1.957
348.50	1.893
348.96	1.871
349.43	1.912
349.89	1.818
350.35	1.797
350.82	1.727
351.28	1.701
351.75	1.673
352.21	1.641
352.67	1.605
353.14	1.643
353.60	1.572
354.07	1.505
354.53	1.510
355.00	1.452
355.46	1.445
355.92	1.399
356.39	1.378
356.85	1.342
357.31	1.277
357.78	1.228
358.24	1.185
358.71	1.102
359.17	1.049
359.63	1.002
360.10	0.940
360.56	0.883
361.03	0.821
361.49	0.769
361.95	0.712
362.42	0.668
362.88	0.618
363.34	0.578
363.81	0.530
364.27	0.494
364.73	0.462
365.20	0.426
365.66	0.398
366.12	0.371
366.59	0.349
367.05	0.329
367.51	0.312
367.98	0.294
368.44	0.281
368.90	0.269
369.37	0.255
369.83	0.247
370.29	0.236
370.76	0.231
371.22	0.223
371.68	0.218
372.15	0.214
372.61	0.206
373.07	0.205
373.54	0.201
374.00	0.200
374.46	0.195
374.92	0.195
375.39	0.193
375.85	0.189
376.31	0.190
376.78	0.185
377.24	0.183
377.70	0.183
378.16	0.180
378.63	0.181
379.09	0.181
379.55	0.177
380.01	0.177
380.48	0.173
380.94	0.174
381.40	0.170
381.87	0.172
382.33	0.170
382.79	0.165
383.25	0.168
383.72	0.168
384.18	0.166
384.64	0.164
385.10	0.163
385.56	0.161
386.03	0.163
386.49	0.162
386.95	0.162
387.41	0.160
387.88	0.157
388.34	0.155
388.80	0.158
389.26	0.156
389.72	0.155
390.19	0.154
390.65	0.152
391.11	0.151
391.57	0.154
392.04	0.151
392.50	0.153
392.96	0.149
393.42	0.146
393.88	0.150
394.34	0.146
394.81	0.148
395.27	0.147
395.73	0.142
396.19	0.145
396.65	0.146
397.12	0.143
397.58	0.143
398.04	0.144
398.50	0.144
398.96	0.140
399.42	0.140
399.89	0.142
400.35	0.142
400.81	0.138
401.27	0.139
401.73	0.138
402.19	0.137
402.65	0.133
403.12	0.138
403.58	0.135
404.04	0.133
404.50	0.131
404.96	0.132
405.42	0.134
405.88	0.132
406.34	0.132
406.81	0.132
407.27	0.128
407.73	0.129
408.19	0.129
408.65	0.126
409.11	0.128
409.57	0.126
410.03	0.129
410.49	0.127
410.96	0.124
411.42	0.126
411.88	0.127
412.34	0.124
412.80	0.124
413.26	0.126
413.72	0.123
414.18	0.122
414.64	0.123
415.10	0.120
415.56	0.122
416.02	0.121
416.48	0.119
416.95	0.121
417.41	0.117
417.87	0.117
418.33	0.121
418.79	0.118
419.25	0.120
419.71	0.118
420.17	0.117
420.63	0.117
421.09	0.115
421.55	0.116
422.01	0.117
422.47	0.116
422.93	0.115
423.39	0.117
423.85	0.111
424.31	0.116
424.77	0.114
425.23	0.113
425.69	0.113
426.15	0.116
426.61	0.114
427.07	0.112
427.53	0.112
427.99	0.112
428.45	0.115
428.91	0.111
429.37	0.110
429.83	0.113
430.29	0.111
430.75	0.112
431.21	0.109
431.67	0.113
432.13	0.109
432.59	0.107
433.05	0.110
433.51	0.110
433.97	0.104
434.43	0.108
434.89	0.110
435.35	0.106
435.81	0.106
436.27	0.108
436.73	0.106
437.19	0.106
437.65	0.103
438.11	0.105
438.57	0.106
439.03	0.104
439.48	0.105
439.94	0.106
440.40	0.106
440.86	0.101
441.32	0.104
441.78	0.101
442.24	0.105
442.70	0.104
443.16	0.103
443.62	0.106
444.08	0.099
444.54	0.101
444.99	0.104
445.45	0.100
445.91	0.100
446.37	0.103
446.83	0.102
447.29	0.099
447.75	0.099
448.21	0.105
448.67	0.100
449.12	0.099
449.58	0.098
450.04	0.101
450.50	0.099
450.96	0.095
451.42	0.100
451.88	0.101
452.34	0.096
452.79	0.100
453.25	0.100
453.71	0.099
454.17	0.094
454.63	0.100
455.09	0.096
455.55	0.097
456.00	0.094
456.46	0.099
456.92	0.098
457.38	0.098
457.84	0.098
458.30	0.096
458.75	0.095
459.21	0.095
459.67	0.095
460.13	0.100
460.59	0.096
461.04	0.097
461.50	0.097
461.96	0.098
462.42	0.094
462.88	0.096
463.33	0.095
463.79	0.095
464.25	0.092
464.71	0.094
465.17	0.094
465.62	0.092
466.08	0.093
466.54	0.095
467.00	0.093
467.46	0.092
467.91	0.093
468.37	0.092
468.83	0.090
469.29	0.093
469.74	0.092
470.20	0.092
470.66	0.092
471.12	0.089
471.57	0.090
472.03	0.091
472.49	0.090
472.95	0.093
473.40	0.090
473.86	0.090
474.32	0.092
474.78	0.089
475.23	0.089
475.69	0.088
476.15	0.092
476.60	0.092
477.06	0.090
477.52	0.088
477.98	0.091
478.43	0.090
478.89	0.088
479.35	0.091
479.80	0.086
480.26	0.086
480.72	0.089
481.18	0.087
481.63	0.091
482.09	0.089
482.55	0.086
483.00	0.086
483.46	0.088
483.92	0.085
484.37	0.087
484.83	0.085
485.29	0.087
485.74	0.087
486.20	0.086
486.66	0.085
487.11	0.084
487.57	0.085
488.03	0.085
488.48	0.088
488.94	0.084
489.40	0.085
489.85	0.086
490.31	0.086
490.77	0.083
491.22	0.087
491.68	0.084
492.13	0.083
492.59	0.086
493.05	0.082
493.50	0.083
493.96	0.083
494.42	0.085
494.87	0.084
495.33	0.080
495.78	0.082
496.24	0.083
496.70	0.083
497.15	0.081
497.61	0.082
498.06	0.082
498.52	0.082
498.98	0.081
499.43	0.083
499.89	0.083
500.34	0.080
500.80	0.082
501.25	0.080
501.71	0.080
502.17	0.081
502.62	0.081
503.08	0.078
503.53	0.080
503.99	0.080
504.44	0.081
504.90	0.078
505.36	0.079
505.81	0.081
506.27	0.081
506.72	0.079
507.18	0.080
507.63	0.079
508.09	0.080
508.54	0.077
509.00	0.080
509.45	0.077
509.91	0.077
510.36	0.077
510.82	0.082
511.27	0.076
511.73	0.078
512.19	0.079
512.64	0.079
513.10	0.077
513.55	0.075
514.01	0.077
514.46	0.078
514.92	0.077
515.37	0.079
515.83	0.079
516.28	0.078
516.73	0.077
517.19	0.077
517.64	0.077
518.10	0.078
518.55	0.077
519.01	0.078
519.46	0.077
519.92	0.076
520.37	0.077
520.83	0.079
521.28	0.076
521.74	0.075
522.19	0.078
522.65	0.076
523.10	0.075
523.55	0.078
524.01	0.077
524.46	0.076
524.92	0.075
525.37	0.076
525.83	0.076
526.28	0.076
526.73	0.076
527.19	0.075
527.64	0.074
528.10	0.075
528.55	0.077
529.01	0.075
529.46	0.074
529.91	0.073
530.37	0.073
530.82	0.074
531.28	0.074
531.73	0.073
532.18	0.075
532.64	0.074
533.09	0.074
533.54	0.073
534.00	0.074
534.45	0.074
534.91	0.073
535.36	0.073
535.81	0.073
536.27	0.072
536.72	0.071
537.17	0.074
537.63	0.073
538.08	0.073
538.54	0.074
538.99	0.075
539.44	0.074
539.90	0.074
540.35	0.072
540.80	0.072
541.26	0.073
541.71	0.074
542.16	0.073
542.62	0.076
543.07	0.074
543.52	0.073
543.98	0.073
544.43	0.074
544.88	0.071
545.34	0.073
545.79	0.073
546.24	0.071
546.69	0.071
547.15	0.073
547.60	0.072
548.05	0.073
548.51	0.072
548.96	0.073
549.41	0.071
549.86	0.071
550.32	0.073
550.77	0.073
551.22	0.072
551.68	0.072
552.13	0.074
552.58	0.072
553.03	0.072
553.49	0.071
553.94	0.071
554.39	0.072
554.84	0.074
555.30	0.072
555.75	0.073
556.20	0.072
556.65	0.074
557.11	0.073
557.56	0.073
558.01	0.073
558.46	0.074
558.92	0.073
559.37	0.072
559.82	0.072
560.27	0.073
560.72	0.071
561.18	0.073
561.63	0.072
562.08	0.073
562.53	0.070
562.99	0.072
563.44	0.073
563.89	0.074
564.34	0.073
564.79	0.074
565.25	0.075
565.70	0.072
566.15	0.073
566.60	0.073
567.05	0.073
567.50	0.075
567.96	0.074
568.41	0.073
568.86	0.074
569.31	0.074
569.76	0.075
570.21	0.076
570.67	0.071
571.12	0.073
571.57	0.073
572.02	0.074
572.47	0.074
572.92	0.074
573.37	0.078
573.83	0.076
574.28	0.075
574.73	0.074
575.18	0.073
575.63	0.074
576.08	0.075
576.53	0.074
576.98	0.074
577.44	0.074
577.89	0.075
578.34	0.077
578.79	0.075
579.24	0.073
579.69	0.075
580.14	0.075
580.59	0.075
581.04	0.075
581.49	0.076
581.95	0.077
582.40	0.077
582.85	0.078
583.30	0.078
583.75	0.078
584.20	0.077
584.65	0.077
585.10	0.077
585.55	0.076
586.00	0.077
586.45	0.077
586.90	0.079
587.35	0.078
587.80	0.081
588.25	0.080
588.71	0.081
589.16	0.082
589.61	0.080
590.06	0.081
590.51	0.081
590.96	0.084
591.41	0.082
591.86	0.083
592.31	0.082
592.76	0.083
593.21	0.082
593.66	0.085
594.11	0.085
594.56	0.084
595.01	0.085
595.46	0.083
595.91	0.087
596.36	0.084
596.81	0.087
597.26	0.086
597.71	0.088
598.16	0.087
598.61	0.088
599.06	0.089
599.51	0.089
599.96	0.089
600.41	0.087
600.86	0.090
601.31	0.089
601.76	0.091
602.21	0.093
602.65	0.092
603.10	0.091
603.55	0.091
604.00	0.095
604.45	0.093
604.90	0.092
605.35	0.093
605.80	0.093
606.25	0.092
606.70	0.094
607.15	0.095
607.60	0.095
608.05	0.094
608.50	0.096
608.95	0.094
609.39	0.096
609.84	0.097
610.29	0.097
610.74	0.095
611.19	0.096
611.64	0.096
612.09	0.096
612.54	0.096
612.99	0.096
613.44	0.097
613.88	0.098
614.33	0.096
614.78	0.099
615.23	0.098
615.68	0.097
616.13	0.097
616.58	0.098
617.03	0.099
617.47	0.098
617.92	0.098
618.37	0.100
618.82	0.097
619.27	0.099
619.72	0.099
620.17	0.099
620.61	0.098
621.06	0.099
621.51	0.095
621.96	0.100
622.41	0.098
622.86	0.098
623.30	0.099
623.75	0.099
624.20	0.100
624.65	0.100
625.10	0.100
625.54	0.098
625.99	0.097
626.44	0.099
626.89	0.098
627.34	0.099
627.78	0.100
628.23	0.100
628.68	0.100
629.13	0.099
629.58	0.101
630.02	0.100
630.47	0.102
630.92	0.100
631.37	0.104
631.81	0.103
632.26	0.101
632.71	0.103
633.16	0.104
633.61	0.102
634.05	0.102
634.50	0.103
634.95	0.106
635.40	0.104
635.84	0.105
636.29	0.106
636.74	0.107
637.18	0.107
637.63	0.107
638.08	0.108
638.53	0.108
638.97	0.108
639.42	0.110
639.87	0.110
640.32	0.110
640.76	0.110
641.21	0.112
641.66	0.111
642.10	0.113
642.55	0.113
643.00	0.114
643.44	0.113
643.89	0.116
644.34	0.117
644.79	0.119
645.23	0.118
645.68	0.119
646.13	0.118
646.57	0.121
647.02	0.120
647.47	0.122
647.91	0.122
648.36	0.121
648.81	0.123
649.25	0.123
649.70	0.122
650.15	0.127
650.59	0.127
651.04	0.128
651.48	0.127
651.93	0.128
652.38	0.129
652.82	0.131
653.27	0.127
653.72	0.129
654.16	0.131
654.61	0.132
655.06	0.130
655.50	0.132
655.95	0.133
656.39	0.129
656.84	0.132
657.29	0.134
657.73	0.134
658.18	0.134
658.62	0.134
659.07	0.137
659.52	0.137
659.96	0.138
660.41	0.139
660.85	0.139
661.30	0.138
661.74	0.139
662.19	0.141
662.64	0.140
663.08	0.138
663.53	0.139
663.97	0.140
664.42	0.139
664.86	0.141
665.31	0.142
665.75	0.141
666.20	0.139
666.65	0.140
667.09	0.139
667.54	0.140
667.98	0.138
668.43	0.139
668.87	0.141
669.32	0.137
669.76	0.135
670.21	0.137
670.65	0.135
671.10	0.134
671.54	0.135
671.99	0.135
672.43	0.131
672.88	0.129
673.32	0.129
673.77	0.130
674.21	0.128
674.66	0.123
675.10	0.124
675.55	0.121
675.99	0.121
676.44	0.119
676.88	0.118
677.33	0.118
677.77	0.115
678.22	0.113
678.66	0.111
679.11	0.111
679.55	0.105
679.99	0.106
680.44	0.104
680.88	0.102
681.33	0.100
681.77	0.099
682.22	0.094
682.66	0.096
683.11	0.091
683.55	0.092
683.99	0.090
684.44	0.089
684.88	0.087
685.33	0.084
685.77	0.082
686.21	0.083
686.66	0.080
687.10	0.076
687.55	0.078
687.99	0.075
688.44	0.073
688.88	0.071
689.32	0.071
689.77	0.069
690.21	0.069
690.65	0.067
691.10	0.066
691.54	0.067
691.99	0.063
692.43	0.065
692.87	0.064
693.32	0.061
693.76	0.061
694.20	0.061
694.65	0.061
695.09	0.057
695.53	0.058
695.98	0.056
696.42	0.056
696.86	0.058
697.31	0.058
697.75	0.055
698.19	0.055
698.64	0.054
699.08	0.054
699.52	0.054
699.97	0.053
700.41	0.053
700.85	0.053
701.30	0.050
701.74	0.052
702.18	0.051
702.63	0.050
703.07	0.049
703.51	0.052
703.96	0.050
704.40	0.049
704.84	0.050
705.28	0.050
705.73	0.051
706.17	0.048
706.61	0.050
707.06	0.050
707.50	0.049
707.94	0.049
708.38	0.048
708.83	0.049
709.27	0.048
709.71	0.048
710.15	0.048
710.60	0.048
711.04	0.046
711.48	0.047
711.92	0.047
712.37	0.047
712.81	0.045
713.25	0.049
713.69	0.046
714.13	0.046
714.58	0.048
715.02	0.045
715.46	0.048
715.90	0.047
716.35	0.047
716.79	0.050
717.23	0.049
717.67	0.048
718.11	0.047
718.56	0.047
719.00	0.049
719.44	0.048
719.88	0.047
720.32	0.048
720.76	0.046
721.21	0.047
721.65	0.049
722.09	0.047
722.53	0.048
722.97	0.046
723.41	0.047
723.86	0.047
724.30	0.048
724.74	0.050
725.18	0.049
725.62	0.048
726.06	0.050
726.50	0.049
726.95	0.050
727.39	0.050
727.83	0.050
728.27	0.049
728.71	0.049
729.15	0.049
729.59	0.047
730.03	0.050
730.48	0.050
730.92	0.051
731.36	0.050
731.80	0.050
732.24	0.051
732.68	0.052
733.12	0.050
733.56	0.050
734.00	0.053
734.44	0.051
734.89	0.050
735.33	0.049
735.77	0.053
736.21	0.049
736.65	0.052
737.09	0.054
737.53	0.053
737.97	0.052
738.41	0.050
738.85	0.052
739.29	0.052
739.73	0.051
740.17	0.051
740.61	0.049
741.05	0.053
741.49	0.051
741.93	0.052
742.37	0.053
742.81	0.051
743.26	0.050
743.70	0.051
744.14	0.052
744.58	0.051
745.02	0.052
745.46	0.052
745.90	0.049
746.34	0.051
746.78	0.053
747.22	0.052
747.66	0.051
748.10	0.050
748.54	0.051
748.98	0.051
749.42	0.051
749.86	0.052
750.29	0.051
750.73	0.051
751.17	0.052
751.61	0.053
752.05	0.050
752.49	0.052
752.93	0.049
753.37	0.052
753.81	0.051
754.25	0.051
754.69	0.054
755.13	0.051
755.57	0.050
756.01	0.051
756.45	0.049
756.89	0.051
757.33	0.050
757.77	0.049
758.21	0.052
758.64	0.049
759.08	0.051
759.52	0.051
759.96	0.051
760.40	0.049
760.84	0.051
761.28	0.049
761.72	0.050
762.16	0.048
762.60	0.051
763.03	0.051
763.47	0.051
763.91	0.050
764.35	0.047
764.79	0.049
765.23	0.051
765.67	0.049
766.11	0.051
766.54	0.049
766.98	0.048
767.42	0.050
767.86	0.051
768.30	0.048
768.74	0.048
769.17	0.051
769.61	0.050
770.05	0.048
770.49	0.054
770.93	0.047
771.37	0.051
771.80	0.048
772.24	0.045
772.68	0.049
773.12	0.047
773.56	0.049
774.00	0.051
774.43	0.048
774.87	0.047
775.31	0.050
775.75	0.048
776.19	0.047
776.62	0.050
777.06	0.047
777.50	0.048
777.94	0.046
778.37	0.049
778.81	0.047
779.25	0.045
779.69	0.049
780.13	0.048
780.56	0.046
781.00	0.047
781.44	0.049
781.88	0.047
782.31	0.044
782.75	0.047
783.19	0.048
783.63	0.048
784.06	0.048
784.50	0.046
784.94	0.050
785.37	0.044
785.81	0.046
786.25	0.046
786.69	0.049
787.12	0.048
787.56	0.048
788.00	0.049
788.43	0.047
788.87	0.048
789.31	0.046
789.75	0.048
790.18	0.047
790.62	0.045
791.06	0.048
791.49	0.051
791.93	0.045
792.37	0.047
792.80	0.048
793.24	0.045
793.68	0.049
794.11	0.048
794.55	0.048
794.99	0.045
795.42	0.049
795.86	0.050
796.30	0.048
796.73	0.045
797.17	0.045
797.61	0.046
798.04	0.048
798.48	0.046
798.91	0.048
799.35	0.046
799.79	0.047
800.22	0.047
800.66	0.045
801.10	0.048
801.53	0.049
801.97	0.047
802.40	0.044
802.84	0.044
803.28	0.048
803.71	0.044
804.15	0.045
804.58	0.049
805.02	0.046
805.46	0.043
805.89	0.044
806.33	0.047
806.76	0.045
807.20	0.045
807.63	0.045
808.07	0.046
808.51	0.046
808.94	0.047
809.38	0.047
809.81	0.043
810.25	0.045
810.68	0.044
811.12	0.045
811.55	0.048
811.99	0.048
812.42	0.045
812.86	0.046
813.29	0.046
813.73	0.046
814.17	0.042
814.60	0.042
815.04	0.043
815.47	0.041
815.91	0.040
816.34	0.043
816.78	0.047
817.21	0.046
817.65	0.048
