SpectraSuite Data File
++++++++++++++++++++++++++++++++++++
Date: Wed May 04 16:38:17 CEST 2016
User: spectrasuite
Dark Spectrum Present: Yes
Reference Spectrum Present: Yes
Number of Sampled Component Spectra: 1
Spectrometers: HR+C0708
Integration Time (usec): 1000 (HR+C0708)
Spectra Averaged: 10 (HR+C0708)
Boxcar Smoothing: 0 (HR+C0708)
Correct for Electrical Dark: No (HR+C0708)
Strobe/Lamp Enabled: No (HR+C0708)
Correct for Detector Non-linearity: No (HR+C0708)
Correct for Stray Light: No (HR+C0708)
Number of Pixels in Processed Spectrum: 2048
>>>>>Begin Processed Spectral Data<<<<<
188.76	-0.000
189.23	-0.000
189.70	-0.000
190.17	-0.000
190.64	-0.000
191.12	-0.000
191.59	-0.000
192.06	-0.000
192.53	-0.000
193.01	-0.000
193.48	-0.000
193.95	-0.000
194.42	-0.000
194.90	-0.000
195.37	-0.000
195.84	-0.000
196.31	-0.000
196.78	-0.000
197.26	-0.000
197.73	-0.000
198.20	-0.000
198.67	-0.000
199.14	-0.000
199.62	-0.000
200.09	-0.000
200.56	-0.000
201.03	-0.000
201.50	-0.000
201.97	-0.000
202.45	-0.000
202.92	-0.000
203.39	-0.000
203.86	-0.000
204.33	-0.000
204.80	-0.000
205.28	-0.000
205.75	-0.000
206.22	-0.000
206.69	-0.000
207.16	-0.000
207.63	-0.000
208.11	-0.000
208.58	-0.000
209.05	-0.000
209.52	-0.000
209.99	-0.000
210.46	-0.000
210.93	-0.000
211.41	-0.000
211.88	-0.000
212.35	-0.000
212.82	-0.000
213.29	-0.000
213.76	-0.000
214.23	-0.000
214.70	-0.000
215.18	-0.000
215.65	2.253
216.12	-0.000
216.59	-0.000
217.06	0.967
217.53	-0.000
218.00	-0.000
218.47	-0.000
218.94	-0.000
219.41	-0.000
219.89	-0.000
220.36	1.246
220.83	-0.000
221.30	-0.000
221.77	-0.000
222.24	1.666
222.71	-0.000
223.18	-0.000
223.65	1.077
224.12	1.756
224.59	-0.000
225.06	-0.000
225.54	1.366
226.01	-0.000
226.48	-0.000
226.95	-0.000
227.42	1.986
227.89	-0.000
228.36	-0.000
228.83	1.650
229.30	-0.000
229.77	-0.000
230.24	-0.000
230.71	-0.000
231.18	-0.000
231.65	-0.000
232.12	-0.000
232.59	-0.000
233.06	-0.000
233.53	-0.000
234.00	2.344
234.47	-0.000
234.94	-0.000
235.41	-0.000
235.88	-0.000
236.35	-0.000
236.82	3.656
237.29	-0.000
237.76	2.422
238.23	-0.000
238.70	-0.000
239.17	-0.000
239.64	-0.000
240.11	-0.000
240.58	2.834
241.05	-0.000
241.52	-0.000
241.99	-0.000
242.46	2.898
242.93	2.961
243.40	-0.000
243.87	-0.000
244.34	2.511
244.81	3.018
245.28	-0.000
245.75	2.898
246.22	3.133
246.69	-0.000
247.16	3.167
247.63	3.228
248.10	2.853
248.57	-0.000
249.04	-0.000
249.51	2.775
249.98	-0.000
250.45	-0.000
250.92	2.811
251.39	2.518
251.85	2.518
252.32	2.273
252.79	2.145
253.26	1.998
253.73	1.877
254.20	1.738
254.67	1.609
255.14	1.544
255.61	1.468
256.08	1.409
256.55	1.327
257.02	1.282
257.49	1.230
257.95	1.189
258.42	1.147
258.89	1.107
259.36	1.076
259.83	1.046
260.30	1.026
260.77	1.001
261.24	0.970
261.71	0.954
262.17	0.931
262.64	0.912
263.11	0.893
263.58	0.881
264.05	0.862
264.52	0.847
264.99	0.835
265.46	0.825
265.92	0.805
266.39	0.790
266.86	0.786
267.33	0.772
267.80	0.761
268.27	0.747
268.74	0.737
269.20	0.728
269.67	0.719
270.14	0.714
270.61	0.704
271.08	0.694
271.55	0.686
272.01	0.684
272.48	0.671
272.95	0.667
273.42	0.660
273.89	0.653
274.36	0.646
274.82	0.642
275.29	0.637
275.76	0.630
276.23	0.625
276.70	0.622
277.16	0.617
277.63	0.611
278.10	0.606
278.57	0.603
279.04	0.603
279.50	0.600
279.97	0.594
280.44	0.591
280.91	0.592
281.38	0.585
281.84	0.580
282.31	0.585
282.78	0.583
283.25	0.581
283.72	0.578
284.18	0.574
284.65	0.573
285.12	0.572
285.59	0.574
286.05	0.573
286.52	0.572
286.99	0.570
287.46	0.573
287.92	0.571
288.39	0.567
288.86	0.566
289.33	0.567
289.79	0.563
290.26	0.564
290.73	0.559
291.20	0.559
291.66	0.556
292.13	0.558
292.60	0.551
293.07	0.547
293.53	0.540
294.00	0.536
294.47	0.536
294.93	0.527
295.40	0.521
295.87	0.516
296.34	0.509
296.80	0.503
297.27	0.491
297.74	0.487
298.20	0.480
298.67	0.473
299.14	0.466
299.60	0.458
300.07	0.450
300.54	0.444
301.01	0.439
301.47	0.431
301.94	0.423
302.41	0.413
302.87	0.408
303.34	0.402
303.81	0.393
304.27	0.390
304.74	0.381
305.21	0.373
305.67	0.370
306.14	0.363
306.61	0.360
307.07	0.351
307.54	0.352
308.01	0.341
308.47	0.338
308.94	0.336
309.40	0.332
309.87	0.327
310.34	0.325
310.80	0.320
311.27	0.315
311.74	0.315
312.20	0.311
312.67	0.311
313.13	0.303
313.60	0.304
314.07	0.301
314.53	0.296
315.00	0.293
315.47	0.294
315.93	0.290
316.40	0.289
316.86	0.288
317.33	0.284
317.80	0.283
318.26	0.279
318.73	0.281
319.19	0.282
319.66	0.280
320.13	0.274
320.59	0.274
321.06	0.277
321.52	0.272
321.99	0.270
322.45	0.270
322.92	0.269
323.39	0.267
323.85	0.266
324.32	0.264
324.78	0.261
325.25	0.260
325.71	0.261
326.18	0.258
326.64	0.257
327.11	0.253
327.58	0.252
328.04	0.253
328.51	0.251
328.97	0.250
329.44	0.247
329.90	0.243
330.37	0.242
330.83	0.241
331.30	0.242
331.76	0.238
332.23	0.240
332.69	0.237
333.16	0.235
333.62	0.231
334.09	0.230
334.56	0.228
335.02	0.225
335.49	0.223
335.95	0.220
336.42	0.219
336.88	0.216
337.35	0.215
337.81	0.211
338.28	0.213
338.74	0.214
339.20	0.214
339.67	0.212
340.13	0.215
340.60	0.211
341.06	0.207
341.53	0.204
341.99	0.204
342.46	0.205
342.92	0.201
343.39	0.198
343.85	0.198
344.32	0.197
344.78	0.197
345.25	0.200
345.71	0.200
346.17	0.200
346.64	0.200
347.10	0.196
347.57	0.193
348.03	0.191
348.50	0.192
348.96	0.188
349.43	0.190
349.89	0.192
350.35	0.190
350.82	0.190
351.28	0.194
351.75	0.188
352.21	0.190
352.67	0.189
353.14	0.185
353.60	0.184
354.07	0.180
354.53	0.181
355.00	0.180
355.46	0.179
355.92	0.176
356.39	0.180
356.85	0.178
357.31	0.170
357.78	0.173
358.24	0.171
358.71	0.173
359.17	0.174
359.63	0.168
360.10	0.169
360.56	0.169
361.03	0.167
361.49	0.168
361.95	0.165
362.42	0.166
362.88	0.168
363.34	0.169
363.81	0.169
364.27	0.166
364.73	0.167
365.20	0.166
365.66	0.166
366.12	0.167
366.59	0.164
367.05	0.165
367.51	0.164
367.98	0.163
368.44	0.162
368.90	0.161
369.37	0.166
369.83	0.163
370.29	0.160
370.76	0.160
371.22	0.160
371.68	0.162
372.15	0.156
372.61	0.158
373.07	0.160
373.54	0.159
374.00	0.158
374.46	0.158
374.92	0.157
375.39	0.158
375.85	0.156
376.31	0.157
376.78	0.157
377.24	0.156
377.70	0.155
378.16	0.156
378.63	0.158
379.09	0.156
379.55	0.156
380.01	0.158
380.48	0.157
380.94	0.155
381.40	0.154
381.87	0.157
382.33	0.153
382.79	0.156
383.25	0.154
383.72	0.155
384.18	0.154
384.64	0.154
385.10	0.152
385.56	0.151
386.03	0.152
386.49	0.153
386.95	0.154
387.41	0.151
387.88	0.148
388.34	0.148
388.80	0.151
389.26	0.150
389.72	0.151
390.19	0.150
390.65	0.148
391.11	0.149
391.57	0.150
392.04	0.149
392.50	0.146
392.96	0.148
393.42	0.148
393.88	0.149
394.34	0.147
394.81	0.148
395.27	0.147
395.73	0.146
396.19	0.146
396.65	0.146
397.12	0.144
397.58	0.144
398.04	0.145
398.50	0.146
398.96	0.145
399.42	0.147
399.89	0.148
400.35	0.148
400.81	0.144
401.27	0.146
401.73	0.144
402.19	0.146
402.65	0.140
403.12	0.144
403.58	0.143
404.04	0.140
404.50	0.139
404.96	0.137
405.42	0.140
405.88	0.140
406.34	0.143
406.81	0.143
407.27	0.140
407.73	0.136
408.19	0.138
408.65	0.134
409.11	0.137
409.57	0.138
410.03	0.137
410.49	0.137
410.96	0.138
411.42	0.138
411.88	0.136
412.34	0.134
412.80	0.134
413.26	0.134
413.72	0.134
414.18	0.134
414.64	0.135
415.10	0.134
415.56	0.134
416.02	0.132
416.48	0.134
416.95	0.133
417.41	0.132
417.87	0.133
418.33	0.134
418.79	0.132
419.25	0.134
419.71	0.132
420.17	0.129
420.63	0.127
421.09	0.127
421.55	0.128
422.01	0.132
422.47	0.134
422.93	0.135
423.39	0.133
423.85	0.131
424.31	0.130
424.77	0.131
425.23	0.130
425.69	0.133
426.15	0.137
426.61	0.131
427.07	0.127
427.53	0.128
427.99	0.130
428.45	0.132
428.91	0.127
429.37	0.127
429.83	0.126
430.29	0.129
430.75	0.132
431.21	0.132
431.67	0.134
432.13	0.131
432.59	0.129
433.05	0.130
433.51	0.127
433.97	0.124
434.43	0.133
434.89	0.134
435.35	0.129
435.81	0.129
436.27	0.129
436.73	0.129
437.19	0.130
437.65	0.126
438.11	0.128
438.57	0.129
439.03	0.128
439.48	0.130
439.94	0.133
440.40	0.129
440.86	0.125
441.32	0.129
441.78	0.125
442.24	0.128
442.70	0.128
443.16	0.127
443.62	0.129
444.08	0.125
444.54	0.126
444.99	0.127
445.45	0.123
445.91	0.123
446.37	0.126
446.83	0.128
447.29	0.126
447.75	0.126
448.21	0.130
448.67	0.127
449.12	0.122
449.58	0.125
450.04	0.127
450.50	0.127
450.96	0.123
451.42	0.127
451.88	0.126
452.34	0.124
452.79	0.125
453.25	0.125
453.71	0.125
454.17	0.122
454.63	0.123
455.09	0.125
455.55	0.123
456.00	0.122
456.46	0.125
456.92	0.125
457.38	0.124
457.84	0.123
458.30	0.123
458.75	0.124
459.21	0.121
459.67	0.122
460.13	0.123
460.59	0.123
461.04	0.122
461.50	0.121
461.96	0.122
462.42	0.123
462.88	0.120
463.33	0.119
463.79	0.121
464.25	0.120
464.71	0.124
465.17	0.120
465.62	0.122
466.08	0.124
466.54	0.124
467.00	0.124
467.46	0.123
467.91	0.123
468.37	0.123
468.83	0.126
469.29	0.123
469.74	0.123
470.20	0.124
470.66	0.122
471.12	0.123
471.57	0.122
472.03	0.121
472.49	0.123
472.95	0.127
473.40	0.124
473.86	0.123
474.32	0.121
474.78	0.122
475.23	0.123
475.69	0.122
476.15	0.124
476.60	0.125
477.06	0.125
477.52	0.124
477.98	0.124
478.43	0.124
478.89	0.123
479.35	0.125
479.80	0.123
480.26	0.122
480.72	0.122
481.18	0.122
481.63	0.122
482.09	0.123
482.55	0.120
483.00	0.122
483.46	0.121
483.92	0.120
484.37	0.120
484.83	0.122
485.29	0.120
485.74	0.119
486.20	0.120
486.66	0.121
487.11	0.120
487.57	0.120
488.03	0.120
488.48	0.121
488.94	0.121
489.40	0.120
489.85	0.120
490.31	0.122
490.77	0.120
491.22	0.122
491.68	0.120
492.13	0.122
492.59	0.122
493.05	0.120
493.50	0.119
493.96	0.121
494.42	0.122
494.87	0.121
495.33	0.120
495.78	0.119
496.24	0.122
496.70	0.122
497.15	0.120
497.61	0.120
498.06	0.119
498.52	0.120
498.98	0.119
499.43	0.119
499.89	0.119
500.34	0.119
500.80	0.119
501.25	0.118
501.71	0.118
502.17	0.117
502.62	0.119
503.08	0.117
503.53	0.115
503.99	0.117
504.44	0.120
504.90	0.116
505.36	0.118
505.81	0.118
506.27	0.118
506.72	0.115
507.18	0.117
507.63	0.118
508.09	0.117
508.54	0.118
509.00	0.118
509.45	0.118
509.91	0.117
510.36	0.119
510.82	0.120
511.27	0.119
511.73	0.119
512.19	0.116
512.64	0.115
513.10	0.120
513.55	0.117
514.01	0.119
514.46	0.118
514.92	0.118
515.37	0.118
515.83	0.117
516.28	0.117
516.73	0.116
517.19	0.117
517.64	0.118
518.10	0.117
518.55	0.119
519.01	0.116
519.46	0.116
519.92	0.118
520.37	0.116
520.83	0.118
521.28	0.115
521.74	0.114
522.19	0.117
522.65	0.115
523.10	0.115
523.55	0.117
524.01	0.115
524.46	0.115
524.92	0.116
525.37	0.114
525.83	0.114
526.28	0.116
526.73	0.115
527.19	0.115
527.64	0.116
528.10	0.116
528.55	0.117
529.01	0.117
529.46	0.117
529.91	0.116
530.37	0.117
530.82	0.116
531.28	0.117
531.73	0.116
532.18	0.119
532.64	0.116
533.09	0.118
533.54	0.115
534.00	0.118
534.45	0.118
534.91	0.115
535.36	0.117
535.81	0.114
536.27	0.116
536.72	0.118
537.17	0.117
537.63	0.116
538.08	0.120
538.54	0.117
538.99	0.118
539.44	0.118
539.90	0.118
540.35	0.117
540.80	0.117
541.26	0.116
541.71	0.121
542.16	0.122
542.62	0.123
543.07	0.119
543.52	0.121
543.98	0.119
544.43	0.121
544.88	0.120
545.34	0.121
545.79	0.122
546.24	0.121
546.69	0.120
547.15	0.120
547.60	0.121
548.05	0.121
548.51	0.122
548.96	0.122
549.41	0.123
549.86	0.124
550.32	0.124
550.77	0.123
551.22	0.123
551.68	0.124
552.13	0.125
552.58	0.124
553.03	0.127
553.49	0.125
553.94	0.125
554.39	0.126
554.84	0.126
555.30	0.126
555.75	0.127
556.20	0.129
556.65	0.129
557.11	0.130
557.56	0.129
558.01	0.130
558.46	0.129
558.92	0.131
559.37	0.133
559.82	0.131
560.27	0.133
560.72	0.132
561.18	0.133
561.63	0.131
562.08	0.133
562.53	0.133
562.99	0.137
563.44	0.136
563.89	0.137
564.34	0.137
564.79	0.138
565.25	0.138
565.70	0.137
566.15	0.138
566.60	0.139
567.05	0.139
567.50	0.138
567.96	0.142
568.41	0.142
568.86	0.142
569.31	0.142
569.76	0.142
570.21	0.142
570.67	0.143
571.12	0.142
571.57	0.147
572.02	0.145
572.47	0.145
572.92	0.146
573.37	0.148
573.83	0.150
574.28	0.150
574.73	0.150
575.18	0.151
575.63	0.151
576.08	0.151
576.53	0.151
576.98	0.154
577.44	0.156
577.89	0.155
578.34	0.157
578.79	0.155
579.24	0.158
579.69	0.159
580.14	0.159
580.59	0.160
581.04	0.161
581.49	0.163
581.95	0.162
582.40	0.165
582.85	0.167
583.30	0.168
583.75	0.169
584.20	0.169
584.65	0.171
585.10	0.175
585.55	0.173
586.00	0.174
586.45	0.176
586.90	0.177
587.35	0.177
587.80	0.178
588.25	0.182
588.71	0.183
589.16	0.185
589.61	0.185
590.06	0.187
590.51	0.189
590.96	0.191
591.41	0.192
591.86	0.193
592.31	0.194
592.76	0.195
593.21	0.196
593.66	0.202
594.11	0.200
594.56	0.202
595.01	0.204
595.46	0.204
595.91	0.207
596.36	0.209
596.81	0.211
597.26	0.212
597.71	0.213
598.16	0.215
598.61	0.218
599.06	0.217
599.51	0.220
599.96	0.220
600.41	0.221
600.86	0.227
601.31	0.225
601.76	0.230
602.21	0.231
602.65	0.234
603.10	0.233
603.55	0.234
604.00	0.241
604.45	0.237
604.90	0.239
605.35	0.241
605.80	0.241
606.25	0.242
606.70	0.248
607.15	0.246
607.60	0.249
608.05	0.248
608.50	0.251
608.95	0.252
609.39	0.253
609.84	0.255
610.29	0.255
610.74	0.256
611.19	0.256
611.64	0.258
612.09	0.259
612.54	0.258
612.99	0.260
613.44	0.263
613.88	0.263
614.33	0.262
614.78	0.265
615.23	0.265
615.68	0.265
616.13	0.264
616.58	0.267
617.03	0.267
617.47	0.267
617.92	0.268
618.37	0.269
618.82	0.270
619.27	0.270
619.72	0.270
620.17	0.270
620.61	0.270
621.06	0.273
621.51	0.273
621.96	0.272
622.41	0.273
622.86	0.272
623.30	0.276
623.75	0.277
624.20	0.276
624.65	0.277
625.10	0.277
625.54	0.277
625.99	0.278
626.44	0.280
626.89	0.281
627.34	0.281
627.78	0.284
628.23	0.283
628.68	0.283
629.13	0.284
629.58	0.288
630.02	0.288
630.47	0.289
630.92	0.290
631.37	0.292
631.81	0.293
632.26	0.293
632.71	0.297
633.16	0.298
633.61	0.301
634.05	0.302
634.50	0.300
634.95	0.307
635.40	0.306
635.84	0.310
636.29	0.311
636.74	0.313
637.18	0.315
637.63	0.316
638.08	0.321
638.53	0.320
638.97	0.322
639.42	0.328
639.87	0.328
640.32	0.330
640.76	0.332
641.21	0.336
641.66	0.335
642.10	0.342
642.55	0.341
643.00	0.346
643.44	0.348
643.89	0.351
644.34	0.352
644.79	0.358
645.23	0.360
645.68	0.364
646.13	0.365
646.57	0.366
647.02	0.369
647.47	0.374
647.91	0.375
648.36	0.376
648.81	0.379
649.25	0.382
649.70	0.386
650.15	0.386
650.59	0.394
651.04	0.393
651.48	0.393
651.93	0.399
652.38	0.403
652.82	0.404
653.27	0.403
653.72	0.406
654.16	0.409
654.61	0.410
655.06	0.408
655.50	0.415
655.95	0.411
656.39	0.411
656.84	0.424
657.29	0.428
657.73	0.423
658.18	0.423
658.62	0.426
659.07	0.430
659.52	0.430
659.96	0.430
660.41	0.432
660.85	0.432
661.30	0.435
661.74	0.434
662.19	0.436
662.64	0.435
663.08	0.435
663.53	0.436
663.97	0.437
664.42	0.436
664.86	0.437
665.31	0.437
665.75	0.433
666.20	0.433
666.65	0.434
667.09	0.434
667.54	0.430
667.98	0.430
668.43	0.427
668.87	0.424
669.32	0.426
669.76	0.421
670.21	0.419
670.65	0.416
671.10	0.412
671.54	0.408
671.99	0.407
672.43	0.401
672.88	0.395
673.32	0.392
673.77	0.387
674.21	0.382
674.66	0.375
675.10	0.371
675.55	0.364
675.99	0.358
676.44	0.352
676.88	0.346
677.33	0.340
677.77	0.333
678.22	0.329
678.66	0.321
679.11	0.316
679.55	0.307
679.99	0.299
680.44	0.292
680.88	0.287
681.33	0.281
681.77	0.271
682.22	0.263
682.66	0.261
683.11	0.252
683.55	0.248
683.99	0.241
684.44	0.236
684.88	0.230
685.33	0.222
685.77	0.215
686.21	0.213
686.66	0.204
687.10	0.198
687.55	0.194
687.99	0.190
688.44	0.185
688.88	0.179
689.32	0.174
689.77	0.172
690.21	0.167
690.65	0.162
691.10	0.158
691.54	0.153
691.99	0.151
692.43	0.149
692.87	0.146
693.32	0.142
693.76	0.139
694.20	0.137
694.65	0.134
695.09	0.129
695.53	0.128
695.98	0.125
696.42	0.125
696.86	0.122
697.31	0.120
697.75	0.116
698.19	0.116
698.64	0.114
699.08	0.111
699.52	0.109
699.97	0.109
700.41	0.109
700.85	0.107
701.30	0.102
701.74	0.104
702.18	0.100
702.63	0.099
703.07	0.097
703.51	0.098
703.96	0.098
704.40	0.096
704.84	0.096
705.28	0.096
705.73	0.094
706.17	0.093
706.61	0.093
707.06	0.090
707.50	0.093
707.94	0.092
708.38	0.089
708.83	0.091
709.27	0.090
709.71	0.091
710.15	0.088
710.60	0.088
711.04	0.085
711.48	0.088
711.92	0.087
712.37	0.086
712.81	0.085
713.25	0.085
713.69	0.084
714.13	0.084
714.58	0.086
715.02	0.084
715.46	0.085
715.90	0.083
716.35	0.084
716.79	0.086
717.23	0.087
717.67	0.085
718.11	0.084
718.56	0.083
719.00	0.085
719.44	0.085
719.88	0.084
720.32	0.083
720.76	0.083
721.21	0.083
721.65	0.084
722.09	0.084
722.53	0.082
722.97	0.082
723.41	0.083
723.86	0.082
724.30	0.083
724.74	0.085
725.18	0.082
725.62	0.082
726.06	0.084
726.50	0.084
726.95	0.084
727.39	0.083
727.83	0.085
728.27	0.085
728.71	0.086
729.15	0.084
729.59	0.081
730.03	0.082
730.48	0.084
730.92	0.084
731.36	0.082
731.80	0.083
732.24	0.086
732.68	0.087
733.12	0.085
733.56	0.085
734.00	0.089
734.44	0.085
734.89	0.086
735.33	0.083
735.77	0.087
736.21	0.087
736.65	0.085
737.09	0.089
737.53	0.086
737.97	0.087
738.41	0.086
738.85	0.088
739.29	0.084
739.73	0.089
740.17	0.087
740.61	0.084
741.05	0.089
741.49	0.085
741.93	0.087
742.37	0.088
742.81	0.087
743.26	0.088
743.70	0.086
744.14	0.087
744.58	0.085
745.02	0.085
745.46	0.085
745.90	0.085
746.34	0.085
746.78	0.087
747.22	0.085
747.66	0.084
748.10	0.085
748.54	0.084
748.98	0.086
749.42	0.087
749.86	0.089
750.29	0.087
750.73	0.089
751.17	0.086
751.61	0.088
752.05	0.086
752.49	0.086
752.93	0.085
753.37	0.089
753.81	0.087
754.25	0.086
754.69	0.087
755.13	0.089
755.57	0.082
756.01	0.083
756.45	0.084
756.89	0.086
757.33	0.085
757.77	0.086
758.21	0.084
758.64	0.082
759.08	0.083
759.52	0.085
759.96	0.085
760.40	0.085
760.84	0.082
761.28	0.081
761.72	0.085
762.16	0.084
762.60	0.085
763.03	0.086
763.47	0.085
763.91	0.084
764.35	0.082
764.79	0.086
765.23	0.089
765.67	0.081
766.11	0.085
766.54	0.083
766.98	0.082
767.42	0.085
767.86	0.085
768.30	0.081
768.74	0.084
769.17	0.086
769.61	0.083
770.05	0.084
770.49	0.087
770.93	0.082
771.37	0.085
771.80	0.082
772.24	0.082
772.68	0.083
773.12	0.086
773.56	0.085
774.00	0.084
774.43	0.084
774.87	0.082
775.31	0.084
775.75	0.082
776.19	0.081
776.62	0.086
777.06	0.080
777.50	0.083
777.94	0.082
778.37	0.087
778.81	0.084
779.25	0.082
779.69	0.083
780.13	0.083
780.56	0.078
781.00	0.083
781.44	0.085
781.88	0.085
782.31	0.081
782.75	0.080
783.19	0.084
783.63	0.083
784.06	0.083
784.50	0.081
784.94	0.085
785.37	0.081
785.81	0.085
786.25	0.082
786.69	0.087
787.12	0.084
787.56	0.085
788.00	0.084
788.43	0.085
788.87	0.085
789.31	0.087
789.75	0.084
790.18	0.085
790.62	0.083
791.06	0.083
791.49	0.084
791.93	0.080
792.37	0.084
792.80	0.086
793.24	0.084
793.68	0.084
794.11	0.087
794.55	0.084
794.99	0.086
795.42	0.085
795.86	0.089
796.30	0.083
796.73	0.083
797.17	0.083
797.61	0.083
798.04	0.085
798.48	0.079
798.91	0.084
799.35	0.084
799.79	0.082
800.22	0.086
800.66	0.082
801.10	0.086
801.53	0.086
801.97	0.087
802.40	0.080
802.84	0.084
803.28	0.081
803.71	0.084
804.15	0.085
804.58	0.087
805.02	0.088
805.46	0.082
805.89	0.085
806.33	0.083
806.76	0.084
807.20	0.084
807.63	0.082
808.07	0.083
808.51	0.088
808.94	0.085
809.38	0.084
809.81	0.086
810.25	0.084
810.68	0.084
811.12	0.083
811.55	0.083
811.99	0.083
812.42	0.086
812.86	0.085
813.29	0.083
813.73	0.089
814.17	0.081
814.60	0.084
