SpectraSuite Data File
++++++++++++++++++++++++++++++++++++
Date: Wed May 04 15:34:47 CEST 2016
User: spectrasuite
Dark Spectrum Present: Yes
Reference Spectrum Present: Yes
Number of Sampled Component Spectra: 1
Spectrometers: HR+C0708
Integration Time (usec): 1000 (HR+C0708)
Spectra Averaged: 10 (HR+C0708)
Boxcar Smoothing: 0 (HR+C0708)
Correct for Electrical Dark: No (HR+C0708)
Strobe/Lamp Enabled: No (HR+C0708)
Correct for Detector Non-linearity: No (HR+C0708)
Correct for Stray Light: No (HR+C0708)
Number of Pixels in Processed Spectrum: 2048
>>>>>Begin Processed Spectral Data<<<<<
188.76	-0.000
189.23	-0.000
189.70	-0.000
190.17	-0.000
190.64	-0.000
191.12	-0.000
191.59	-0.000
192.06	-0.000
192.53	-0.000
193.01	-0.000
193.48	-0.000
193.95	-0.000
194.42	-0.000
194.90	-0.000
195.37	-0.000
195.84	-0.000
196.31	-0.000
196.78	-0.000
197.26	-0.000
197.73	-0.000
198.20	-0.000
198.67	-0.000
199.14	-0.000
199.62	-0.000
200.09	-0.000
200.56	-0.000
201.03	-0.000
201.50	1.636
201.97	-0.000
202.45	-0.000
202.92	-0.000
203.39	-0.000
203.86	-0.000
204.33	-0.000
204.80	-0.000
205.28	2.675
205.75	-0.000
206.22	-0.000
206.69	1.758
207.16	-0.000
207.63	-0.000
208.11	1.754
208.58	-0.000
209.05	1.556
209.52	-0.000
209.99	-0.000
210.46	1.426
210.93	-0.000
211.41	-0.000
211.88	1.111
212.35	-0.000
212.82	-0.000
213.29	1.400
213.76	2.122
214.23	1.923
214.70	-0.000
215.18	0.995
215.65	1.077
216.12	2.431
216.59	-0.000
217.06	0.876
217.53	-0.000
218.00	-0.000
218.47	1.708
218.94	-0.000
219.41	1.122
219.89	1.491
220.36	1.053
220.83	1.790
221.30	-0.000
221.77	1.525
222.24	0.961
222.71	-0.000
223.18	1.444
223.65	1.048
224.12	1.180
224.59	1.859
225.06	-0.000
225.54	1.244
226.01	-0.000
226.48	2.211
226.95	-0.000
227.42	1.391
227.89	-0.000
228.36	-0.000
228.83	1.419
229.30	1.549
229.77	-0.000
230.24	1.696
230.71	1.972
231.18	1.901
231.65	-0.000
232.12	3.675
232.59	2.229
233.06	-0.000
233.53	2.595
234.00	2.263
234.47	-0.000
234.94	-0.000
235.41	-0.000
235.88	2.346
236.35	-0.000
236.82	2.327
237.29	2.135
237.76	2.206
238.23	-0.000
238.70	-0.000
239.17	2.525
239.64	-0.000
240.11	2.936
240.58	2.628
241.05	3.058
241.52	2.952
241.99	2.638
242.46	2.581
242.93	2.368
243.40	-0.000
243.87	2.951
244.34	2.489
244.81	-0.000
245.28	3.152
245.75	2.860
246.22	-0.000
246.69	3.963
247.16	2.593
247.63	2.994
248.10	2.894
248.57	-0.000
249.04	2.742
249.51	2.518
249.98	-0.000
250.45	2.855
250.92	2.903
251.39	2.675
251.85	2.663
252.32	2.201
252.79	2.098
253.26	1.868
253.73	1.812
254.20	1.675
254.67	1.591
255.14	1.531
255.61	1.452
256.08	1.369
256.55	1.315
257.02	1.265
257.49	1.216
257.95	1.171
258.42	1.128
258.89	1.102
259.36	1.070
259.83	1.036
260.30	1.019
260.77	0.990
261.24	0.964
261.71	0.943
262.17	0.927
262.64	0.914
263.11	0.892
263.58	0.880
264.05	0.860
264.52	0.837
264.99	0.827
265.46	0.821
265.92	0.802
266.39	0.788
266.86	0.780
267.33	0.773
267.80	0.760
268.27	0.748
268.74	0.742
269.20	0.734
269.67	0.721
270.14	0.714
270.61	0.708
271.08	0.698
271.55	0.691
272.01	0.685
272.48	0.672
272.95	0.669
273.42	0.660
273.89	0.658
274.36	0.650
274.82	0.643
275.29	0.640
275.76	0.634
276.23	0.633
276.70	0.626
277.16	0.627
277.63	0.622
278.10	0.614
278.57	0.611
279.04	0.607
279.50	0.608
279.97	0.600
280.44	0.604
280.91	0.600
281.38	0.596
281.84	0.594
282.31	0.593
282.78	0.591
283.25	0.590
283.72	0.589
284.18	0.589
284.65	0.590
285.12	0.585
285.59	0.585
286.05	0.587
286.52	0.583
286.99	0.584
287.46	0.587
287.92	0.586
288.39	0.580
288.86	0.587
289.33	0.586
289.79	0.583
290.26	0.583
290.73	0.579
291.20	0.575
291.66	0.576
292.13	0.575
292.60	0.572
293.07	0.565
293.53	0.561
294.00	0.555
294.47	0.550
294.93	0.550
295.40	0.540
295.87	0.537
296.34	0.530
296.80	0.518
297.27	0.510
297.74	0.505
298.20	0.501
298.67	0.491
299.14	0.482
299.60	0.475
300.07	0.462
300.54	0.459
301.01	0.453
301.47	0.444
301.94	0.436
302.41	0.427
302.87	0.423
303.34	0.415
303.81	0.404
304.27	0.402
304.74	0.393
305.21	0.384
305.67	0.381
306.14	0.376
306.61	0.369
307.07	0.360
307.54	0.358
308.01	0.351
308.47	0.347
308.94	0.343
309.40	0.341
309.87	0.336
310.34	0.332
310.80	0.327
311.27	0.323
311.74	0.323
312.20	0.320
312.67	0.318
313.13	0.312
313.60	0.309
314.07	0.306
314.53	0.306
315.00	0.300
315.47	0.302
315.93	0.301
316.40	0.296
316.86	0.293
317.33	0.294
317.80	0.293
318.26	0.289
318.73	0.292
319.19	0.290
319.66	0.285
320.13	0.285
320.59	0.284
321.06	0.283
321.52	0.281
321.99	0.283
322.45	0.278
322.92	0.276
323.39	0.274
323.85	0.277
324.32	0.274
324.78	0.272
325.25	0.270
325.71	0.269
326.18	0.267
326.64	0.263
327.11	0.263
327.58	0.262
328.04	0.263
328.51	0.258
328.97	0.260
329.44	0.256
329.90	0.256
330.37	0.252
330.83	0.251
331.30	0.249
331.76	0.249
332.23	0.248
332.69	0.247
333.16	0.246
333.62	0.239
334.09	0.240
334.56	0.240
335.02	0.236
335.49	0.233
335.95	0.230
336.42	0.230
336.88	0.229
337.35	0.226
337.81	0.225
338.28	0.226
338.74	0.224
339.20	0.223
339.67	0.222
340.13	0.222
340.60	0.221
341.06	0.217
341.53	0.213
341.99	0.213
342.46	0.210
342.92	0.210
343.39	0.208
343.85	0.206
344.32	0.208
344.78	0.207
345.25	0.211
345.71	0.208
346.17	0.210
346.64	0.208
347.10	0.207
347.57	0.203
348.03	0.201
348.50	0.199
348.96	0.203
349.43	0.201
349.89	0.200
350.35	0.201
350.82	0.200
351.28	0.201
351.75	0.198
352.21	0.205
352.67	0.196
353.14	0.198
353.60	0.195
354.07	0.193
354.53	0.192
355.00	0.191
355.46	0.190
355.92	0.186
356.39	0.189
356.85	0.186
357.31	0.183
357.78	0.183
358.24	0.184
358.71	0.184
359.17	0.183
359.63	0.179
360.10	0.178
360.56	0.179
361.03	0.178
361.49	0.178
361.95	0.176
362.42	0.176
362.88	0.179
363.34	0.179
363.81	0.178
364.27	0.177
364.73	0.177
365.20	0.177
365.66	0.174
366.12	0.177
366.59	0.176
367.05	0.175
367.51	0.175
367.98	0.173
368.44	0.173
368.90	0.174
369.37	0.175
369.83	0.173
370.29	0.171
370.76	0.171
371.22	0.169
371.68	0.170
372.15	0.170
372.61	0.166
373.07	0.169
373.54	0.168
374.00	0.166
374.46	0.168
374.92	0.165
375.39	0.169
375.85	0.167
376.31	0.169
376.78	0.168
377.24	0.166
377.70	0.165
378.16	0.166
378.63	0.167
379.09	0.167
379.55	0.167
380.01	0.166
380.48	0.166
380.94	0.166
381.40	0.167
381.87	0.165
382.33	0.163
382.79	0.162
383.25	0.165
383.72	0.164
384.18	0.164
384.64	0.165
385.10	0.162
385.56	0.162
386.03	0.163
386.49	0.162
386.95	0.162
387.41	0.162
387.88	0.159
388.34	0.160
388.80	0.160
389.26	0.161
389.72	0.163
390.19	0.160
390.65	0.156
391.11	0.158
391.57	0.161
392.04	0.159
392.50	0.160
392.96	0.159
393.42	0.157
393.88	0.160
394.34	0.158
394.81	0.158
395.27	0.159
395.73	0.155
396.19	0.158
396.65	0.158
397.12	0.154
397.58	0.154
398.04	0.154
398.50	0.156
398.96	0.157
399.42	0.157
399.89	0.158
400.35	0.156
400.81	0.154
401.27	0.155
401.73	0.152
402.19	0.155
402.65	0.152
403.12	0.152
403.58	0.152
404.04	0.148
404.50	0.148
404.96	0.148
405.42	0.149
405.88	0.150
406.34	0.152
406.81	0.150
407.27	0.147
407.73	0.147
408.19	0.148
408.65	0.143
409.11	0.145
409.57	0.147
410.03	0.150
410.49	0.147
410.96	0.145
411.42	0.147
411.88	0.144
412.34	0.140
412.80	0.144
413.26	0.145
413.72	0.146
414.18	0.143
414.64	0.143
415.10	0.143
415.56	0.146
416.02	0.142
416.48	0.142
416.95	0.143
417.41	0.143
417.87	0.143
418.33	0.142
418.79	0.141
419.25	0.144
419.71	0.141
420.17	0.139
420.63	0.138
421.09	0.139
421.55	0.140
422.01	0.142
422.47	0.146
422.93	0.143
423.39	0.139
423.85	0.139
424.31	0.140
424.77	0.139
425.23	0.139
425.69	0.142
426.15	0.143
426.61	0.141
427.07	0.136
427.53	0.137
427.99	0.139
428.45	0.140
428.91	0.137
429.37	0.136
429.83	0.136
430.29	0.138
430.75	0.140
431.21	0.142
431.67	0.144
432.13	0.141
432.59	0.138
433.05	0.138
433.51	0.134
433.97	0.130
434.43	0.141
434.89	0.143
435.35	0.136
435.81	0.141
436.27	0.138
436.73	0.137
437.19	0.140
437.65	0.136
438.11	0.136
438.57	0.138
439.03	0.137
439.48	0.137
439.94	0.138
440.40	0.135
440.86	0.135
441.32	0.136
441.78	0.135
442.24	0.136
442.70	0.137
443.16	0.133
443.62	0.136
444.08	0.133
444.54	0.134
444.99	0.134
445.45	0.130
445.91	0.132
446.37	0.132
446.83	0.133
447.29	0.131
447.75	0.135
448.21	0.135
448.67	0.132
449.12	0.135
449.58	0.133
450.04	0.138
450.50	0.133
450.96	0.130
451.42	0.135
451.88	0.134
452.34	0.130
452.79	0.131
453.25	0.134
453.71	0.133
454.17	0.131
454.63	0.132
455.09	0.130
455.55	0.131
456.00	0.131
456.46	0.134
456.92	0.132
457.38	0.132
457.84	0.133
458.30	0.132
458.75	0.133
459.21	0.132
459.67	0.130
460.13	0.132
460.59	0.131
461.04	0.133
461.50	0.131
461.96	0.130
462.42	0.130
462.88	0.130
463.33	0.129
463.79	0.130
464.25	0.129
464.71	0.131
465.17	0.132
465.62	0.128
466.08	0.133
466.54	0.134
467.00	0.132
467.46	0.132
467.91	0.132
468.37	0.132
468.83	0.132
469.29	0.132
469.74	0.133
470.20	0.130
470.66	0.130
471.12	0.133
471.57	0.131
472.03	0.132
472.49	0.132
472.95	0.131
473.40	0.133
473.86	0.132
474.32	0.133
474.78	0.132
475.23	0.133
475.69	0.130
476.15	0.134
476.60	0.135
477.06	0.132
477.52	0.128
477.98	0.134
478.43	0.132
478.89	0.130
479.35	0.132
479.80	0.130
480.26	0.130
480.72	0.132
481.18	0.132
481.63	0.131
482.09	0.131
482.55	0.129
483.00	0.128
483.46	0.132
483.92	0.130
484.37	0.130
484.83	0.128
485.29	0.132
485.74	0.130
486.20	0.131
486.66	0.130
487.11	0.130
487.57	0.129
488.03	0.128
488.48	0.131
488.94	0.130
489.40	0.131
489.85	0.132
490.31	0.130
490.77	0.128
491.22	0.133
491.68	0.130
492.13	0.130
492.59	0.131
493.05	0.128
493.50	0.129
493.96	0.130
494.42	0.132
494.87	0.132
495.33	0.127
495.78	0.128
496.24	0.130
496.70	0.130
497.15	0.130
497.61	0.130
498.06	0.129
498.52	0.129
498.98	0.129
499.43	0.129
499.89	0.131
500.34	0.128
500.80	0.129
501.25	0.127
501.71	0.126
502.17	0.126
502.62	0.127
503.08	0.124
503.53	0.128
503.99	0.129
504.44	0.127
504.90	0.125
505.36	0.126
505.81	0.127
506.27	0.126
506.72	0.127
507.18	0.128
507.63	0.126
508.09	0.127
508.54	0.129
509.00	0.127
509.45	0.126
509.91	0.127
510.36	0.128
510.82	0.129
511.27	0.127
511.73	0.127
512.19	0.126
512.64	0.125
513.10	0.126
513.55	0.127
514.01	0.126
514.46	0.126
514.92	0.127
515.37	0.126
515.83	0.127
516.28	0.126
516.73	0.127
517.19	0.124
517.64	0.125
518.10	0.124
518.55	0.126
519.01	0.126
519.46	0.126
519.92	0.125
520.37	0.124
520.83	0.125
521.28	0.126
521.74	0.124
522.19	0.125
522.65	0.125
523.10	0.123
523.55	0.126
524.01	0.123
524.46	0.124
524.92	0.123
525.37	0.126
525.83	0.125
526.28	0.125
526.73	0.125
527.19	0.123
527.64	0.124
528.10	0.125
528.55	0.126
529.01	0.123
529.46	0.126
529.91	0.124
530.37	0.123
530.82	0.124
531.28	0.127
531.73	0.125
532.18	0.127
532.64	0.125
533.09	0.128
533.54	0.124
534.00	0.126
534.45	0.126
534.91	0.125
535.36	0.125
535.81	0.124
536.27	0.124
536.72	0.125
537.17	0.126
537.63	0.126
538.08	0.128
538.54	0.127
538.99	0.128
539.44	0.127
539.90	0.128
540.35	0.127
540.80	0.127
541.26	0.126
541.71	0.130
542.16	0.129
542.62	0.130
543.07	0.129
543.52	0.130
543.98	0.128
544.43	0.129
544.88	0.129
545.34	0.130
545.79	0.131
546.24	0.130
546.69	0.130
547.15	0.130
547.60	0.131
548.05	0.132
548.51	0.132
548.96	0.132
549.41	0.132
549.86	0.132
550.32	0.135
550.77	0.134
551.22	0.133
551.68	0.133
552.13	0.135
552.58	0.135
553.03	0.137
553.49	0.136
553.94	0.135
554.39	0.137
554.84	0.139
555.30	0.136
555.75	0.138
556.20	0.136
556.65	0.139
557.11	0.139
557.56	0.139
558.01	0.142
558.46	0.139
558.92	0.141
559.37	0.142
559.82	0.141
560.27	0.143
560.72	0.143
561.18	0.145
561.63	0.144
562.08	0.146
562.53	0.144
562.99	0.149
563.44	0.147
563.89	0.146
564.34	0.149
564.79	0.148
565.25	0.150
565.70	0.150
566.15	0.151
566.60	0.151
567.05	0.152
567.50	0.152
567.96	0.153
568.41	0.156
568.86	0.152
569.31	0.154
569.76	0.153
570.21	0.155
570.67	0.154
571.12	0.155
571.57	0.157
572.02	0.158
572.47	0.157
572.92	0.159
573.37	0.162
573.83	0.162
574.28	0.162
574.73	0.162
575.18	0.162
575.63	0.163
576.08	0.166
576.53	0.164
576.98	0.165
577.44	0.169
577.89	0.167
578.34	0.172
578.79	0.171
579.24	0.170
579.69	0.172
580.14	0.172
580.59	0.175
581.04	0.175
581.49	0.175
581.95	0.178
582.40	0.180
582.85	0.183
583.30	0.180
583.75	0.184
584.20	0.184
584.65	0.185
585.10	0.188
585.55	0.187
586.00	0.189
586.45	0.190
586.90	0.192
587.35	0.195
587.80	0.196
588.25	0.196
588.71	0.198
589.16	0.202
589.61	0.199
590.06	0.202
590.51	0.203
590.96	0.205
591.41	0.208
591.86	0.210
592.31	0.211
592.76	0.213
593.21	0.213
593.66	0.218
594.11	0.219
594.56	0.219
595.01	0.222
595.46	0.221
595.91	0.225
596.36	0.226
596.81	0.230
597.26	0.231
597.71	0.233
598.16	0.236
598.61	0.236
599.06	0.237
599.51	0.241
599.96	0.242
600.41	0.243
600.86	0.244
601.31	0.246
601.76	0.251
602.21	0.252
602.65	0.253
603.10	0.255
603.55	0.257
604.00	0.260
604.45	0.258
604.90	0.260
605.35	0.265
605.80	0.263
606.25	0.265
606.70	0.269
607.15	0.267
607.60	0.271
608.05	0.273
608.50	0.274
608.95	0.274
609.39	0.276
609.84	0.277
610.29	0.277
610.74	0.280
611.19	0.279
611.64	0.282
612.09	0.285
612.54	0.284
612.99	0.283
613.44	0.286
613.88	0.287
614.33	0.286
614.78	0.289
615.23	0.290
615.68	0.288
616.13	0.288
616.58	0.290
617.03	0.292
617.47	0.292
617.92	0.294
618.37	0.292
618.82	0.293
619.27	0.296
619.72	0.295
620.17	0.295
620.61	0.298
621.06	0.297
621.51	0.294
621.96	0.297
622.41	0.299
622.86	0.299
623.30	0.300
623.75	0.301
624.20	0.303
624.65	0.302
625.10	0.304
625.54	0.302
625.99	0.302
626.44	0.306
626.89	0.308
627.34	0.307
627.78	0.308
628.23	0.310
628.68	0.309
629.13	0.312
629.58	0.312
630.02	0.314
630.47	0.314
630.92	0.318
631.37	0.320
631.81	0.318
632.26	0.320
632.71	0.324
633.16	0.324
633.61	0.326
634.05	0.329
634.50	0.328
634.95	0.332
635.40	0.335
635.84	0.338
636.29	0.339
636.74	0.343
637.18	0.343
637.63	0.344
638.08	0.347
638.53	0.348
638.97	0.352
639.42	0.353
639.87	0.358
640.32	0.360
640.76	0.363
641.21	0.366
641.66	0.368
642.10	0.370
642.55	0.374
643.00	0.375
643.44	0.379
643.89	0.383
644.34	0.385
644.79	0.388
645.23	0.391
645.68	0.393
646.13	0.398
646.57	0.401
647.02	0.402
647.47	0.407
647.91	0.407
648.36	0.409
648.81	0.413
649.25	0.415
649.70	0.419
650.15	0.425
650.59	0.429
651.04	0.428
651.48	0.432
651.93	0.435
652.38	0.437
652.82	0.440
653.27	0.439
653.72	0.443
654.16	0.448
654.61	0.451
655.06	0.449
655.50	0.452
655.95	0.448
656.39	0.455
656.84	0.461
657.29	0.467
657.73	0.468
658.18	0.464
658.62	0.465
659.07	0.471
659.52	0.471
659.96	0.472
660.41	0.475
660.85	0.475
661.30	0.476
661.74	0.476
662.19	0.476
662.64	0.478
663.08	0.478
663.53	0.479
663.97	0.481
664.42	0.478
664.86	0.479
665.31	0.480
665.75	0.478
666.20	0.476
666.65	0.478
667.09	0.477
667.54	0.475
667.98	0.471
668.43	0.471
668.87	0.468
669.32	0.466
669.76	0.465
670.21	0.462
670.65	0.458
671.10	0.453
671.54	0.450
671.99	0.445
672.43	0.441
672.88	0.437
673.32	0.432
673.77	0.427
674.21	0.421
674.66	0.414
675.10	0.409
675.55	0.402
675.99	0.395
676.44	0.387
676.88	0.382
677.33	0.374
677.77	0.366
678.22	0.361
678.66	0.352
679.11	0.345
679.55	0.337
679.99	0.331
680.44	0.325
680.88	0.317
681.33	0.310
681.77	0.302
682.22	0.292
682.66	0.286
683.11	0.278
683.55	0.272
683.99	0.263
684.44	0.259
684.88	0.252
685.33	0.245
685.77	0.240
686.21	0.232
686.66	0.224
687.10	0.217
687.55	0.213
687.99	0.209
688.44	0.203
688.88	0.195
689.32	0.191
689.77	0.187
690.21	0.183
690.65	0.180
691.10	0.173
691.54	0.168
691.99	0.164
692.43	0.161
692.87	0.158
693.32	0.154
693.76	0.150
694.20	0.148
694.65	0.144
695.09	0.143
695.53	0.138
695.98	0.137
696.42	0.134
696.86	0.134
697.31	0.129
697.75	0.125
698.19	0.125
698.64	0.120
699.08	0.121
699.52	0.118
699.97	0.117
700.41	0.117
700.85	0.115
701.30	0.109
701.74	0.112
702.18	0.111
702.63	0.108
703.07	0.105
703.51	0.104
703.96	0.104
704.40	0.105
704.84	0.103
705.28	0.103
705.73	0.101
706.17	0.099
706.61	0.101
707.06	0.097
707.50	0.099
707.94	0.099
708.38	0.095
708.83	0.095
709.27	0.096
709.71	0.096
710.15	0.094
710.60	0.097
711.04	0.090
711.48	0.093
711.92	0.093
712.37	0.091
712.81	0.092
713.25	0.092
713.69	0.092
714.13	0.089
714.58	0.091
715.02	0.089
715.46	0.089
715.90	0.089
716.35	0.088
716.79	0.091
717.23	0.090
717.67	0.090
718.11	0.087
718.56	0.089
719.00	0.091
719.44	0.087
719.88	0.089
720.32	0.090
720.76	0.086
721.21	0.090
721.65	0.090
722.09	0.089
722.53	0.090
722.97	0.088
723.41	0.086
723.86	0.088
724.30	0.088
724.74	0.088
725.18	0.087
725.62	0.087
726.06	0.087
726.50	0.089
726.95	0.089
727.39	0.090
727.83	0.091
728.27	0.090
728.71	0.088
729.15	0.088
729.59	0.086
730.03	0.089
730.48	0.088
730.92	0.091
731.36	0.089
731.80	0.089
732.24	0.093
732.68	0.089
733.12	0.091
733.56	0.090
734.00	0.090
734.44	0.090
734.89	0.090
735.33	0.088
735.77	0.092
736.21	0.090
736.65	0.090
737.09	0.091
737.53	0.091
737.97	0.092
738.41	0.089
738.85	0.091
739.29	0.088
739.73	0.090
740.17	0.088
740.61	0.089
741.05	0.090
741.49	0.091
741.93	0.090
742.37	0.092
742.81	0.091
743.26	0.092
743.70	0.092
744.14	0.090
744.58	0.092
745.02	0.089
745.46	0.091
745.90	0.089
746.34	0.092
746.78	0.092
747.22	0.090
747.66	0.089
748.10	0.089
748.54	0.091
748.98	0.090
749.42	0.090
749.86	0.090
750.29	0.091
750.73	0.092
751.17	0.091
751.61	0.093
752.05	0.090
752.49	0.091
752.93	0.090
753.37	0.093
753.81	0.088
754.25	0.090
754.69	0.090
755.13	0.092
755.57	0.089
756.01	0.089
756.45	0.088
756.89	0.087
757.33	0.089
757.77	0.090
758.21	0.090
758.64	0.086
759.08	0.087
759.52	0.088
759.96	0.092
760.40	0.088
760.84	0.087
761.28	0.084
761.72	0.087
762.16	0.086
762.60	0.087
763.03	0.089
763.47	0.088
763.91	0.088
764.35	0.088
764.79	0.089
765.23	0.090
765.67	0.086
766.11	0.089
766.54	0.088
766.98	0.087
767.42	0.088
767.86	0.090
768.30	0.087
768.74	0.088
769.17	0.089
769.61	0.088
770.05	0.086
770.49	0.090
770.93	0.088
771.37	0.090
771.80	0.087
772.24	0.085
772.68	0.090
773.12	0.088
773.56	0.089
774.00	0.090
774.43	0.090
774.87	0.085
775.31	0.090
775.75	0.087
776.19	0.088
776.62	0.085
777.06	0.086
777.50	0.089
777.94	0.086
778.37	0.089
778.81	0.088
779.25	0.085
779.69	0.087
780.13	0.086
780.56	0.084
781.00	0.085
781.44	0.085
781.88	0.088
782.31	0.086
782.75	0.084
783.19	0.086
783.63	0.087
784.06	0.087
784.50	0.087
784.94	0.091
785.37	0.085
785.81	0.086
786.25	0.088
786.69	0.091
787.12	0.089
787.56	0.086
788.00	0.089
788.43	0.088
788.87	0.087
789.31	0.088
789.75	0.083
790.18	0.086
790.62	0.088
791.06	0.085
791.49	0.087
791.93	0.084
792.37	0.084
792.80	0.088
793.24	0.087
793.68	0.086
794.11	0.088
794.55	0.089
794.99	0.088
795.42	0.088
795.86	0.089
796.30	0.088
796.73	0.085
797.17	0.085
797.61	0.087
798.04	0.088
798.48	0.085
798.91	0.086
799.35	0.087
799.79	0.087
800.22	0.088
800.66	0.086
801.10	0.090
801.53	0.091
801.97	0.085
802.40	0.085
802.84	0.087
803.28	0.087
803.71	0.086
804.15	0.088
804.58	0.090
805.02	0.089
805.46	0.085
805.89	0.088
806.33	0.090
806.76	0.088
807.20	0.087
807.63	0.087
808.07	0.084
808.51	0.088
808.94	0.087
809.38	0.085
809.81	0.087
810.25	0.088
810.68	0.086
811.12	0.084
811.55	0.089
811.99	0.088
812.42	0.086
812.86	0.086
813.29	0.086
813.73	0.088
814.17	0.084
814.60	0.082
815.04	0.083
815.47	0.084
