SpectraSuite Data File
++++++++++++++++++++++++++++++++++++
Date: Wed May 04 14:49:26 CEST 2016
User: spectrasuite
Dark Spectrum Present: Yes
Reference Spectrum Present: Yes
Number of Sampled Component Spectra: 1
Spectrometers: HR+C0708
Integration Time (usec): 1000 (HR+C0708)
Spectra Averaged: 10 (HR+C0708)
Boxcar Smoothing: 0 (HR+C0708)
Correct for Electrical Dark: No (HR+C0708)
Strobe/Lamp Enabled: No (HR+C0708)
Correct for Detector Non-linearity: No (HR+C0708)
Correct for Stray Light: No (HR+C0708)
Number of Pixels in Processed Spectrum: 2048
>>>>>Begin Processed Spectral Data<<<<<
188.76	-0.000
189.23	-0.000
189.70	-0.000
190.17	-0.000
190.64	-0.000
191.12	-0.000
191.59	-0.000
192.06	-0.000
192.53	-0.000
193.01	-0.000
193.48	-0.000
193.95	-0.000
194.42	-0.000
194.90	-0.000
195.37	-0.000
195.84	-0.000
196.31	-0.000
196.78	-0.000
197.26	-0.000
197.73	-0.000
198.20	-0.000
198.67	-0.000
199.14	-0.000
199.62	-0.000
200.09	-0.000
200.56	1.144
201.03	1.473
201.50	0.823
201.97	0.743
202.45	1.234
202.92	1.328
203.39	1.237
203.86	1.973
204.33	0.647
204.80	0.859
205.28	1.107
205.75	1.221
206.22	1.044
206.69	0.861
207.16	1.385
207.63	1.003
208.11	0.891
208.58	1.163
209.05	0.962
209.52	1.066
209.99	0.970
210.46	0.694
210.93	1.170
211.41	1.531
211.88	0.939
212.35	0.718
212.82	-0.000
213.29	1.010
213.76	1.184
214.23	0.701
214.70	0.952
215.18	0.965
215.65	0.557
216.12	0.984
216.59	0.788
217.06	0.496
217.53	0.742
218.00	0.665
218.47	0.649
218.94	1.123
219.41	0.542
219.89	0.697
220.36	0.765
220.83	0.734
221.30	1.065
221.77	0.817
222.24	0.708
222.71	0.792
223.18	1.575
223.65	0.688
224.12	0.821
224.59	0.757
225.06	1.383
225.54	0.886
226.01	0.951
226.48	1.061
226.95	1.435
227.42	1.086
227.89	1.986
228.36	1.320
228.83	1.115
229.30	1.287
229.77	2.071
230.24	1.353
230.71	1.486
231.18	1.318
231.65	1.642
232.12	2.295
232.59	1.730
233.06	-0.000
233.53	2.525
234.00	1.755
234.47	2.166
234.94	3.061
235.41	2.110
235.88	2.025
236.35	2.193
236.82	2.142
237.29	2.070
237.76	2.246
238.23	2.409
238.70	-0.000
239.17	2.242
239.64	2.444
240.11	2.920
240.58	2.156
241.05	2.404
241.52	2.357
241.99	2.288
242.46	2.319
242.93	2.251
243.40	2.990
243.87	2.503
244.34	2.293
244.81	2.402
245.28	2.572
245.75	2.415
246.22	2.614
246.69	-0.000
247.16	2.659
247.63	2.607
248.10	2.447
248.57	3.272
249.04	2.573
249.51	2.336
249.98	2.921
250.45	2.711
250.92	2.443
251.39	2.355
251.85	2.509
252.32	2.149
252.79	2.046
253.26	1.885
253.73	1.812
254.20	1.677
254.67	1.569
255.14	1.538
255.61	1.459
256.08	1.376
256.55	1.325
257.02	1.284
257.49	1.221
257.95	1.186
258.42	1.137
258.89	1.117
259.36	1.082
259.83	1.052
260.30	1.034
260.77	1.005
261.24	0.977
261.71	0.973
262.17	0.949
262.64	0.927
263.11	0.905
263.58	0.890
264.05	0.879
264.52	0.867
264.99	0.846
265.46	0.838
265.92	0.825
266.39	0.807
266.86	0.800
267.33	0.788
267.80	0.776
268.27	0.767
268.74	0.763
269.20	0.750
269.67	0.742
270.14	0.740
270.61	0.727
271.08	0.719
271.55	0.711
272.01	0.704
272.48	0.697
272.95	0.690
273.42	0.681
273.89	0.677
274.36	0.673
274.82	0.668
275.29	0.664
275.76	0.661
276.23	0.657
276.70	0.647
277.16	0.647
277.63	0.645
278.10	0.636
278.57	0.638
279.04	0.631
279.50	0.630
279.97	0.627
280.44	0.623
280.91	0.621
281.38	0.620
281.84	0.620
282.31	0.620
282.78	0.620
283.25	0.616
283.72	0.614
284.18	0.616
284.65	0.616
285.12	0.617
285.59	0.615
286.05	0.612
286.52	0.615
286.99	0.617
287.46	0.616
287.92	0.615
288.39	0.611
288.86	0.613
289.33	0.614
289.79	0.617
290.26	0.617
290.73	0.612
291.20	0.606
291.66	0.605
292.13	0.604
292.60	0.602
293.07	0.596
293.53	0.591
294.00	0.589
294.47	0.587
294.93	0.582
295.40	0.570
295.87	0.567
296.34	0.557
296.80	0.552
297.27	0.540
297.74	0.536
298.20	0.529
298.67	0.520
299.14	0.511
299.60	0.504
300.07	0.494
300.54	0.489
301.01	0.480
301.47	0.473
301.94	0.464
302.41	0.456
302.87	0.448
303.34	0.439
303.81	0.434
304.27	0.428
304.74	0.420
305.21	0.408
305.67	0.405
306.14	0.400
306.61	0.393
307.07	0.388
307.54	0.383
308.01	0.376
308.47	0.371
308.94	0.367
309.40	0.361
309.87	0.360
310.34	0.357
310.80	0.352
311.27	0.348
311.74	0.347
312.20	0.340
312.67	0.339
313.13	0.334
313.60	0.332
314.07	0.328
314.53	0.326
315.00	0.325
315.47	0.325
315.93	0.324
316.40	0.319
316.86	0.318
317.33	0.315
317.80	0.317
318.26	0.311
318.73	0.313
319.19	0.310
319.66	0.308
320.13	0.304
320.59	0.304
321.06	0.305
321.52	0.304
321.99	0.301
322.45	0.300
322.92	0.295
323.39	0.297
323.85	0.298
324.32	0.295
324.78	0.291
325.25	0.288
325.71	0.289
326.18	0.288
326.64	0.287
327.11	0.283
327.58	0.284
328.04	0.284
328.51	0.282
328.97	0.280
329.44	0.281
329.90	0.275
330.37	0.274
330.83	0.276
331.30	0.272
331.76	0.271
332.23	0.268
332.69	0.267
333.16	0.266
333.62	0.260
334.09	0.262
334.56	0.259
335.02	0.257
335.49	0.253
335.95	0.251
336.42	0.249
336.88	0.246
337.35	0.245
337.81	0.243
338.28	0.246
338.74	0.242
339.20	0.244
339.67	0.242
340.13	0.243
340.60	0.239
341.06	0.235
341.53	0.234
341.99	0.232
342.46	0.231
342.92	0.230
343.39	0.227
343.85	0.223
344.32	0.226
344.78	0.225
345.25	0.229
345.71	0.228
346.17	0.228
346.64	0.229
347.10	0.226
347.57	0.223
348.03	0.218
348.50	0.219
348.96	0.217
349.43	0.217
349.89	0.220
350.35	0.218
350.82	0.215
351.28	0.218
351.75	0.216
352.21	0.217
352.67	0.208
353.14	0.217
353.60	0.207
354.07	0.208
354.53	0.206
355.00	0.209
355.46	0.206
355.92	0.202
356.39	0.204
356.85	0.203
357.31	0.197
357.78	0.199
358.24	0.200
358.71	0.201
359.17	0.198
359.63	0.195
360.10	0.194
360.56	0.194
361.03	0.193
361.49	0.189
361.95	0.190
362.42	0.190
362.88	0.191
363.34	0.190
363.81	0.188
364.27	0.188
364.73	0.188
365.20	0.186
365.66	0.185
366.12	0.184
366.59	0.183
367.05	0.180
367.51	0.182
367.98	0.181
368.44	0.180
368.90	0.180
369.37	0.181
369.83	0.179
370.29	0.177
370.76	0.174
371.22	0.176
371.68	0.178
372.15	0.176
372.61	0.172
373.07	0.176
373.54	0.174
374.00	0.173
374.46	0.175
374.92	0.174
375.39	0.175
375.85	0.174
376.31	0.173
376.78	0.172
377.24	0.172
377.70	0.171
378.16	0.173
378.63	0.171
379.09	0.172
379.55	0.172
380.01	0.172
380.48	0.170
380.94	0.173
381.40	0.170
381.87	0.172
382.33	0.169
382.79	0.168
383.25	0.170
383.72	0.171
384.18	0.167
384.64	0.170
385.10	0.166
385.56	0.169
386.03	0.169
386.49	0.168
386.95	0.169
387.41	0.167
387.88	0.167
388.34	0.164
388.80	0.167
389.26	0.165
389.72	0.167
390.19	0.165
390.65	0.163
391.11	0.163
391.57	0.164
392.04	0.163
392.50	0.162
392.96	0.164
393.42	0.164
393.88	0.164
394.34	0.161
394.81	0.164
395.27	0.162
395.73	0.160
396.19	0.160
396.65	0.161
397.12	0.158
397.58	0.160
398.04	0.160
398.50	0.162
398.96	0.160
399.42	0.160
399.89	0.163
400.35	0.161
400.81	0.159
401.27	0.160
401.73	0.158
402.19	0.160
402.65	0.156
403.12	0.158
403.58	0.155
404.04	0.154
404.50	0.152
404.96	0.154
405.42	0.153
405.88	0.153
406.34	0.156
406.81	0.154
407.27	0.152
407.73	0.149
408.19	0.149
408.65	0.149
409.11	0.151
409.57	0.149
410.03	0.153
410.49	0.151
410.96	0.150
411.42	0.151
411.88	0.149
412.34	0.148
412.80	0.150
413.26	0.152
413.72	0.147
414.18	0.144
414.64	0.150
415.10	0.146
415.56	0.149
416.02	0.147
416.48	0.149
416.95	0.150
417.41	0.147
417.87	0.146
418.33	0.146
418.79	0.144
419.25	0.149
419.71	0.146
420.17	0.144
420.63	0.140
421.09	0.141
421.55	0.143
422.01	0.143
422.47	0.148
422.93	0.146
423.39	0.145
423.85	0.145
424.31	0.143
424.77	0.144
425.23	0.143
425.69	0.146
426.15	0.148
426.61	0.146
427.07	0.141
427.53	0.143
427.99	0.140
428.45	0.144
428.91	0.143
429.37	0.141
429.83	0.141
430.29	0.144
430.75	0.143
431.21	0.146
431.67	0.147
432.13	0.143
432.59	0.141
433.05	0.143
433.51	0.140
433.97	0.137
434.43	0.146
434.89	0.146
435.35	0.141
435.81	0.140
436.27	0.142
436.73	0.138
437.19	0.144
437.65	0.141
438.11	0.142
438.57	0.141
439.03	0.140
439.48	0.141
439.94	0.141
440.40	0.138
440.86	0.137
441.32	0.140
441.78	0.139
442.24	0.140
442.70	0.143
443.16	0.139
443.62	0.141
444.08	0.136
444.54	0.139
444.99	0.139
445.45	0.137
445.91	0.139
446.37	0.139
446.83	0.138
447.29	0.137
447.75	0.137
448.21	0.140
448.67	0.138
449.12	0.140
449.58	0.138
450.04	0.137
450.50	0.138
450.96	0.136
451.42	0.137
451.88	0.138
452.34	0.136
452.79	0.138
453.25	0.140
453.71	0.136
454.17	0.135
454.63	0.137
455.09	0.134
455.55	0.134
456.00	0.133
456.46	0.137
456.92	0.138
457.38	0.136
457.84	0.136
458.30	0.136
458.75	0.135
459.21	0.133
459.67	0.133
460.13	0.135
460.59	0.135
461.04	0.134
461.50	0.134
461.96	0.136
462.42	0.134
462.88	0.134
463.33	0.134
463.79	0.136
464.25	0.134
464.71	0.136
465.17	0.135
465.62	0.133
466.08	0.136
466.54	0.136
467.00	0.133
467.46	0.137
467.91	0.136
468.37	0.134
468.83	0.137
469.29	0.137
469.74	0.137
470.20	0.136
470.66	0.133
471.12	0.137
471.57	0.132
472.03	0.135
472.49	0.136
472.95	0.138
473.40	0.135
473.86	0.136
474.32	0.135
474.78	0.136
475.23	0.138
475.69	0.135
476.15	0.138
476.60	0.135
477.06	0.135
477.52	0.136
477.98	0.135
478.43	0.137
478.89	0.135
479.35	0.137
479.80	0.135
480.26	0.134
480.72	0.135
481.18	0.134
481.63	0.137
482.09	0.136
482.55	0.134
483.00	0.133
483.46	0.136
483.92	0.133
484.37	0.133
484.83	0.132
485.29	0.136
485.74	0.134
486.20	0.133
486.66	0.136
487.11	0.135
487.57	0.135
488.03	0.132
488.48	0.136
488.94	0.134
489.40	0.134
489.85	0.134
490.31	0.133
490.77	0.135
491.22	0.135
491.68	0.133
492.13	0.133
492.59	0.136
493.05	0.132
493.50	0.134
493.96	0.133
494.42	0.135
494.87	0.135
495.33	0.133
495.78	0.133
496.24	0.132
496.70	0.136
497.15	0.133
497.61	0.134
498.06	0.132
498.52	0.132
498.98	0.134
499.43	0.132
499.89	0.134
500.34	0.131
500.80	0.134
501.25	0.130
501.71	0.131
502.17	0.131
502.62	0.132
503.08	0.129
503.53	0.131
503.99	0.133
504.44	0.132
504.90	0.128
505.36	0.133
505.81	0.132
506.27	0.130
506.72	0.130
507.18	0.130
507.63	0.130
508.09	0.131
508.54	0.131
509.00	0.131
509.45	0.131
509.91	0.131
510.36	0.131
510.82	0.131
511.27	0.129
511.73	0.129
512.19	0.129
512.64	0.129
513.10	0.130
513.55	0.130
514.01	0.133
514.46	0.130
514.92	0.130
515.37	0.132
515.83	0.128
516.28	0.131
516.73	0.130
517.19	0.129
517.64	0.129
518.10	0.130
518.55	0.131
519.01	0.130
519.46	0.129
519.92	0.130
520.37	0.129
520.83	0.128
521.28	0.129
521.74	0.128
522.19	0.129
522.65	0.129
523.10	0.129
523.55	0.130
524.01	0.128
524.46	0.127
524.92	0.128
525.37	0.132
525.83	0.128
526.28	0.128
526.73	0.128
527.19	0.128
527.64	0.129
528.10	0.128
528.55	0.131
529.01	0.130
529.46	0.129
529.91	0.128
530.37	0.129
530.82	0.128
531.28	0.129
531.73	0.129
532.18	0.131
532.64	0.130
533.09	0.130
533.54	0.129
534.00	0.131
534.45	0.133
534.91	0.131
535.36	0.129
535.81	0.128
536.27	0.130
536.72	0.130
537.17	0.130
537.63	0.131
538.08	0.134
538.54	0.131
538.99	0.132
539.44	0.130
539.90	0.133
540.35	0.132
540.80	0.130
541.26	0.131
541.71	0.134
542.16	0.134
542.62	0.136
543.07	0.135
543.52	0.134
543.98	0.132
544.43	0.134
544.88	0.132
545.34	0.136
545.79	0.137
546.24	0.134
546.69	0.134
547.15	0.137
547.60	0.137
548.05	0.137
548.51	0.136
548.96	0.139
549.41	0.137
549.86	0.139
550.32	0.139
550.77	0.139
551.22	0.138
551.68	0.138
552.13	0.141
552.58	0.139
553.03	0.143
553.49	0.141
553.94	0.140
554.39	0.142
554.84	0.142
555.30	0.143
555.75	0.142
556.20	0.143
556.65	0.145
557.11	0.146
557.56	0.147
558.01	0.150
558.46	0.146
558.92	0.146
559.37	0.149
559.82	0.149
560.27	0.148
560.72	0.150
561.18	0.148
561.63	0.152
562.08	0.150
562.53	0.150
562.99	0.151
563.44	0.152
563.89	0.153
564.34	0.154
564.79	0.156
565.25	0.156
565.70	0.157
566.15	0.156
566.60	0.157
567.05	0.157
567.50	0.158
567.96	0.159
568.41	0.159
568.86	0.160
569.31	0.162
569.76	0.161
570.21	0.163
570.67	0.162
571.12	0.162
571.57	0.165
572.02	0.165
572.47	0.166
572.92	0.166
573.37	0.168
573.83	0.168
574.28	0.169
574.73	0.169
575.18	0.170
575.63	0.169
576.08	0.171
576.53	0.173
576.98	0.174
577.44	0.175
577.89	0.173
578.34	0.177
578.79	0.177
579.24	0.177
579.69	0.178
580.14	0.180
580.59	0.182
581.04	0.183
581.49	0.184
581.95	0.186
582.40	0.188
582.85	0.190
583.30	0.191
583.75	0.191
584.20	0.194
584.65	0.196
585.10	0.197
585.55	0.198
586.00	0.196
586.45	0.199
586.90	0.202
587.35	0.202
587.80	0.204
588.25	0.207
588.71	0.209
589.16	0.210
589.61	0.210
590.06	0.213
590.51	0.216
590.96	0.218
591.41	0.219
591.86	0.221
592.31	0.221
592.76	0.224
593.21	0.226
593.66	0.229
594.11	0.228
594.56	0.231
595.01	0.233
595.46	0.235
595.91	0.238
596.36	0.240
596.81	0.242
597.26	0.243
597.71	0.244
598.16	0.248
598.61	0.251
599.06	0.251
599.51	0.253
599.96	0.254
600.41	0.255
600.86	0.260
601.31	0.258
601.76	0.265
602.21	0.266
602.65	0.269
603.10	0.269
603.55	0.270
604.00	0.276
604.45	0.273
604.90	0.278
605.35	0.278
605.80	0.278
606.25	0.279
606.70	0.282
607.15	0.286
607.60	0.286
608.05	0.287
608.50	0.289
608.95	0.292
609.39	0.293
609.84	0.293
610.29	0.296
610.74	0.297
611.19	0.296
611.64	0.297
612.09	0.298
612.54	0.300
612.99	0.303
613.44	0.302
613.88	0.304
614.33	0.303
614.78	0.306
615.23	0.306
615.68	0.306
616.13	0.308
616.58	0.306
617.03	0.309
617.47	0.310
617.92	0.311
618.37	0.311
618.82	0.311
619.27	0.313
619.72	0.313
620.17	0.312
620.61	0.315
621.06	0.314
621.51	0.313
621.96	0.315
622.41	0.316
622.86	0.314
623.30	0.318
623.75	0.318
624.20	0.319
624.65	0.319
625.10	0.320
625.54	0.318
625.99	0.319
626.44	0.324
626.89	0.325
627.34	0.324
627.78	0.325
628.23	0.327
628.68	0.328
629.13	0.328
629.58	0.330
630.02	0.332
630.47	0.335
630.92	0.336
631.37	0.337
631.81	0.341
632.26	0.340
632.71	0.342
633.16	0.343
633.61	0.346
634.05	0.348
634.50	0.349
634.95	0.353
635.40	0.354
635.84	0.355
636.29	0.356
636.74	0.361
637.18	0.362
637.63	0.366
638.08	0.368
638.53	0.370
638.97	0.371
639.42	0.376
639.87	0.378
640.32	0.380
640.76	0.384
641.21	0.386
641.66	0.388
642.10	0.391
642.55	0.395
643.00	0.399
643.44	0.401
643.89	0.402
644.34	0.408
644.79	0.411
645.23	0.414
645.68	0.417
646.13	0.422
646.57	0.422
647.02	0.426
647.47	0.430
647.91	0.434
648.36	0.435
648.81	0.439
649.25	0.442
649.70	0.444
650.15	0.450
650.59	0.455
651.04	0.456
651.48	0.459
651.93	0.460
652.38	0.464
652.82	0.466
653.27	0.468
653.72	0.472
654.16	0.474
654.61	0.477
655.06	0.478
655.50	0.480
655.95	0.482
656.39	0.483
656.84	0.490
657.29	0.495
657.73	0.492
658.18	0.493
658.62	0.498
659.07	0.503
659.52	0.501
659.96	0.503
660.41	0.506
660.85	0.505
661.30	0.507
661.74	0.511
662.19	0.510
662.64	0.508
663.08	0.508
663.53	0.513
663.97	0.512
664.42	0.511
664.86	0.512
665.31	0.513
665.75	0.510
666.20	0.511
666.65	0.511
667.09	0.510
667.54	0.510
667.98	0.505
668.43	0.507
668.87	0.505
669.32	0.499
669.76	0.495
670.21	0.494
670.65	0.489
671.10	0.485
671.54	0.484
671.99	0.479
672.43	0.472
672.88	0.466
673.32	0.461
673.77	0.459
674.21	0.454
674.66	0.444
675.10	0.438
675.55	0.429
675.99	0.422
676.44	0.415
676.88	0.407
677.33	0.401
677.77	0.392
678.22	0.386
678.66	0.377
679.11	0.369
679.55	0.361
679.99	0.353
680.44	0.345
680.88	0.336
681.33	0.329
681.77	0.321
682.22	0.310
682.66	0.304
683.11	0.297
683.55	0.291
683.99	0.282
684.44	0.276
684.88	0.266
685.33	0.260
685.77	0.251
686.21	0.247
686.66	0.237
687.10	0.230
687.55	0.226
687.99	0.217
688.44	0.214
688.88	0.207
689.32	0.202
689.77	0.198
690.21	0.192
690.65	0.186
691.10	0.183
691.54	0.179
691.99	0.173
692.43	0.168
692.87	0.166
693.32	0.161
693.76	0.157
694.20	0.153
694.65	0.150
695.09	0.146
695.53	0.143
695.98	0.142
696.42	0.139
696.86	0.136
697.31	0.134
697.75	0.130
698.19	0.129
698.64	0.127
699.08	0.124
699.52	0.122
699.97	0.120
700.41	0.118
700.85	0.119
701.30	0.114
701.74	0.115
702.18	0.111
702.63	0.111
703.07	0.107
703.51	0.108
703.96	0.106
704.40	0.107
704.84	0.105
705.28	0.104
705.73	0.104
706.17	0.100
706.61	0.103
707.06	0.099
707.50	0.100
707.94	0.100
708.38	0.097
708.83	0.098
709.27	0.098
709.71	0.096
710.15	0.095
710.60	0.097
711.04	0.093
711.48	0.096
711.92	0.094
712.37	0.092
712.81	0.092
713.25	0.094
713.69	0.091
714.13	0.091
714.58	0.092
715.02	0.089
715.46	0.090
715.90	0.090
716.35	0.091
716.79	0.092
717.23	0.093
717.67	0.090
718.11	0.088
718.56	0.090
719.00	0.090
719.44	0.089
719.88	0.090
720.32	0.090
720.76	0.087
721.21	0.090
721.65	0.090
722.09	0.088
722.53	0.088
722.97	0.088
723.41	0.088
723.86	0.088
724.30	0.088
724.74	0.088
725.18	0.088
725.62	0.088
726.06	0.090
726.50	0.090
726.95	0.090
727.39	0.090
727.83	0.089
728.27	0.090
728.71	0.088
729.15	0.089
729.59	0.086
730.03	0.088
730.48	0.089
730.92	0.091
731.36	0.088
731.80	0.089
732.24	0.091
732.68	0.090
733.12	0.088
733.56	0.090
734.00	0.092
734.44	0.090
734.89	0.091
735.33	0.088
735.77	0.091
736.21	0.090
736.65	0.090
737.09	0.094
737.53	0.092
737.97	0.091
738.41	0.089
738.85	0.093
739.29	0.090
739.73	0.090
740.17	0.090
740.61	0.090
741.05	0.093
741.49	0.091
741.93	0.091
742.37	0.092
742.81	0.091
743.26	0.090
743.70	0.092
744.14	0.090
744.58	0.090
745.02	0.090
745.46	0.091
745.90	0.090
746.34	0.091
746.78	0.092
747.22	0.092
747.66	0.089
748.10	0.091
748.54	0.091
748.98	0.090
749.42	0.090
749.86	0.090
750.29	0.090
750.73	0.093
751.17	0.091
751.61	0.093
752.05	0.089
752.49	0.090
752.93	0.091
753.37	0.092
753.81	0.091
754.25	0.089
754.69	0.090
755.13	0.093
755.57	0.088
756.01	0.089
756.45	0.088
756.89	0.088
757.33	0.089
757.77	0.091
758.21	0.088
758.64	0.088
759.08	0.090
759.52	0.089
759.96	0.090
760.40	0.087
760.84	0.086
761.28	0.087
761.72	0.090
762.16	0.088
762.60	0.089
763.03	0.090
763.47	0.089
763.91	0.088
764.35	0.087
764.79	0.090
765.23	0.088
765.67	0.088
766.11	0.089
766.54	0.087
766.98	0.086
767.42	0.087
767.86	0.089
768.30	0.087
768.74	0.085
769.17	0.088
769.61	0.087
770.05	0.087
770.49	0.091
770.93	0.087
771.37	0.089
771.80	0.085
772.24	0.084
772.68	0.088
773.12	0.086
773.56	0.087
774.00	0.090
774.43	0.087
774.87	0.084
775.31	0.090
775.75	0.087
776.19	0.087
776.62	0.086
777.06	0.086
777.50	0.087
777.94	0.085
778.37	0.088
778.81	0.087
779.25	0.084
779.69	0.085
780.13	0.088
780.56	0.085
781.00	0.086
781.44	0.088
781.88	0.088
782.31	0.086
782.75	0.083
783.19	0.085
783.63	0.086
784.06	0.087
784.50	0.087
784.94	0.090
785.37	0.085
785.81	0.087
786.25	0.086
786.69	0.085
787.12	0.088
787.56	0.086
788.00	0.085
788.43	0.086
788.87	0.086
789.31	0.087
789.75	0.087
790.18	0.085
790.62	0.086
791.06	0.089
791.49	0.087
791.93	0.082
792.37	0.082
792.80	0.088
793.24	0.085
793.68	0.088
794.11	0.087
794.55	0.088
794.99	0.087
795.42	0.085
795.86	0.089
796.30	0.086
796.73	0.084
797.17	0.083
797.61	0.084
798.04	0.084
798.48	0.085
798.91	0.085
799.35	0.089
799.79	0.086
800.22	0.087
800.66	0.086
801.10	0.091
801.53	0.091
801.97	0.087
802.40	0.085
802.84	0.082
803.28	0.084
803.71	0.082
804.15	0.086
804.58	0.085
805.02	0.086
805.46	0.086
805.89	0.087
806.33	0.086
806.76	0.087
807.20	0.087
807.63	0.087
808.07	0.085
808.51	0.087
808.94	0.087
809.38	0.083
809.81	0.086
810.25	0.085
810.68	0.087
811.12	0.083
811.55	0.085
811.99	0.088
812.42	0.086
812.86	0.084
813.29	0.086
813.73	0.087
814.17	0.080
814.60	0.086
815.04	0.085
815.47	0.082
815.91	0.080
816.34	0.086
816.78	0.085
