SpectraSuite Data File
++++++++++++++++++++++++++++++++++++
Date: Wed May 04 13:28:49 CEST 2016
User: spectrasuite
Dark Spectrum Present: Yes
Reference Spectrum Present: Yes
Number of Sampled Component Spectra: 1
Spectrometers: HR+C0708
Integration Time (usec): 1000 (HR+C0708)
Spectra Averaged: 10 (HR+C0708)
Boxcar Smoothing: 0 (HR+C0708)
Correct for Electrical Dark: No (HR+C0708)
Strobe/Lamp Enabled: No (HR+C0708)
Correct for Detector Non-linearity: No (HR+C0708)
Correct for Stray Light: No (HR+C0708)
Number of Pixels in Processed Spectrum: 2048
>>>>>Begin Processed Spectral Data<<<<<
188.76	0.227
189.23	-0.000
189.70	0.274
190.17	0.428
190.64	-0.000
191.12	-0.000
191.59	-0.000
192.06	1.284
192.53	-0.000
193.01	-0.000
193.48	0.267
193.95	-0.000
194.42	1.104
194.90	-0.000
195.37	1.097
195.84	-0.000
196.31	0.401
196.78	1.519
197.26	-0.000
197.73	-0.000
198.20	0.376
198.67	-0.000
199.14	-0.000
199.62	-0.000
200.09	-0.000
200.56	0.550
201.03	0.624
201.50	0.480
201.97	0.547
202.45	0.545
202.92	0.702
203.39	0.554
203.86	0.538
204.33	0.741
204.80	0.724
205.28	0.599
205.75	0.562
206.22	0.884
206.69	0.598
207.16	0.420
207.63	1.034
208.11	0.659
208.58	0.520
209.05	0.649
209.52	1.589
209.99	0.519
210.46	0.260
210.93	0.810
211.41	0.534
211.88	0.623
212.35	0.526
212.82	0.703
213.29	0.642
213.76	0.411
214.23	0.655
214.70	0.848
215.18	0.579
215.65	0.502
216.12	0.778
216.59	0.675
217.06	0.406
217.53	0.530
218.00	0.580
218.47	0.535
218.94	0.505
219.41	0.715
219.89	0.419
220.36	0.412
220.83	0.774
221.30	1.016
221.77	0.902
222.24	0.564
222.71	0.797
223.18	0.623
223.65	0.553
224.12	0.548
224.59	0.734
225.06	0.938
225.54	0.669
226.01	0.919
226.48	1.170
226.95	1.134
227.42	0.932
227.89	1.310
228.36	1.009
228.83	1.126
229.30	1.097
229.77	1.513
230.24	1.219
230.71	1.215
231.18	1.361
231.65	1.464
232.12	1.445
232.59	1.530
233.06	1.570
233.53	1.668
234.00	1.547
234.47	1.807
234.94	2.549
235.41	1.889
235.88	1.787
236.35	2.036
236.82	1.963
237.29	1.749
237.76	1.892
238.23	2.435
238.70	2.305
239.17	2.130
239.64	2.265
240.11	2.684
240.58	2.079
241.05	2.295
241.52	2.363
241.99	2.161
242.46	2.199
242.93	2.131
243.40	2.613
243.87	2.218
244.34	2.247
244.81	2.280
245.28	2.519
245.75	2.380
246.22	2.342
246.69	2.869
247.16	2.234
247.63	2.399
248.10	2.347
248.57	3.687
249.04	2.434
249.51	2.270
249.98	2.966
250.45	2.586
250.92	2.445
251.39	2.355
251.85	2.409
252.32	2.276
252.79	2.138
253.26	2.073
253.73	2.011
254.20	1.918
254.67	1.794
255.14	1.832
255.61	1.757
256.08	1.685
256.55	1.630
257.02	1.605
257.49	1.537
257.95	1.502
258.42	1.468
258.89	1.448
259.36	1.394
259.83	1.362
260.30	1.357
260.77	1.327
261.24	1.286
261.71	1.277
262.17	1.266
262.64	1.239
263.11	1.214
263.58	1.207
264.05	1.186
264.52	1.165
264.99	1.154
265.46	1.144
265.92	1.128
266.39	1.107
266.86	1.103
267.33	1.092
267.80	1.082
268.27	1.071
268.74	1.060
269.20	1.046
269.67	1.034
270.14	1.019
270.61	1.020
271.08	1.006
271.55	0.998
272.01	0.992
272.48	0.980
272.95	0.972
273.42	0.966
273.89	0.963
274.36	0.956
274.82	0.943
275.29	0.942
275.76	0.937
276.23	0.932
276.70	0.922
277.16	0.926
277.63	0.919
278.10	0.907
278.57	0.907
279.04	0.902
279.50	0.900
279.97	0.898
280.44	0.897
280.91	0.896
281.38	0.893
281.84	0.887
282.31	0.884
282.78	0.889
283.25	0.882
283.72	0.878
284.18	0.879
284.65	0.880
285.12	0.882
285.59	0.882
286.05	0.881
286.52	0.877
286.99	0.881
287.46	0.887
287.92	0.877
288.39	0.875
288.86	0.877
289.33	0.876
289.79	0.873
290.26	0.872
290.73	0.873
291.20	0.871
291.66	0.866
292.13	0.868
292.60	0.864
293.07	0.855
293.53	0.852
294.00	0.848
294.47	0.845
294.93	0.839
295.40	0.825
295.87	0.822
296.34	0.810
296.80	0.805
297.27	0.791
297.74	0.789
298.20	0.774
298.67	0.767
299.14	0.761
299.60	0.748
300.07	0.739
300.54	0.729
301.01	0.723
301.47	0.715
301.94	0.705
302.41	0.692
302.87	0.689
303.34	0.676
303.81	0.670
304.27	0.665
304.74	0.649
305.21	0.641
305.67	0.638
306.14	0.630
306.61	0.625
307.07	0.615
307.54	0.613
308.01	0.602
308.47	0.596
308.94	0.590
309.40	0.585
309.87	0.585
310.34	0.576
310.80	0.572
311.27	0.567
311.74	0.565
312.20	0.558
312.67	0.556
313.13	0.552
313.60	0.544
314.07	0.542
314.53	0.543
315.00	0.534
315.47	0.536
315.93	0.535
316.40	0.529
316.86	0.527
317.33	0.523
317.80	0.523
318.26	0.517
318.73	0.516
319.19	0.518
319.66	0.512
320.13	0.510
320.59	0.506
321.06	0.508
321.52	0.502
321.99	0.501
322.45	0.499
322.92	0.497
323.39	0.491
323.85	0.489
324.32	0.490
324.78	0.484
325.25	0.477
325.71	0.480
326.18	0.475
326.64	0.473
327.11	0.468
327.58	0.468
328.04	0.466
328.51	0.462
328.97	0.462
329.44	0.462
329.90	0.457
330.37	0.451
330.83	0.449
331.30	0.451
331.76	0.447
332.23	0.446
332.69	0.443
333.16	0.439
333.62	0.432
334.09	0.435
334.56	0.431
335.02	0.430
335.49	0.424
335.95	0.421
336.42	0.417
336.88	0.415
337.35	0.412
337.81	0.413
338.28	0.415
338.74	0.411
339.20	0.411
339.67	0.416
340.13	0.414
340.60	0.407
341.06	0.406
341.53	0.399
341.99	0.401
342.46	0.396
342.92	0.394
343.39	0.395
343.85	0.389
344.32	0.391
344.78	0.392
345.25	0.392
345.71	0.390
346.17	0.391
346.64	0.391
347.10	0.384
347.57	0.380
348.03	0.372
348.50	0.372
348.96	0.370
349.43	0.368
349.89	0.368
350.35	0.360
350.82	0.355
351.28	0.358
351.75	0.351
352.21	0.350
352.67	0.343
353.14	0.339
353.60	0.330
354.07	0.332
354.53	0.323
355.00	0.319
355.46	0.316
355.92	0.307
356.39	0.305
356.85	0.294
357.31	0.288
357.78	0.283
358.24	0.279
358.71	0.269
359.17	0.264
359.63	0.253
360.10	0.247
360.56	0.234
361.03	0.228
361.49	0.223
361.95	0.213
362.42	0.208
362.88	0.201
363.34	0.195
363.81	0.185
364.27	0.178
364.73	0.172
365.20	0.165
365.66	0.162
366.12	0.157
366.59	0.155
367.05	0.152
367.51	0.148
367.98	0.147
368.44	0.144
368.90	0.140
369.37	0.138
369.83	0.139
370.29	0.134
370.76	0.133
371.22	0.134
371.68	0.132
372.15	0.131
372.61	0.128
373.07	0.131
373.54	0.126
374.00	0.128
374.46	0.128
374.92	0.126
375.39	0.127
375.85	0.126
376.31	0.129
376.78	0.125
377.24	0.124
377.70	0.126
378.16	0.124
378.63	0.125
379.09	0.125
379.55	0.123
380.01	0.124
380.48	0.123
380.94	0.121
381.40	0.121
381.87	0.123
382.33	0.119
382.79	0.118
383.25	0.123
383.72	0.122
384.18	0.119
384.64	0.121
385.10	0.118
385.56	0.118
386.03	0.120
386.49	0.117
386.95	0.117
387.41	0.117
387.88	0.115
388.34	0.113
388.80	0.118
389.26	0.116
389.72	0.116
390.19	0.114
390.65	0.112
391.11	0.114
391.57	0.116
392.04	0.116
392.50	0.114
392.96	0.113
393.42	0.112
393.88	0.113
394.34	0.112
394.81	0.113
395.27	0.113
395.73	0.109
396.19	0.111
396.65	0.111
397.12	0.109
397.58	0.110
398.04	0.109
398.50	0.109
398.96	0.107
399.42	0.108
399.89	0.110
400.35	0.109
400.81	0.107
401.27	0.109
401.73	0.105
402.19	0.108
402.65	0.105
403.12	0.107
403.58	0.104
404.04	0.104
404.50	0.101
404.96	0.102
405.42	0.105
405.88	0.105
406.34	0.105
406.81	0.103
407.27	0.102
407.73	0.099
408.19	0.101
408.65	0.100
409.11	0.101
409.57	0.098
410.03	0.102
410.49	0.100
410.96	0.100
411.42	0.101
411.88	0.098
412.34	0.096
412.80	0.099
413.26	0.099
413.72	0.097
414.18	0.097
414.64	0.096
415.10	0.096
415.56	0.098
416.02	0.095
416.48	0.097
416.95	0.096
417.41	0.095
417.87	0.095
418.33	0.095
418.79	0.094
419.25	0.096
419.71	0.095
420.17	0.095
420.63	0.092
421.09	0.091
421.55	0.092
422.01	0.092
422.47	0.093
422.93	0.093
423.39	0.093
423.85	0.091
424.31	0.091
424.77	0.093
425.23	0.091
425.69	0.096
426.15	0.094
426.61	0.093
427.07	0.090
427.53	0.093
427.99	0.090
428.45	0.093
428.91	0.092
429.37	0.091
429.83	0.090
430.29	0.091
430.75	0.091
431.21	0.092
431.67	0.094
432.13	0.092
432.59	0.090
433.05	0.095
433.51	0.088
433.97	0.088
434.43	0.092
434.89	0.093
435.35	0.090
435.81	0.091
436.27	0.089
436.73	0.087
437.19	0.092
437.65	0.088
438.11	0.090
438.57	0.090
439.03	0.088
439.48	0.088
439.94	0.090
440.40	0.088
440.86	0.089
441.32	0.090
441.78	0.085
442.24	0.088
442.70	0.089
443.16	0.087
443.62	0.089
444.08	0.088
444.54	0.088
444.99	0.089
445.45	0.085
445.91	0.086
446.37	0.088
446.83	0.089
447.29	0.089
447.75	0.087
448.21	0.090
448.67	0.087
449.12	0.087
449.58	0.088
450.04	0.088
450.50	0.088
450.96	0.085
451.42	0.087
451.88	0.089
452.34	0.087
452.79	0.088
453.25	0.089
453.71	0.087
454.17	0.089
454.63	0.085
455.09	0.088
455.55	0.087
456.00	0.085
456.46	0.086
456.92	0.089
457.38	0.088
457.84	0.089
458.30	0.089
458.75	0.087
459.21	0.088
459.67	0.087
460.13	0.088
460.59	0.086
461.04	0.086
461.50	0.087
461.96	0.087
462.42	0.089
462.88	0.085
463.33	0.085
463.79	0.087
464.25	0.085
464.71	0.087
465.17	0.086
465.62	0.084
466.08	0.088
466.54	0.087
467.00	0.086
467.46	0.087
467.91	0.087
468.37	0.085
468.83	0.085
469.29	0.087
469.74	0.084
470.20	0.086
470.66	0.085
471.12	0.085
471.57	0.086
472.03	0.086
472.49	0.087
472.95	0.087
473.40	0.086
473.86	0.088
474.32	0.084
474.78	0.087
475.23	0.086
475.69	0.086
476.15	0.090
476.60	0.088
477.06	0.087
477.52	0.086
477.98	0.088
478.43	0.088
478.89	0.087
479.35	0.091
479.80	0.086
480.26	0.087
480.72	0.088
481.18	0.087
481.63	0.089
482.09	0.089
482.55	0.085
483.00	0.085
483.46	0.086
483.92	0.086
484.37	0.087
484.83	0.084
485.29	0.088
485.74	0.087
486.20	0.086
486.66	0.088
487.11	0.087
487.57	0.086
488.03	0.084
488.48	0.089
488.94	0.085
489.40	0.085
489.85	0.084
490.31	0.087
490.77	0.087
491.22	0.088
491.68	0.085
492.13	0.086
492.59	0.089
493.05	0.086
493.50	0.086
493.96	0.087
494.42	0.088
494.87	0.089
495.33	0.086
495.78	0.085
496.24	0.086
496.70	0.088
497.15	0.088
497.61	0.088
498.06	0.086
498.52	0.085
498.98	0.086
499.43	0.088
499.89	0.087
500.34	0.086
500.80	0.086
501.25	0.084
501.71	0.084
502.17	0.084
502.62	0.085
503.08	0.084
503.53	0.085
503.99	0.084
504.44	0.088
504.90	0.084
505.36	0.086
505.81	0.087
506.27	0.085
506.72	0.085
507.18	0.085
507.63	0.084
508.09	0.087
508.54	0.083
509.00	0.084
509.45	0.084
509.91	0.084
510.36	0.084
510.82	0.086
511.27	0.081
511.73	0.084
512.19	0.083
512.64	0.084
513.10	0.084
513.55	0.085
514.01	0.084
514.46	0.085
514.92	0.083
515.37	0.084
515.83	0.083
516.28	0.083
516.73	0.084
517.19	0.084
517.64	0.084
518.10	0.083
518.55	0.084
519.01	0.084
519.46	0.082
519.92	0.083
520.37	0.082
520.83	0.083
521.28	0.081
521.74	0.083
522.19	0.084
522.65	0.083
523.10	0.083
523.55	0.084
524.01	0.082
524.46	0.084
524.92	0.082
525.37	0.084
525.83	0.084
526.28	0.084
526.73	0.083
527.19	0.083
527.64	0.083
528.10	0.084
528.55	0.084
529.01	0.085
529.46	0.085
529.91	0.082
530.37	0.085
530.82	0.082
531.28	0.084
531.73	0.084
532.18	0.086
532.64	0.086
533.09	0.086
533.54	0.084
534.00	0.086
534.45	0.086
534.91	0.083
535.36	0.084
535.81	0.084
536.27	0.083
536.72	0.085
537.17	0.085
537.63	0.086
538.08	0.088
538.54	0.087
538.99	0.090
539.44	0.084
539.90	0.088
540.35	0.087
540.80	0.088
541.26	0.089
541.71	0.092
542.16	0.090
542.62	0.091
543.07	0.090
543.52	0.090
543.98	0.090
544.43	0.091
544.88	0.090
545.34	0.092
545.79	0.093
546.24	0.091
546.69	0.092
547.15	0.093
547.60	0.094
548.05	0.093
548.51	0.095
548.96	0.096
549.41	0.095
549.86	0.094
550.32	0.097
550.77	0.095
551.22	0.095
551.68	0.097
552.13	0.099
552.58	0.097
553.03	0.099
553.49	0.099
553.94	0.096
554.39	0.098
554.84	0.100
555.30	0.100
555.75	0.101
556.20	0.100
556.65	0.103
557.11	0.104
557.56	0.103
558.01	0.106
558.46	0.103
558.92	0.107
559.37	0.107
559.82	0.109
560.27	0.107
560.72	0.109
561.18	0.108
561.63	0.108
562.08	0.110
562.53	0.108
562.99	0.112
563.44	0.112
563.89	0.112
564.34	0.115
564.79	0.113
565.25	0.116
565.70	0.115
566.15	0.116
566.60	0.117
567.05	0.117
567.50	0.121
567.96	0.120
568.41	0.123
568.86	0.121
569.31	0.122
569.76	0.121
570.21	0.124
570.67	0.121
571.12	0.125
571.57	0.125
572.02	0.127
572.47	0.128
572.92	0.128
573.37	0.131
573.83	0.130
574.28	0.133
574.73	0.133
575.18	0.132
575.63	0.132
576.08	0.135
576.53	0.136
576.98	0.136
577.44	0.140
577.89	0.137
578.34	0.141
578.79	0.139
579.24	0.140
579.69	0.144
580.14	0.144
580.59	0.146
581.04	0.148
581.49	0.147
581.95	0.149
582.40	0.151
582.85	0.154
583.30	0.155
583.75	0.157
584.20	0.157
584.65	0.158
585.10	0.161
585.55	0.163
586.00	0.164
586.45	0.166
586.90	0.167
587.35	0.170
587.80	0.170
588.25	0.173
588.71	0.175
589.16	0.178
589.61	0.178
590.06	0.181
590.51	0.182
590.96	0.185
591.41	0.186
591.86	0.189
592.31	0.191
592.76	0.193
593.21	0.194
593.66	0.196
594.11	0.199
594.56	0.203
595.01	0.203
595.46	0.205
595.91	0.208
596.36	0.209
596.81	0.214
597.26	0.216
597.71	0.217
598.16	0.218
598.61	0.222
599.06	0.223
599.51	0.223
599.96	0.228
600.41	0.231
600.86	0.232
601.31	0.234
601.76	0.238
602.21	0.239
602.65	0.241
603.10	0.244
603.55	0.246
604.00	0.250
604.45	0.250
604.90	0.251
605.35	0.257
605.80	0.256
606.25	0.257
606.70	0.261
607.15	0.262
607.60	0.262
608.05	0.269
608.50	0.268
608.95	0.269
609.39	0.272
609.84	0.272
610.29	0.272
610.74	0.274
611.19	0.277
611.64	0.279
612.09	0.278
612.54	0.280
612.99	0.281
613.44	0.280
613.88	0.281
614.33	0.281
614.78	0.284
615.23	0.286
615.68	0.285
616.13	0.286
616.58	0.290
617.03	0.289
617.47	0.289
617.92	0.292
618.37	0.294
618.82	0.292
619.27	0.292
619.72	0.292
620.17	0.292
620.61	0.294
621.06	0.294
621.51	0.294
621.96	0.295
622.41	0.297
622.86	0.296
623.30	0.298
623.75	0.298
624.20	0.299
624.65	0.299
625.10	0.300
625.54	0.299
625.99	0.302
626.44	0.303
626.89	0.303
627.34	0.305
627.78	0.308
628.23	0.308
628.68	0.307
629.13	0.309
629.58	0.312
630.02	0.313
630.47	0.315
630.92	0.317
631.37	0.319
631.81	0.320
632.26	0.321
632.71	0.323
633.16	0.326
633.61	0.328
634.05	0.329
634.50	0.330
634.95	0.334
635.40	0.339
635.84	0.342
636.29	0.341
636.74	0.346
637.18	0.347
637.63	0.350
638.08	0.353
638.53	0.356
638.97	0.357
639.42	0.362
639.87	0.367
640.32	0.369
640.76	0.373
641.21	0.376
641.66	0.376
642.10	0.381
642.55	0.385
643.00	0.387
643.44	0.389
643.89	0.396
644.34	0.398
644.79	0.406
645.23	0.405
645.68	0.411
646.13	0.413
646.57	0.420
647.02	0.421
647.47	0.424
647.91	0.428
648.36	0.432
648.81	0.433
649.25	0.438
649.70	0.440
650.15	0.447
650.59	0.449
651.04	0.453
651.48	0.456
651.93	0.463
652.38	0.466
652.82	0.469
653.27	0.468
653.72	0.475
654.16	0.477
654.61	0.480
655.06	0.482
655.50	0.486
655.95	0.488
656.39	0.489
656.84	0.493
657.29	0.497
657.73	0.499
658.18	0.502
658.62	0.504
659.07	0.508
659.52	0.509
659.96	0.514
660.41	0.514
660.85	0.517
661.30	0.518
661.74	0.521
662.19	0.524
662.64	0.525
663.08	0.523
663.53	0.524
663.97	0.525
664.42	0.525
664.86	0.525
665.31	0.528
665.75	0.522
666.20	0.525
666.65	0.525
667.09	0.525
667.54	0.521
667.98	0.525
668.43	0.520
668.87	0.515
669.32	0.516
669.76	0.511
670.21	0.508
670.65	0.504
671.10	0.500
671.54	0.498
671.99	0.490
672.43	0.482
672.88	0.479
673.32	0.472
673.77	0.466
674.21	0.460
674.66	0.452
675.10	0.448
675.55	0.438
675.99	0.429
676.44	0.419
676.88	0.413
677.33	0.405
677.77	0.395
678.22	0.385
678.66	0.377
679.11	0.369
679.55	0.361
679.99	0.347
680.44	0.339
680.88	0.331
681.33	0.322
681.77	0.312
682.22	0.301
682.66	0.294
683.11	0.284
683.55	0.276
683.99	0.270
684.44	0.258
684.88	0.250
685.33	0.242
685.77	0.233
686.21	0.226
686.66	0.216
687.10	0.209
687.55	0.202
687.99	0.195
688.44	0.189
688.88	0.181
689.32	0.175
689.77	0.171
690.21	0.165
690.65	0.158
691.10	0.153
691.54	0.148
691.99	0.144
692.43	0.139
692.87	0.136
693.32	0.129
693.76	0.127
694.20	0.123
694.65	0.119
695.09	0.114
695.53	0.111
695.98	0.109
696.42	0.107
696.86	0.102
697.31	0.099
697.75	0.097
698.19	0.095
698.64	0.091
699.08	0.088
699.52	0.086
699.97	0.084
700.41	0.080
700.85	0.083
701.30	0.079
701.74	0.078
702.18	0.072
702.63	0.073
703.07	0.071
703.51	0.071
703.96	0.069
704.40	0.068
704.84	0.067
705.28	0.066
705.73	0.066
706.17	0.063
706.61	0.064
707.06	0.062
707.50	0.061
707.94	0.060
708.38	0.058
708.83	0.059
709.27	0.059
709.71	0.056
710.15	0.055
710.60	0.056
711.04	0.054
711.48	0.054
711.92	0.054
712.37	0.053
712.81	0.053
713.25	0.054
713.69	0.053
714.13	0.053
714.58	0.052
715.02	0.051
715.46	0.050
715.90	0.051
716.35	0.049
716.79	0.052
717.23	0.053
717.67	0.050
718.11	0.050
718.56	0.049
719.00	0.050
719.44	0.049
719.88	0.050
720.32	0.051
720.76	0.047
721.21	0.050
721.65	0.051
722.09	0.049
722.53	0.049
722.97	0.050
723.41	0.049
723.86	0.047
724.30	0.048
724.74	0.052
725.18	0.046
725.62	0.048
726.06	0.050
726.50	0.050
726.95	0.049
727.39	0.051
727.83	0.049
728.27	0.049
728.71	0.050
729.15	0.049
729.59	0.047
730.03	0.049
730.48	0.051
730.92	0.051
731.36	0.049
731.80	0.050
732.24	0.052
732.68	0.050
733.12	0.048
733.56	0.053
734.00	0.052
734.44	0.049
734.89	0.051
735.33	0.050
735.77	0.053
736.21	0.051
736.65	0.051
737.09	0.050
737.53	0.052
737.97	0.052
738.41	0.051
738.85	0.051
739.29	0.052
739.73	0.052
740.17	0.052
740.61	0.050
741.05	0.055
741.49	0.050
741.93	0.051
742.37	0.051
742.81	0.053
743.26	0.052
743.70	0.051
744.14	0.050
744.58	0.055
745.02	0.051
745.46	0.052
745.90	0.049
746.34	0.049
746.78	0.053
747.22	0.050
747.66	0.050
748.10	0.049
748.54	0.051
748.98	0.051
749.42	0.052
749.86	0.051
750.29	0.052
750.73	0.051
751.17	0.051
751.61	0.052
752.05	0.051
752.49	0.048
752.93	0.048
753.37	0.053
753.81	0.052
754.25	0.052
754.69	0.052
755.13	0.051
755.57	0.047
756.01	0.050
756.45	0.051
756.89	0.050
757.33	0.049
757.77	0.050
758.21	0.052
758.64	0.048
759.08	0.050
759.52	0.048
759.96	0.052
760.40	0.049
760.84	0.049
761.28	0.049
761.72	0.049
762.16	0.048
762.60	0.049
763.03	0.050
763.47	0.050
763.91	0.050
764.35	0.049
764.79	0.050
765.23	0.048
765.67	0.048
766.11	0.052
766.54	0.050
766.98	0.048
767.42	0.048
767.86	0.051
768.30	0.049
768.74	0.048
769.17	0.049
769.61	0.049
770.05	0.049
770.49	0.050
770.93	0.049
771.37	0.052
771.80	0.047
772.24	0.047
772.68	0.050
773.12	0.049
773.56	0.049
774.00	0.050
774.43	0.049
774.87	0.047
775.31	0.050
775.75	0.048
776.19	0.046
776.62	0.050
777.06	0.049
777.50	0.050
777.94	0.046
778.37	0.049
778.81	0.050
779.25	0.049
779.69	0.048
780.13	0.048
780.56	0.045
781.00	0.047
781.44	0.048
781.88	0.049
782.31	0.046
782.75	0.044
783.19	0.048
783.63	0.047
784.06	0.048
784.50	0.049
784.94	0.049
785.37	0.045
785.81	0.048
786.25	0.045
786.69	0.047
787.12	0.048
787.56	0.048
788.00	0.048
788.43	0.048
788.87	0.048
789.31	0.048
789.75	0.047
790.18	0.050
790.62	0.044
791.06	0.044
791.49	0.051
791.93	0.047
792.37	0.045
792.80	0.052
793.24	0.046
793.68	0.047
794.11	0.048
794.55	0.047
794.99	0.049
795.42	0.049
795.86	0.050
796.30	0.047
796.73	0.046
797.17	0.045
797.61	0.047
798.04	0.051
798.48	0.047
798.91	0.048
799.35	0.046
799.79	0.046
800.22	0.050
800.66	0.046
801.10	0.048
801.53	0.054
801.97	0.047
802.40	0.043
802.84	0.044
803.28	0.044
803.71	0.044
804.15	0.048
804.58	0.050
805.02	0.049
805.46	0.044
805.89	0.048
806.33	0.050
806.76	0.048
807.20	0.046
807.63	0.048
808.07	0.049
808.51	0.046
808.94	0.050
809.38	0.047
809.81	0.050
810.25	0.047
810.68	0.047
811.12	0.047
811.55	0.045
811.99	0.048
812.42	0.046
812.86	0.050
813.29	0.048
813.73	0.047
814.17	0.042
814.60	0.046
815.04	0.042
815.47	0.044
815.91	0.043
816.34	0.047
816.78	0.048
817.21	0.050
