SpectraSuite Data File
++++++++++++++++++++++++++++++++++++
Date: Wed May 04 17:06:30 CEST 2016
User: spectrasuite
Dark Spectrum Present: Yes
Reference Spectrum Present: Yes
Number of Sampled Component Spectra: 1
Spectrometers: HR+C0708
Integration Time (usec): 1000 (HR+C0708)
Spectra Averaged: 10 (HR+C0708)
Boxcar Smoothing: 0 (HR+C0708)
Correct for Electrical Dark: No (HR+C0708)
Strobe/Lamp Enabled: No (HR+C0708)
Correct for Detector Non-linearity: No (HR+C0708)
Correct for Stray Light: No (HR+C0708)
Number of Pixels in Processed Spectrum: 2048
>>>>>Begin Processed Spectral Data<<<<<
188.76	-0.000
189.23	-0.000
189.70	-0.000
190.17	-0.000
190.64	-0.000
191.12	-0.000
191.59	-0.000
192.06	-0.000
192.53	-0.000
193.01	-0.000
193.48	-0.000
193.95	-0.000
194.42	-0.000
194.90	-0.000
195.37	-0.000
195.84	-0.000
196.31	-0.000
196.78	-0.000
197.26	-0.000
197.73	-0.000
198.20	-0.000
198.67	-0.000
199.14	-0.000
199.62	-0.000
200.09	-0.000
200.56	-0.000
201.03	-0.000
201.50	-0.000
201.97	-0.000
202.45	-0.000
202.92	-0.000
203.39	-0.000
203.86	-0.000
204.33	-0.000
204.80	-0.000
205.28	-0.000
205.75	-0.000
206.22	-0.000
206.69	-0.000
207.16	-0.000
207.63	-0.000
208.11	-0.000
208.58	-0.000
209.05	-0.000
209.52	-0.000
209.99	-0.000
210.46	-0.000
210.93	-0.000
211.41	-0.000
211.88	-0.000
212.35	-0.000
212.82	-0.000
213.29	-0.000
213.76	-0.000
214.23	-0.000
214.70	-0.000
215.18	-0.000
215.65	-0.000
216.12	-0.000
216.59	-0.000
217.06	1.299
217.53	-0.000
218.00	-0.000
218.47	-0.000
218.94	-0.000
219.41	-0.000
219.89	-0.000
220.36	-0.000
220.83	-0.000
221.30	-0.000
221.77	-0.000
222.24	-0.000
222.71	-0.000
223.18	-0.000
223.65	1.307
224.12	2.025
224.59	-0.000
225.06	-0.000
225.54	1.795
226.01	-0.000
226.48	-0.000
226.95	-0.000
227.42	-0.000
227.89	-0.000
228.36	-0.000
228.83	2.449
229.30	-0.000
229.77	-0.000
230.24	2.052
230.71	2.671
231.18	2.294
231.65	-0.000
232.12	-0.000
232.59	-0.000
233.06	-0.000
233.53	-0.000
234.00	2.222
234.47	3.319
234.94	-0.000
235.41	3.536
235.88	-0.000
236.35	-0.000
236.82	-0.000
237.29	-0.000
237.76	-0.000
238.23	-0.000
238.70	-0.000
239.17	-0.000
239.64	-0.000
240.11	-0.000
240.58	-0.000
241.05	-0.000
241.52	-0.000
241.99	2.817
242.46	2.858
242.93	2.763
243.40	-0.000
243.87	-0.000
244.34	2.882
244.81	-0.000
245.28	-0.000
245.75	3.492
246.22	-0.000
246.69	-0.000
247.16	-0.000
247.63	3.634
248.10	-0.000
248.57	-0.000
249.04	-0.000
249.51	2.736
249.98	-0.000
250.45	-0.000
250.92	4.703
251.39	2.566
251.85	2.691
252.32	2.289
252.79	2.155
253.26	1.964
253.73	1.841
254.20	1.710
254.67	1.595
255.14	1.534
255.61	1.481
256.08	1.402
256.55	1.337
257.02	1.294
257.49	1.230
257.95	1.187
258.42	1.147
258.89	1.115
259.36	1.085
259.83	1.049
260.30	1.028
260.77	0.993
261.24	0.972
261.71	0.953
262.17	0.936
262.64	0.915
263.11	0.896
263.58	0.879
264.05	0.864
264.52	0.850
264.99	0.836
265.46	0.819
265.92	0.805
266.39	0.796
266.86	0.780
267.33	0.771
267.80	0.759
268.27	0.749
268.74	0.744
269.20	0.729
269.67	0.719
270.14	0.712
270.61	0.705
271.08	0.695
271.55	0.684
272.01	0.680
272.48	0.672
272.95	0.665
273.42	0.654
273.89	0.653
274.36	0.646
274.82	0.637
275.29	0.632
275.76	0.630
276.23	0.625
276.70	0.616
277.16	0.618
277.63	0.613
278.10	0.605
278.57	0.606
279.04	0.599
279.50	0.595
279.97	0.589
280.44	0.588
280.91	0.586
281.38	0.579
281.84	0.578
282.31	0.580
282.78	0.575
283.25	0.569
283.72	0.569
284.18	0.570
284.65	0.573
285.12	0.567
285.59	0.567
286.05	0.563
286.52	0.565
286.99	0.563
287.46	0.562
287.92	0.561
288.39	0.561
288.86	0.559
289.33	0.560
289.79	0.561
290.26	0.554
290.73	0.557
291.20	0.550
291.66	0.550
292.13	0.543
292.60	0.542
293.07	0.536
293.53	0.534
294.00	0.529
294.47	0.522
294.93	0.521
295.40	0.512
295.87	0.509
296.34	0.497
296.80	0.496
297.27	0.485
297.74	0.481
298.20	0.473
298.67	0.462
299.14	0.458
299.60	0.450
300.07	0.444
300.54	0.437
301.01	0.433
301.47	0.424
301.94	0.418
302.41	0.408
302.87	0.399
303.34	0.397
303.81	0.388
304.27	0.385
304.74	0.377
305.21	0.367
305.67	0.365
306.14	0.359
306.61	0.353
307.07	0.349
307.54	0.346
308.01	0.339
308.47	0.332
308.94	0.327
309.40	0.326
309.87	0.324
310.34	0.323
310.80	0.316
311.27	0.311
311.74	0.313
312.20	0.307
312.67	0.306
313.13	0.299
313.60	0.298
314.07	0.294
314.53	0.293
315.00	0.290
315.47	0.289
315.93	0.289
316.40	0.283
316.86	0.282
317.33	0.280
317.80	0.279
318.26	0.278
318.73	0.277
319.19	0.276
319.66	0.273
320.13	0.272
320.59	0.272
321.06	0.271
321.52	0.268
321.99	0.269
322.45	0.265
322.92	0.265
323.39	0.262
323.85	0.265
324.32	0.262
324.78	0.257
325.25	0.253
325.71	0.257
326.18	0.254
326.64	0.251
327.11	0.249
327.58	0.246
328.04	0.250
328.51	0.245
328.97	0.246
329.44	0.242
329.90	0.240
330.37	0.238
330.83	0.237
331.30	0.236
331.76	0.232
332.23	0.232
332.69	0.230
333.16	0.232
333.62	0.226
334.09	0.223
334.56	0.225
335.02	0.221
335.49	0.218
335.95	0.216
336.42	0.216
336.88	0.213
337.35	0.210
337.81	0.212
338.28	0.211
338.74	0.211
339.20	0.209
339.67	0.208
340.13	0.208
340.60	0.206
341.06	0.203
341.53	0.200
341.99	0.199
342.46	0.198
342.92	0.196
343.39	0.194
343.85	0.190
344.32	0.192
344.78	0.188
345.25	0.196
345.71	0.193
346.17	0.195
346.64	0.197
347.10	0.191
347.57	0.189
348.03	0.185
348.50	0.184
348.96	0.184
349.43	0.186
349.89	0.185
350.35	0.185
350.82	0.183
351.28	0.187
351.75	0.185
352.21	0.188
352.67	0.180
353.14	0.180
353.60	0.177
354.07	0.178
354.53	0.176
355.00	0.176
355.46	0.173
355.92	0.170
356.39	0.173
356.85	0.169
357.31	0.167
357.78	0.166
358.24	0.166
358.71	0.168
359.17	0.166
359.63	0.162
360.10	0.162
360.56	0.164
361.03	0.165
361.49	0.163
361.95	0.163
362.42	0.165
362.88	0.165
363.34	0.165
363.81	0.161
364.27	0.163
364.73	0.163
365.20	0.162
365.66	0.161
366.12	0.161
366.59	0.161
367.05	0.163
367.51	0.159
367.98	0.161
368.44	0.159
368.90	0.157
369.37	0.159
369.83	0.158
370.29	0.156
370.76	0.157
371.22	0.155
371.68	0.155
372.15	0.154
372.61	0.152
373.07	0.153
373.54	0.152
374.00	0.151
374.46	0.154
374.92	0.153
375.39	0.153
375.85	0.151
376.31	0.151
376.78	0.151
377.24	0.151
377.70	0.151
378.16	0.151
378.63	0.150
379.09	0.150
379.55	0.148
380.01	0.151
380.48	0.150
380.94	0.150
381.40	0.148
381.87	0.152
382.33	0.150
382.79	0.147
383.25	0.147
383.72	0.150
384.18	0.148
384.64	0.149
385.10	0.145
385.56	0.149
386.03	0.149
386.49	0.148
386.95	0.147
387.41	0.147
387.88	0.141
388.34	0.142
388.80	0.146
389.26	0.148
389.72	0.145
390.19	0.141
390.65	0.142
391.11	0.144
391.57	0.144
392.04	0.142
392.50	0.140
392.96	0.144
393.42	0.143
393.88	0.143
394.34	0.142
394.81	0.142
395.27	0.143
395.73	0.140
396.19	0.140
396.65	0.139
397.12	0.137
397.58	0.138
398.04	0.138
398.50	0.139
398.96	0.141
399.42	0.143
399.89	0.143
400.35	0.140
400.81	0.138
401.27	0.140
401.73	0.139
402.19	0.139
402.65	0.133
403.12	0.137
403.58	0.137
404.04	0.137
404.50	0.133
404.96	0.135
405.42	0.136
405.88	0.134
406.34	0.138
406.81	0.138
407.27	0.135
407.73	0.133
408.19	0.134
408.65	0.132
409.11	0.132
409.57	0.132
410.03	0.133
410.49	0.133
410.96	0.130
411.42	0.131
411.88	0.129
412.34	0.126
412.80	0.130
413.26	0.130
413.72	0.131
414.18	0.129
414.64	0.128
415.10	0.129
415.56	0.131
416.02	0.130
416.48	0.130
416.95	0.132
417.41	0.127
417.87	0.127
418.33	0.126
418.79	0.127
419.25	0.127
419.71	0.125
420.17	0.124
420.63	0.122
421.09	0.124
421.55	0.125
422.01	0.128
422.47	0.130
422.93	0.131
423.39	0.128
423.85	0.124
424.31	0.126
424.77	0.127
425.23	0.126
425.69	0.131
426.15	0.130
426.61	0.126
427.07	0.121
427.53	0.124
427.99	0.125
428.45	0.125
428.91	0.123
429.37	0.119
429.83	0.121
430.29	0.126
430.75	0.126
431.21	0.127
431.67	0.132
432.13	0.127
432.59	0.124
433.05	0.124
433.51	0.119
433.97	0.117
434.43	0.130
434.89	0.130
435.35	0.124
435.81	0.126
436.27	0.125
436.73	0.123
437.19	0.126
437.65	0.123
438.11	0.125
438.57	0.123
439.03	0.122
439.48	0.126
439.94	0.123
440.40	0.125
440.86	0.118
441.32	0.122
441.78	0.120
442.24	0.125
442.70	0.126
443.16	0.121
443.62	0.125
444.08	0.119
444.54	0.121
444.99	0.121
445.45	0.120
445.91	0.121
446.37	0.120
446.83	0.121
447.29	0.121
447.75	0.122
448.21	0.122
448.67	0.119
449.12	0.120
449.58	0.119
450.04	0.121
450.50	0.121
450.96	0.120
451.42	0.121
451.88	0.122
452.34	0.118
452.79	0.120
453.25	0.122
453.71	0.122
454.17	0.118
454.63	0.123
455.09	0.121
455.55	0.118
456.00	0.117
456.46	0.119
456.92	0.118
457.38	0.118
457.84	0.118
458.30	0.120
458.75	0.118
459.21	0.115
459.67	0.117
460.13	0.119
460.59	0.120
461.04	0.117
461.50	0.117
461.96	0.116
462.42	0.117
462.88	0.115
463.33	0.115
463.79	0.117
464.25	0.116
464.71	0.119
465.17	0.118
465.62	0.118
466.08	0.117
466.54	0.120
467.00	0.118
467.46	0.119
467.91	0.119
468.37	0.119
468.83	0.120
469.29	0.118
469.74	0.117
470.20	0.119
470.66	0.117
471.12	0.117
471.57	0.118
472.03	0.118
472.49	0.120
472.95	0.120
473.40	0.117
473.86	0.117
474.32	0.116
474.78	0.118
475.23	0.120
475.69	0.117
476.15	0.119
476.60	0.119
477.06	0.117
477.52	0.119
477.98	0.118
478.43	0.120
478.89	0.116
479.35	0.121
479.80	0.118
480.26	0.115
480.72	0.117
481.18	0.117
481.63	0.116
482.09	0.118
482.55	0.114
483.00	0.114
483.46	0.116
483.92	0.116
484.37	0.114
484.83	0.114
485.29	0.116
485.74	0.115
486.20	0.116
486.66	0.119
487.11	0.115
487.57	0.117
488.03	0.114
488.48	0.116
488.94	0.113
489.40	0.115
489.85	0.117
490.31	0.116
490.77	0.115
491.22	0.118
491.68	0.115
492.13	0.117
492.59	0.119
493.05	0.115
493.50	0.117
493.96	0.115
494.42	0.117
494.87	0.117
495.33	0.113
495.78	0.115
496.24	0.116
496.70	0.116
497.15	0.115
497.61	0.115
498.06	0.113
498.52	0.113
498.98	0.114
499.43	0.115
499.89	0.115
500.34	0.114
500.80	0.113
501.25	0.113
501.71	0.112
502.17	0.112
502.62	0.115
503.08	0.111
503.53	0.114
503.99	0.113
504.44	0.113
504.90	0.112
505.36	0.113
505.81	0.113
506.27	0.111
506.72	0.111
507.18	0.113
507.63	0.112
508.09	0.113
508.54	0.110
509.00	0.115
509.45	0.113
509.91	0.113
510.36	0.114
510.82	0.114
511.27	0.113
511.73	0.116
512.19	0.113
512.64	0.111
513.10	0.112
513.55	0.112
514.01	0.113
514.46	0.115
514.92	0.112
515.37	0.116
515.83	0.112
516.28	0.114
516.73	0.114
517.19	0.113
517.64	0.112
518.10	0.112
518.55	0.111
519.01	0.114
519.46	0.111
519.92	0.110
520.37	0.109
520.83	0.109
521.28	0.109
521.74	0.111
522.19	0.111
522.65	0.111
523.10	0.110
523.55	0.112
524.01	0.110
524.46	0.110
524.92	0.112
525.37	0.113
525.83	0.114
526.28	0.112
526.73	0.112
527.19	0.111
527.64	0.111
528.10	0.112
528.55	0.112
529.01	0.113
529.46	0.114
529.91	0.111
530.37	0.111
530.82	0.112
531.28	0.110
531.73	0.112
532.18	0.113
532.64	0.111
533.09	0.112
533.54	0.113
534.00	0.113
534.45	0.112
534.91	0.111
535.36	0.110
535.81	0.110
536.27	0.112
536.72	0.111
537.17	0.112
537.63	0.112
538.08	0.115
538.54	0.114
538.99	0.114
539.44	0.113
539.90	0.114
540.35	0.112
540.80	0.111
541.26	0.113
541.71	0.116
542.16	0.114
542.62	0.118
543.07	0.114
543.52	0.115
543.98	0.116
544.43	0.114
544.88	0.114
545.34	0.117
545.79	0.115
546.24	0.115
546.69	0.114
547.15	0.118
547.60	0.116
548.05	0.116
548.51	0.119
548.96	0.118
549.41	0.118
549.86	0.119
550.32	0.119
550.77	0.119
551.22	0.118
551.68	0.120
552.13	0.120
552.58	0.119
553.03	0.122
553.49	0.120
553.94	0.120
554.39	0.121
554.84	0.123
555.30	0.121
555.75	0.122
556.20	0.124
556.65	0.123
557.11	0.124
557.56	0.123
558.01	0.124
558.46	0.123
558.92	0.126
559.37	0.126
559.82	0.127
560.27	0.128
560.72	0.127
561.18	0.127
561.63	0.128
562.08	0.128
562.53	0.128
562.99	0.130
563.44	0.129
563.89	0.131
564.34	0.131
564.79	0.133
565.25	0.132
565.70	0.134
566.15	0.132
566.60	0.133
567.05	0.134
567.50	0.136
567.96	0.135
568.41	0.136
568.86	0.134
569.31	0.135
569.76	0.137
570.21	0.138
570.67	0.136
571.12	0.140
571.57	0.138
572.02	0.141
572.47	0.140
572.92	0.142
573.37	0.144
573.83	0.142
574.28	0.143
574.73	0.142
575.18	0.145
575.63	0.143
576.08	0.146
576.53	0.144
576.98	0.146
577.44	0.149
577.89	0.147
578.34	0.150
578.79	0.151
579.24	0.153
579.69	0.151
580.14	0.152
580.59	0.152
581.04	0.155
581.49	0.155
581.95	0.156
582.40	0.159
582.85	0.160
583.30	0.160
583.75	0.163
584.20	0.162
584.65	0.163
585.10	0.167
585.55	0.167
586.00	0.167
586.45	0.169
586.90	0.169
587.35	0.170
587.80	0.173
588.25	0.175
588.71	0.175
589.16	0.179
589.61	0.177
590.06	0.180
590.51	0.180
590.96	0.181
591.41	0.184
591.86	0.185
592.31	0.186
592.76	0.188
593.21	0.189
593.66	0.191
594.11	0.192
594.56	0.193
595.01	0.198
595.46	0.197
595.91	0.198
596.36	0.200
596.81	0.203
597.26	0.201
597.71	0.205
598.16	0.205
598.61	0.211
599.06	0.210
599.51	0.211
599.96	0.213
600.41	0.214
600.86	0.215
601.31	0.217
601.76	0.221
602.21	0.221
602.65	0.222
603.10	0.223
603.55	0.225
604.00	0.227
604.45	0.229
604.90	0.230
605.35	0.233
605.80	0.232
606.25	0.233
606.70	0.237
607.15	0.236
607.60	0.238
608.05	0.237
608.50	0.240
608.95	0.243
609.39	0.242
609.84	0.244
610.29	0.245
610.74	0.244
611.19	0.246
611.64	0.250
612.09	0.248
612.54	0.250
612.99	0.250
613.44	0.250
613.88	0.250
614.33	0.250
614.78	0.253
615.23	0.254
615.68	0.252
616.13	0.254
616.58	0.256
617.03	0.257
617.47	0.257
617.92	0.255
618.37	0.258
618.82	0.256
619.27	0.258
619.72	0.260
620.17	0.260
620.61	0.260
621.06	0.259
621.51	0.262
621.96	0.262
622.41	0.262
622.86	0.262
623.30	0.264
623.75	0.265
624.20	0.265
624.65	0.265
625.10	0.267
625.54	0.265
625.99	0.265
626.44	0.267
626.89	0.269
627.34	0.269
627.78	0.269
628.23	0.273
628.68	0.272
629.13	0.273
629.58	0.274
630.02	0.277
630.47	0.278
630.92	0.278
631.37	0.282
631.81	0.281
632.26	0.282
632.71	0.286
633.16	0.287
633.61	0.287
634.05	0.290
634.50	0.288
634.95	0.294
635.40	0.294
635.84	0.297
636.29	0.299
636.74	0.299
637.18	0.300
637.63	0.304
638.08	0.307
638.53	0.307
638.97	0.309
639.42	0.313
639.87	0.314
640.32	0.317
640.76	0.317
641.21	0.322
641.66	0.324
642.10	0.325
642.55	0.329
643.00	0.329
643.44	0.334
643.89	0.336
644.34	0.341
644.79	0.343
645.23	0.343
645.68	0.346
646.13	0.351
646.57	0.354
647.02	0.355
647.47	0.358
647.91	0.359
648.36	0.363
648.81	0.368
649.25	0.367
649.70	0.369
650.15	0.372
650.59	0.375
651.04	0.378
651.48	0.379
651.93	0.384
652.38	0.384
652.82	0.386
653.27	0.384
653.72	0.392
654.16	0.392
654.61	0.393
655.06	0.396
655.50	0.394
655.95	0.392
656.39	0.395
656.84	0.406
657.29	0.413
657.73	0.405
658.18	0.407
658.62	0.408
659.07	0.414
659.52	0.412
659.96	0.413
660.41	0.415
660.85	0.416
661.30	0.417
661.74	0.418
662.19	0.419
662.64	0.416
663.08	0.415
663.53	0.419
663.97	0.419
664.42	0.417
664.86	0.418
665.31	0.417
665.75	0.417
666.20	0.414
666.65	0.417
667.09	0.414
667.54	0.412
667.98	0.410
668.43	0.408
668.87	0.405
669.32	0.403
669.76	0.403
670.21	0.402
670.65	0.398
671.10	0.392
671.54	0.392
671.99	0.389
672.43	0.382
672.88	0.378
673.32	0.372
673.77	0.368
674.21	0.364
674.66	0.356
675.10	0.357
675.55	0.349
675.99	0.344
676.44	0.337
676.88	0.332
677.33	0.327
677.77	0.320
678.22	0.312
678.66	0.305
679.11	0.299
679.55	0.293
679.99	0.286
680.44	0.279
680.88	0.274
681.33	0.269
681.77	0.260
682.22	0.252
682.66	0.248
683.11	0.239
683.55	0.236
683.99	0.232
684.44	0.226
684.88	0.219
685.33	0.213
685.77	0.207
686.21	0.201
686.66	0.197
687.10	0.191
687.55	0.185
687.99	0.182
688.44	0.177
688.88	0.169
689.32	0.169
689.77	0.162
690.21	0.160
690.65	0.156
691.10	0.152
691.54	0.149
691.99	0.145
692.43	0.141
692.87	0.139
693.32	0.135
693.76	0.132
694.20	0.131
694.65	0.128
695.09	0.124
695.53	0.122
695.98	0.122
696.42	0.119
696.86	0.119
697.31	0.115
697.75	0.112
698.19	0.112
698.64	0.109
699.08	0.109
699.52	0.106
699.97	0.106
700.41	0.104
700.85	0.103
701.30	0.099
701.74	0.100
702.18	0.097
702.63	0.096
703.07	0.094
703.51	0.098
703.96	0.094
704.40	0.094
704.84	0.093
705.28	0.091
705.73	0.091
706.17	0.090
706.61	0.090
707.06	0.089
707.50	0.089
707.94	0.089
708.38	0.086
708.83	0.086
709.27	0.087
709.71	0.085
710.15	0.084
710.60	0.088
711.04	0.082
711.48	0.084
711.92	0.084
712.37	0.082
712.81	0.081
713.25	0.086
713.69	0.084
714.13	0.082
714.58	0.082
715.02	0.082
715.46	0.081
715.90	0.080
716.35	0.081
716.79	0.082
717.23	0.082
717.67	0.083
718.11	0.079
718.56	0.079
719.00	0.082
719.44	0.080
719.88	0.083
720.32	0.083
720.76	0.079
721.21	0.085
721.65	0.080
722.09	0.079
722.53	0.082
722.97	0.081
723.41	0.081
723.86	0.080
724.30	0.080
724.74	0.082
725.18	0.081
725.62	0.079
726.06	0.080
726.50	0.083
726.95	0.081
727.39	0.084
727.83	0.082
728.27	0.083
728.71	0.082
729.15	0.083
729.59	0.081
730.03	0.081
730.48	0.081
730.92	0.083
731.36	0.082
731.80	0.082
732.24	0.084
732.68	0.083
733.12	0.082
733.56	0.082
734.00	0.082
734.44	0.083
734.89	0.084
735.33	0.081
735.77	0.085
736.21	0.084
736.65	0.083
737.09	0.086
737.53	0.084
737.97	0.085
738.41	0.083
738.85	0.084
739.29	0.083
739.73	0.083
740.17	0.083
740.61	0.082
741.05	0.085
741.49	0.084
741.93	0.083
742.37	0.084
742.81	0.084
743.26	0.084
743.70	0.084
744.14	0.086
744.58	0.083
745.02	0.084
745.46	0.083
745.90	0.083
746.34	0.084
746.78	0.086
747.22	0.085
747.66	0.082
748.10	0.081
748.54	0.085
748.98	0.083
749.42	0.084
749.86	0.083
750.29	0.083
750.73	0.084
751.17	0.085
751.61	0.084
752.05	0.084
752.49	0.083
752.93	0.084
753.37	0.086
753.81	0.085
754.25	0.084
754.69	0.084
755.13	0.084
755.57	0.084
756.01	0.081
756.45	0.083
756.89	0.083
757.33	0.082
757.77	0.084
758.21	0.084
758.64	0.081
759.08	0.083
759.52	0.081
759.96	0.083
760.40	0.082
760.84	0.082
761.28	0.081
761.72	0.082
762.16	0.081
762.60	0.084
763.03	0.083
763.47	0.083
763.91	0.080
764.35	0.079
764.79	0.080
765.23	0.085
765.67	0.082
766.11	0.082
766.54	0.081
766.98	0.080
767.42	0.084
767.86	0.083
768.30	0.080
768.74	0.082
769.17	0.083
769.61	0.084
770.05	0.082
770.49	0.084
770.93	0.082
771.37	0.084
771.80	0.080
772.24	0.081
772.68	0.080
773.12	0.080
773.56	0.082
774.00	0.083
774.43	0.081
774.87	0.080
775.31	0.084
775.75	0.080
776.19	0.080
776.62	0.084
777.06	0.079
777.50	0.081
777.94	0.080
778.37	0.082
778.81	0.084
779.25	0.078
779.69	0.080
780.13	0.080
780.56	0.078
781.00	0.082
781.44	0.081
781.88	0.080
782.31	0.080
782.75	0.079
783.19	0.081
783.63	0.080
784.06	0.082
784.50	0.080
784.94	0.083
785.37	0.078
785.81	0.082
786.25	0.081
786.69	0.082
787.12	0.083
787.56	0.083
788.00	0.080
788.43	0.082
788.87	0.081
789.31	0.083
789.75	0.081
790.18	0.083
790.62	0.081
791.06	0.081
791.49	0.079
791.93	0.080
792.37	0.078
792.80	0.081
793.24	0.078
793.68	0.082
794.11	0.084
794.55	0.081
794.99	0.077
795.42	0.082
795.86	0.085
796.30	0.082
796.73	0.079
797.17	0.081
797.61	0.082
798.04	0.085
798.48	0.081
798.91	0.083
799.35	0.083
799.79	0.081
800.22	0.084
800.66	0.079
801.10	0.086
801.53	0.086
801.97	0.084
802.40	0.078
802.84	0.083
803.28	0.082
803.71	0.081
804.15	0.083
804.58	0.084
805.02	0.083
805.46	0.083
805.89	0.080
806.33	0.085
806.76	0.079
807.20	0.084
807.63	0.080
808.07	0.082
808.51	0.080
808.94	0.085
809.38	0.080
809.81	0.085
810.25	0.083
810.68	0.081
811.12	0.083
811.55	0.083
811.99	0.082
812.42	0.083
812.86	0.083
813.29	0.081
813.73	0.086
814.17	0.078
