SpectraSuite Data File
++++++++++++++++++++++++++++++++++++
Date: Wed May 04 17:16:35 CEST 2016
User: spectrasuite
Dark Spectrum Present: Yes
Reference Spectrum Present: Yes
Number of Sampled Component Spectra: 1
Spectrometers: HR+C0708
Integration Time (usec): 1000 (HR+C0708)
Spectra Averaged: 10 (HR+C0708)
Boxcar Smoothing: 0 (HR+C0708)
Correct for Electrical Dark: No (HR+C0708)
Strobe/Lamp Enabled: No (HR+C0708)
Correct for Detector Non-linearity: No (HR+C0708)
Correct for Stray Light: No (HR+C0708)
Number of Pixels in Processed Spectrum: 2048
>>>>>Begin Processed Spectral Data<<<<<
188.76	-0.000
189.23	-0.000
189.70	-0.000
190.17	-0.000
190.64	-0.000
191.12	-0.000
191.59	-0.000
192.06	-0.000
192.53	-0.000
193.01	-0.000
193.48	-0.000
193.95	-0.000
194.42	-0.000
194.90	-0.000
195.37	-0.000
195.84	-0.000
196.31	-0.000
196.78	-0.000
197.26	-0.000
197.73	-0.000
198.20	-0.000
198.67	-0.000
199.14	-0.000
199.62	-0.000
200.09	-0.000
200.56	-0.000
201.03	-0.000
201.50	-0.000
201.97	1.133
202.45	-0.000
202.92	-0.000
203.39	-0.000
203.86	-0.000
204.33	-0.000
204.80	-0.000
205.28	-0.000
205.75	-0.000
206.22	-0.000
206.69	-0.000
207.16	-0.000
207.63	-0.000
208.11	-0.000
208.58	-0.000
209.05	-0.000
209.52	-0.000
209.99	-0.000
210.46	-0.000
210.93	-0.000
211.41	-0.000
211.88	-0.000
212.35	-0.000
212.82	-0.000
213.29	-0.000
213.76	-0.000
214.23	-0.000
214.70	-0.000
215.18	-0.000
215.65	-0.000
216.12	-0.000
216.59	-0.000
217.06	-0.000
217.53	-0.000
218.00	-0.000
218.47	1.574
218.94	-0.000
219.41	-0.000
219.89	-0.000
220.36	-0.000
220.83	-0.000
221.30	-0.000
221.77	-0.000
222.24	1.378
222.71	-0.000
223.18	-0.000
223.65	1.435
224.12	-0.000
224.59	-0.000
225.06	-0.000
225.54	-0.000
226.01	-0.000
226.48	-0.000
226.95	-0.000
227.42	-0.000
227.89	-0.000
228.36	-0.000
228.83	2.391
229.30	-0.000
229.77	-0.000
230.24	1.876
230.71	2.516
231.18	-0.000
231.65	-0.000
232.12	-0.000
232.59	-0.000
233.06	-0.000
233.53	-0.000
234.00	2.478
234.47	-0.000
234.94	-0.000
235.41	-0.000
235.88	3.209
236.35	-0.000
236.82	-0.000
237.29	2.689
237.76	2.959
238.23	-0.000
238.70	-0.000
239.17	-0.000
239.64	-0.000
240.11	-0.000
240.58	2.511
241.05	-0.000
241.52	-0.000
241.99	2.887
242.46	2.612
242.93	2.984
243.40	-0.000
243.87	-0.000
244.34	2.865
244.81	3.266
245.28	3.307
245.75	2.882
246.22	-0.000
246.69	-0.000
247.16	3.593
247.63	-0.000
248.10	3.379
248.57	-0.000
249.04	3.997
249.51	3.018
249.98	-0.000
250.45	-0.000
250.92	2.970
251.39	3.177
251.85	2.691
252.32	2.339
252.79	2.209
253.26	1.942
253.73	1.820
254.20	1.728
254.67	1.616
255.14	1.570
255.61	1.470
256.08	1.405
256.55	1.341
257.02	1.281
257.49	1.236
257.95	1.192
258.42	1.148
258.89	1.116
259.36	1.086
259.83	1.061
260.30	1.022
260.77	1.002
261.24	0.975
261.71	0.952
262.17	0.936
262.64	0.916
263.11	0.895
263.58	0.878
264.05	0.868
264.52	0.850
264.99	0.836
265.46	0.825
265.92	0.806
266.39	0.793
266.86	0.787
267.33	0.771
267.80	0.760
268.27	0.748
268.74	0.744
269.20	0.735
269.67	0.721
270.14	0.712
270.61	0.707
271.08	0.694
271.55	0.686
272.01	0.682
272.48	0.671
272.95	0.658
273.42	0.661
273.89	0.653
274.36	0.646
274.82	0.641
275.29	0.637
275.76	0.629
276.23	0.625
276.70	0.621
277.16	0.614
277.63	0.613
278.10	0.604
278.57	0.604
279.04	0.598
279.50	0.599
279.97	0.590
280.44	0.589
280.91	0.585
281.38	0.582
281.84	0.578
282.31	0.579
282.78	0.577
283.25	0.575
283.72	0.569
284.18	0.572
284.65	0.568
285.12	0.566
285.59	0.568
286.05	0.565
286.52	0.566
286.99	0.560
287.46	0.565
287.92	0.562
288.39	0.561
288.86	0.560
289.33	0.560
289.79	0.556
290.26	0.556
290.73	0.552
291.20	0.550
291.66	0.545
292.13	0.545
292.60	0.542
293.07	0.535
293.53	0.531
294.00	0.525
294.47	0.523
294.93	0.520
295.40	0.511
295.87	0.507
296.34	0.499
296.80	0.491
297.27	0.481
297.74	0.477
298.20	0.476
298.67	0.466
299.14	0.455
299.60	0.449
300.07	0.444
300.54	0.438
301.01	0.431
301.47	0.421
301.94	0.417
302.41	0.412
302.87	0.401
303.34	0.396
303.81	0.390
304.27	0.384
304.74	0.376
305.21	0.369
305.67	0.364
306.14	0.358
306.61	0.355
307.07	0.348
307.54	0.345
308.01	0.338
308.47	0.334
308.94	0.330
309.40	0.326
309.87	0.326
310.34	0.321
310.80	0.318
311.27	0.311
311.74	0.311
312.20	0.309
312.67	0.305
313.13	0.303
313.60	0.297
314.07	0.297
314.53	0.294
315.00	0.288
315.47	0.288
315.93	0.289
316.40	0.283
316.86	0.283
317.33	0.281
317.80	0.280
318.26	0.278
318.73	0.279
319.19	0.277
319.66	0.275
320.13	0.270
320.59	0.271
321.06	0.271
321.52	0.269
321.99	0.266
322.45	0.264
322.92	0.262
323.39	0.262
323.85	0.263
324.32	0.261
324.78	0.259
325.25	0.254
325.71	0.255
326.18	0.253
326.64	0.251
327.11	0.247
327.58	0.250
328.04	0.248
328.51	0.247
328.97	0.245
329.44	0.243
329.90	0.239
330.37	0.239
330.83	0.239
331.30	0.236
331.76	0.234
332.23	0.234
332.69	0.229
333.16	0.230
333.62	0.227
334.09	0.224
334.56	0.224
335.02	0.219
335.49	0.218
335.95	0.214
336.42	0.215
336.88	0.212
337.35	0.211
337.81	0.206
338.28	0.211
338.74	0.210
339.20	0.211
339.67	0.208
340.13	0.210
340.60	0.207
341.06	0.203
341.53	0.199
341.99	0.198
342.46	0.198
342.92	0.197
343.39	0.192
343.85	0.193
344.32	0.190
344.78	0.192
345.25	0.197
345.71	0.195
346.17	0.193
346.64	0.199
347.10	0.191
347.57	0.188
348.03	0.185
348.50	0.187
348.96	0.188
349.43	0.186
349.89	0.191
350.35	0.186
350.82	0.186
351.28	0.188
351.75	0.181
352.21	0.186
352.67	0.181
353.14	0.188
353.60	0.180
354.07	0.179
354.53	0.176
355.00	0.176
355.46	0.173
355.92	0.171
356.39	0.172
356.85	0.167
357.31	0.166
357.78	0.166
358.24	0.166
358.71	0.168
359.17	0.166
359.63	0.165
360.10	0.163
360.56	0.163
361.03	0.162
361.49	0.164
361.95	0.162
362.42	0.161
362.88	0.161
363.34	0.164
363.81	0.160
364.27	0.162
364.73	0.160
365.20	0.161
365.66	0.160
366.12	0.161
366.59	0.160
367.05	0.162
367.51	0.161
367.98	0.157
368.44	0.159
368.90	0.156
369.37	0.160
369.83	0.159
370.29	0.154
370.76	0.155
371.22	0.155
371.68	0.155
372.15	0.153
372.61	0.152
373.07	0.154
373.54	0.153
374.00	0.152
374.46	0.154
374.92	0.152
375.39	0.153
375.85	0.152
376.31	0.151
376.78	0.153
377.24	0.149
377.70	0.153
378.16	0.153
378.63	0.149
379.09	0.152
379.55	0.150
380.01	0.151
380.48	0.149
380.94	0.150
381.40	0.150
381.87	0.152
382.33	0.148
382.79	0.145
383.25	0.149
383.72	0.151
384.18	0.148
384.64	0.150
385.10	0.146
385.56	0.147
386.03	0.149
386.49	0.148
386.95	0.147
387.41	0.146
387.88	0.140
388.34	0.141
388.80	0.147
389.26	0.147
389.72	0.147
390.19	0.143
390.65	0.142
391.11	0.142
391.57	0.145
392.04	0.143
392.50	0.141
392.96	0.146
393.42	0.144
393.88	0.145
394.34	0.141
394.81	0.144
395.27	0.141
395.73	0.141
396.19	0.142
396.65	0.142
397.12	0.137
397.58	0.138
398.04	0.137
398.50	0.139
398.96	0.138
399.42	0.142
399.89	0.143
400.35	0.140
400.81	0.139
401.27	0.139
401.73	0.139
402.19	0.139
402.65	0.135
403.12	0.136
403.58	0.138
404.04	0.135
404.50	0.134
404.96	0.134
405.42	0.136
405.88	0.136
406.34	0.138
406.81	0.136
407.27	0.132
407.73	0.131
408.19	0.131
408.65	0.130
409.11	0.133
409.57	0.132
410.03	0.135
410.49	0.134
410.96	0.132
411.42	0.132
411.88	0.127
412.34	0.125
412.80	0.129
413.26	0.129
413.72	0.130
414.18	0.127
414.64	0.131
415.10	0.127
415.56	0.131
416.02	0.129
416.48	0.127
416.95	0.132
417.41	0.127
417.87	0.130
418.33	0.128
418.79	0.127
419.25	0.129
419.71	0.125
420.17	0.125
420.63	0.123
421.09	0.124
421.55	0.124
422.01	0.126
422.47	0.132
422.93	0.131
423.39	0.128
423.85	0.125
424.31	0.126
424.77	0.125
425.23	0.126
425.69	0.126
426.15	0.129
426.61	0.127
427.07	0.120
427.53	0.124
427.99	0.125
428.45	0.128
428.91	0.123
429.37	0.121
429.83	0.121
430.29	0.124
430.75	0.127
431.21	0.129
431.67	0.133
432.13	0.128
432.59	0.125
433.05	0.123
433.51	0.120
433.97	0.120
434.43	0.127
434.89	0.130
435.35	0.124
435.81	0.126
436.27	0.127
436.73	0.124
437.19	0.127
437.65	0.122
438.11	0.124
438.57	0.124
439.03	0.122
439.48	0.125
439.94	0.126
440.40	0.125
440.86	0.122
441.32	0.122
441.78	0.121
442.24	0.121
442.70	0.122
443.16	0.121
443.62	0.122
444.08	0.118
444.54	0.122
444.99	0.123
445.45	0.119
445.91	0.120
446.37	0.121
446.83	0.120
447.29	0.121
447.75	0.122
448.21	0.124
448.67	0.119
449.12	0.120
449.58	0.120
450.04	0.120
450.50	0.120
450.96	0.120
451.42	0.121
451.88	0.121
452.34	0.118
452.79	0.120
453.25	0.122
453.71	0.121
454.17	0.118
454.63	0.122
455.09	0.120
455.55	0.119
456.00	0.118
456.46	0.119
456.92	0.119
457.38	0.116
457.84	0.117
458.30	0.118
458.75	0.118
459.21	0.115
459.67	0.116
460.13	0.117
460.59	0.117
461.04	0.117
461.50	0.115
461.96	0.116
462.42	0.115
462.88	0.114
463.33	0.116
463.79	0.116
464.25	0.116
464.71	0.119
465.17	0.115
465.62	0.116
466.08	0.119
466.54	0.119
467.00	0.117
467.46	0.117
467.91	0.118
468.37	0.118
468.83	0.119
469.29	0.117
469.74	0.117
470.20	0.118
470.66	0.118
471.12	0.119
471.57	0.117
472.03	0.119
472.49	0.117
472.95	0.119
473.40	0.120
473.86	0.118
474.32	0.114
474.78	0.119
475.23	0.119
475.69	0.117
476.15	0.121
476.60	0.120
477.06	0.119
477.52	0.116
477.98	0.118
478.43	0.120
478.89	0.119
479.35	0.121
479.80	0.118
480.26	0.113
480.72	0.116
481.18	0.117
481.63	0.116
482.09	0.116
482.55	0.116
483.00	0.115
483.46	0.118
483.92	0.115
484.37	0.116
484.83	0.115
485.29	0.117
485.74	0.116
486.20	0.114
486.66	0.116
487.11	0.116
487.57	0.116
488.03	0.114
488.48	0.117
488.94	0.114
489.40	0.115
489.85	0.117
490.31	0.116
490.77	0.114
491.22	0.117
491.68	0.116
492.13	0.114
492.59	0.118
493.05	0.115
493.50	0.115
493.96	0.113
494.42	0.118
494.87	0.116
495.33	0.114
495.78	0.114
496.24	0.114
496.70	0.116
497.15	0.115
497.61	0.115
498.06	0.113
498.52	0.114
498.98	0.115
499.43	0.115
499.89	0.115
500.34	0.112
500.80	0.114
501.25	0.114
501.71	0.114
502.17	0.111
502.62	0.114
503.08	0.111
503.53	0.111
503.99	0.113
504.44	0.115
504.90	0.112
505.36	0.112
505.81	0.114
506.27	0.110
506.72	0.111
507.18	0.111
507.63	0.111
508.09	0.114
508.54	0.112
509.00	0.112
509.45	0.112
509.91	0.112
510.36	0.113
510.82	0.115
511.27	0.112
511.73	0.115
512.19	0.113
512.64	0.112
513.10	0.113
513.55	0.111
514.01	0.115
514.46	0.114
514.92	0.114
515.37	0.113
515.83	0.110
516.28	0.113
516.73	0.113
517.19	0.110
517.64	0.111
518.10	0.114
518.55	0.112
519.01	0.111
519.46	0.109
519.92	0.112
520.37	0.109
520.83	0.110
521.28	0.109
521.74	0.110
522.19	0.112
522.65	0.111
523.10	0.109
523.55	0.111
524.01	0.111
524.46	0.111
524.92	0.109
525.37	0.112
525.83	0.111
526.28	0.113
526.73	0.111
527.19	0.112
527.64	0.110
528.10	0.110
528.55	0.110
529.01	0.112
529.46	0.112
529.91	0.109
530.37	0.113
530.82	0.110
531.28	0.110
531.73	0.112
532.18	0.112
532.64	0.110
533.09	0.110
533.54	0.111
534.00	0.113
534.45	0.114
534.91	0.111
535.36	0.111
535.81	0.111
536.27	0.111
536.72	0.111
537.17	0.113
537.63	0.111
538.08	0.115
538.54	0.114
538.99	0.114
539.44	0.112
539.90	0.113
540.35	0.112
540.80	0.110
541.26	0.113
541.71	0.116
542.16	0.115
542.62	0.117
543.07	0.117
543.52	0.115
543.98	0.114
544.43	0.115
544.88	0.114
545.34	0.115
545.79	0.116
546.24	0.115
546.69	0.115
547.15	0.117
547.60	0.116
548.05	0.116
548.51	0.117
548.96	0.118
549.41	0.117
549.86	0.116
550.32	0.118
550.77	0.119
551.22	0.118
551.68	0.119
552.13	0.120
552.58	0.120
553.03	0.121
553.49	0.119
553.94	0.119
554.39	0.122
554.84	0.122
555.30	0.120
555.75	0.122
556.20	0.123
556.65	0.122
557.11	0.123
557.56	0.125
558.01	0.124
558.46	0.122
558.92	0.127
559.37	0.126
559.82	0.125
560.27	0.125
560.72	0.126
561.18	0.126
561.63	0.126
562.08	0.127
562.53	0.128
562.99	0.128
563.44	0.130
563.89	0.129
564.34	0.130
564.79	0.131
565.25	0.131
565.70	0.132
566.15	0.132
566.60	0.133
567.05	0.132
567.50	0.134
567.96	0.135
568.41	0.135
568.86	0.135
569.31	0.136
569.76	0.136
570.21	0.138
570.67	0.136
571.12	0.136
571.57	0.139
572.02	0.140
572.47	0.139
572.92	0.139
573.37	0.143
573.83	0.140
574.28	0.141
574.73	0.143
575.18	0.143
575.63	0.144
576.08	0.145
576.53	0.145
576.98	0.146
577.44	0.147
577.89	0.146
578.34	0.150
578.79	0.147
579.24	0.150
579.69	0.149
580.14	0.152
580.59	0.153
581.04	0.154
581.49	0.154
581.95	0.156
582.40	0.158
582.85	0.159
583.30	0.160
583.75	0.161
584.20	0.160
584.65	0.162
585.10	0.165
585.55	0.166
586.00	0.166
586.45	0.167
586.90	0.169
587.35	0.169
587.80	0.170
588.25	0.172
588.71	0.174
589.16	0.177
589.61	0.175
590.06	0.178
590.51	0.178
590.96	0.181
591.41	0.182
591.86	0.183
592.31	0.184
592.76	0.186
593.21	0.188
593.66	0.190
594.11	0.191
594.56	0.193
595.01	0.193
595.46	0.194
595.91	0.198
596.36	0.198
596.81	0.201
597.26	0.202
597.71	0.202
598.16	0.203
598.61	0.208
599.06	0.207
599.51	0.208
599.96	0.211
600.41	0.210
600.86	0.215
601.31	0.216
601.76	0.217
602.21	0.220
602.65	0.221
603.10	0.221
603.55	0.223
604.00	0.226
604.45	0.226
604.90	0.227
605.35	0.230
605.80	0.229
606.25	0.231
606.70	0.232
607.15	0.234
607.60	0.235
608.05	0.235
608.50	0.239
608.95	0.239
609.39	0.241
609.84	0.240
610.29	0.243
610.74	0.243
611.19	0.243
611.64	0.244
612.09	0.244
612.54	0.246
612.99	0.244
613.44	0.246
613.88	0.249
614.33	0.248
614.78	0.249
615.23	0.251
615.68	0.250
616.13	0.250
616.58	0.250
617.03	0.252
617.47	0.253
617.92	0.255
618.37	0.255
618.82	0.256
619.27	0.255
619.72	0.255
620.17	0.258
620.61	0.255
621.06	0.258
621.51	0.255
621.96	0.258
622.41	0.259
622.86	0.258
623.30	0.262
623.75	0.261
624.20	0.261
624.65	0.264
625.10	0.263
625.54	0.264
625.99	0.262
626.44	0.267
626.89	0.267
627.34	0.266
627.78	0.268
628.23	0.270
628.68	0.269
629.13	0.270
629.58	0.271
630.02	0.273
630.47	0.275
630.92	0.277
631.37	0.279
631.81	0.279
632.26	0.280
632.71	0.283
633.16	0.283
633.61	0.284
634.05	0.285
634.50	0.287
634.95	0.289
635.40	0.292
635.84	0.293
636.29	0.294
636.74	0.298
637.18	0.297
637.63	0.303
638.08	0.303
638.53	0.305
638.97	0.307
639.42	0.309
639.87	0.311
640.32	0.313
640.76	0.316
641.21	0.319
641.66	0.319
642.10	0.322
642.55	0.325
643.00	0.327
643.44	0.330
643.89	0.335
644.34	0.335
644.79	0.338
645.23	0.339
645.68	0.345
646.13	0.346
646.57	0.348
647.02	0.350
647.47	0.354
647.91	0.356
648.36	0.357
648.81	0.361
649.25	0.363
649.70	0.366
650.15	0.370
650.59	0.371
651.04	0.374
651.48	0.375
651.93	0.377
652.38	0.378
652.82	0.382
653.27	0.382
653.72	0.385
654.16	0.389
654.61	0.389
655.06	0.391
655.50	0.392
655.95	0.387
656.39	0.390
656.84	0.403
657.29	0.405
657.73	0.403
658.18	0.403
658.62	0.404
659.07	0.404
659.52	0.404
659.96	0.407
660.41	0.409
660.85	0.409
661.30	0.411
661.74	0.410
662.19	0.412
662.64	0.413
663.08	0.413
663.53	0.412
663.97	0.417
664.42	0.411
664.86	0.414
665.31	0.412
665.75	0.412
666.20	0.408
666.65	0.412
667.09	0.409
667.54	0.408
667.98	0.405
668.43	0.405
668.87	0.402
669.32	0.400
669.76	0.394
670.21	0.395
670.65	0.392
671.10	0.389
671.54	0.385
671.99	0.382
672.43	0.377
672.88	0.373
673.32	0.371
673.77	0.364
674.21	0.363
674.66	0.353
675.10	0.351
675.55	0.343
675.99	0.339
676.44	0.333
676.88	0.326
677.33	0.324
677.77	0.316
678.22	0.309
678.66	0.303
679.11	0.297
679.55	0.290
679.99	0.285
680.44	0.278
680.88	0.269
681.33	0.265
681.77	0.258
682.22	0.249
682.66	0.248
683.11	0.237
683.55	0.234
683.99	0.226
684.44	0.220
684.88	0.218
685.33	0.211
685.77	0.204
686.21	0.200
686.66	0.193
687.10	0.189
687.55	0.186
687.99	0.177
688.44	0.175
688.88	0.170
689.32	0.167
689.77	0.161
690.21	0.158
690.65	0.155
691.10	0.150
691.54	0.149
691.99	0.143
692.43	0.142
692.87	0.138
693.32	0.135
693.76	0.132
694.20	0.131
694.65	0.129
695.09	0.122
695.53	0.121
695.98	0.119
696.42	0.118
696.86	0.116
697.31	0.113
697.75	0.109
698.19	0.111
698.64	0.106
699.08	0.106
699.52	0.105
699.97	0.104
700.41	0.102
700.85	0.103
701.30	0.098
701.74	0.100
702.18	0.096
702.63	0.097
703.07	0.094
703.51	0.095
703.96	0.092
704.40	0.094
704.84	0.094
705.28	0.089
705.73	0.091
706.17	0.090
706.61	0.091
707.06	0.087
707.50	0.088
707.94	0.089
708.38	0.086
708.83	0.085
709.27	0.086
709.71	0.087
710.15	0.083
710.60	0.087
711.04	0.082
711.48	0.084
711.92	0.084
712.37	0.082
712.81	0.082
713.25	0.082
713.69	0.081
714.13	0.081
714.58	0.082
715.02	0.081
715.46	0.080
715.90	0.082
716.35	0.079
716.79	0.081
717.23	0.082
717.67	0.082
718.11	0.079
718.56	0.080
719.00	0.080
719.44	0.081
719.88	0.083
720.32	0.082
720.76	0.080
721.21	0.082
721.65	0.082
722.09	0.080
722.53	0.081
722.97	0.078
723.41	0.081
723.86	0.080
724.30	0.080
724.74	0.081
725.18	0.081
725.62	0.080
726.06	0.080
726.50	0.082
726.95	0.081
727.39	0.083
727.83	0.080
728.27	0.082
728.71	0.081
729.15	0.081
729.59	0.079
730.03	0.080
730.48	0.082
730.92	0.083
731.36	0.081
731.80	0.080
732.24	0.083
732.68	0.084
733.12	0.082
733.56	0.084
734.00	0.083
734.44	0.083
734.89	0.085
735.33	0.080
735.77	0.082
736.21	0.081
736.65	0.082
737.09	0.085
737.53	0.083
737.97	0.084
738.41	0.084
738.85	0.083
739.29	0.085
739.73	0.084
740.17	0.085
740.61	0.082
741.05	0.083
741.49	0.084
741.93	0.083
742.37	0.083
742.81	0.084
743.26	0.083
743.70	0.084
744.14	0.083
744.58	0.084
745.02	0.083
745.46	0.084
745.90	0.082
746.34	0.084
746.78	0.087
747.22	0.086
747.66	0.082
748.10	0.081
748.54	0.085
748.98	0.083
749.42	0.082
749.86	0.084
750.29	0.085
750.73	0.084
751.17	0.085
751.61	0.086
752.05	0.084
752.49	0.082
752.93	0.083
753.37	0.086
753.81	0.083
754.25	0.084
754.69	0.086
755.13	0.085
755.57	0.081
756.01	0.082
756.45	0.081
756.89	0.081
757.33	0.085
757.77	0.083
758.21	0.083
758.64	0.080
759.08	0.082
759.52	0.084
759.96	0.081
760.40	0.081
760.84	0.081
761.28	0.080
761.72	0.084
762.16	0.083
762.60	0.082
763.03	0.085
763.47	0.082
763.91	0.083
764.35	0.082
764.79	0.082
765.23	0.083
765.67	0.080
766.11	0.082
766.54	0.081
766.98	0.078
767.42	0.082
767.86	0.084
768.30	0.080
768.74	0.080
769.17	0.081
769.61	0.080
770.05	0.081
770.49	0.084
770.93	0.082
771.37	0.082
771.80	0.081
772.24	0.075
772.68	0.079
773.12	0.079
773.56	0.084
774.00	0.082
774.43	0.080
774.87	0.080
775.31	0.081
775.75	0.079
776.19	0.079
776.62	0.081
777.06	0.081
777.50	0.083
777.94	0.080
778.37	0.083
778.81	0.080
779.25	0.078
779.69	0.083
780.13	0.081
780.56	0.076
781.00	0.083
781.44	0.080
781.88	0.081
782.31	0.078
782.75	0.079
783.19	0.082
783.63	0.084
784.06	0.078
784.50	0.080
784.94	0.081
785.37	0.078
785.81	0.080
786.25	0.080
786.69	0.080
787.12	0.083
787.56	0.078
788.00	0.080
788.43	0.084
788.87	0.083
789.31	0.085
789.75	0.082
790.18	0.081
790.62	0.080
791.06	0.081
791.49	0.084
791.93	0.079
792.37	0.077
792.80	0.081
793.24	0.079
793.68	0.082
794.11	0.081
794.55	0.080
794.99	0.082
795.42	0.082
795.86	0.083
796.30	0.082
796.73	0.079
797.17	0.080
797.61	0.083
798.04	0.080
798.48	0.081
798.91	0.084
799.35	0.081
799.79	0.080
800.22	0.083
800.66	0.081
801.10	0.088
801.53	0.085
801.97	0.084
802.40	0.080
802.84	0.081
803.28	0.078
803.71	0.079
804.15	0.083
804.58	0.086
805.02	0.084
805.46	0.082
805.89	0.078
806.33	0.083
806.76	0.080
807.20	0.082
807.63	0.081
808.07	0.083
808.51	0.082
808.94	0.081
809.38	0.078
809.81	0.082
810.25	0.080
810.68	0.082
811.12	0.080
811.55	0.082
811.99	0.079
812.42	0.083
812.86	0.084
813.29	0.078
813.73	0.084
814.17	0.076
814.60	0.079
