SpectraSuite Data File
++++++++++++++++++++++++++++++++++++
Date: Wed May 04 13:18:45 CEST 2016
User: spectrasuite
Dark Spectrum Present: Yes
Reference Spectrum Present: Yes
Number of Sampled Component Spectra: 1
Spectrometers: HR+C0708
Integration Time (usec): 1000 (HR+C0708)
Spectra Averaged: 10 (HR+C0708)
Boxcar Smoothing: 0 (HR+C0708)
Correct for Electrical Dark: No (HR+C0708)
Strobe/Lamp Enabled: No (HR+C0708)
Correct for Detector Non-linearity: No (HR+C0708)
Correct for Stray Light: No (HR+C0708)
Number of Pixels in Processed Spectrum: 2048
>>>>>Begin Processed Spectral Data<<<<<
188.76	1.056
189.23	-0.000
189.70	0.743
190.17	0.595
190.64	-0.000
191.12	-0.000
191.59	-0.000
192.06	0.243
192.53	-0.000
193.01	0.396
193.48	0.352
193.95	-0.000
194.42	-0.000
194.90	-0.000
195.37	-0.000
195.84	-0.000
196.31	0.964
196.78	-0.000
197.26	-0.000
197.73	0.492
198.20	0.120
198.67	-0.000
199.14	-0.000
199.62	-0.000
200.09	-0.000
200.56	0.661
201.03	0.780
201.50	0.460
201.97	0.678
202.45	0.518
202.92	0.497
203.39	0.557
203.86	0.678
204.33	0.490
204.80	0.448
205.28	0.541
205.75	0.470
206.22	0.871
206.69	0.575
207.16	0.580
207.63	0.881
208.11	0.456
208.58	0.331
209.05	0.563
209.52	0.565
209.99	0.435
210.46	0.497
210.93	0.601
211.41	0.473
211.88	0.544
212.35	0.635
212.82	-0.000
213.29	0.632
213.76	0.997
214.23	0.723
214.70	0.685
215.18	0.562
215.65	0.440
216.12	0.480
216.59	0.516
217.06	0.494
217.53	0.533
218.00	0.893
218.47	0.540
218.94	0.564
219.41	0.457
219.89	0.573
220.36	0.470
220.83	0.802
221.30	0.819
221.77	0.668
222.24	0.591
222.71	0.675
223.18	0.758
223.65	0.517
224.12	0.697
224.59	0.780
225.06	0.836
225.54	0.712
226.01	0.905
226.48	1.061
226.95	1.252
227.42	0.934
227.89	1.281
228.36	1.089
228.83	0.972
229.30	1.178
229.77	1.581
230.24	1.324
230.71	1.293
231.18	1.330
231.65	1.541
232.12	1.323
232.59	1.489
233.06	1.720
233.53	1.765
234.00	1.505
234.47	1.987
234.94	1.996
235.41	1.664
235.88	1.978
236.35	1.804
236.82	1.873
237.29	1.884
237.76	1.967
238.23	2.223
238.70	2.106
239.17	2.060
239.64	2.418
240.11	3.040
240.58	1.995
241.05	2.277
241.52	2.334
241.99	2.165
242.46	2.268
242.93	2.173
243.40	2.725
243.87	2.317
244.34	2.245
244.81	2.373
245.28	2.450
245.75	2.341
246.22	2.484
246.69	2.804
247.16	2.307
247.63	2.461
248.10	2.543
248.57	2.931
249.04	2.484
249.51	2.301
249.98	2.665
250.45	2.513
250.92	2.470
251.39	2.602
251.85	2.405
252.32	2.317
252.79	2.345
253.26	2.213
253.73	2.126
254.20	2.042
254.67	1.898
255.14	1.906
255.61	1.853
256.08	1.794
256.55	1.731
257.02	1.726
257.49	1.661
257.95	1.636
258.42	1.581
258.89	1.541
259.36	1.508
259.83	1.487
260.30	1.465
260.77	1.433
261.24	1.414
261.71	1.388
262.17	1.367
262.64	1.349
263.11	1.325
263.58	1.307
264.05	1.298
264.52	1.277
264.99	1.264
265.46	1.253
265.92	1.224
266.39	1.220
266.86	1.209
267.33	1.191
267.80	1.172
268.27	1.166
268.74	1.160
269.20	1.139
269.67	1.136
270.14	1.127
270.61	1.118
271.08	1.098
271.55	1.087
272.01	1.086
272.48	1.078
272.95	1.069
273.42	1.061
273.89	1.058
274.36	1.049
274.82	1.049
275.29	1.036
275.76	1.029
276.23	1.022
276.70	1.011
277.16	1.022
277.63	1.011
278.10	1.003
278.57	0.995
279.04	0.994
279.50	0.992
279.97	0.985
280.44	0.981
280.91	0.979
281.38	0.979
281.84	0.977
282.31	0.976
282.78	0.972
283.25	0.974
283.72	0.967
284.18	0.972
284.65	0.963
285.12	0.963
285.59	0.966
286.05	0.960
286.52	0.961
286.99	0.959
287.46	0.968
287.92	0.963
288.39	0.955
288.86	0.961
289.33	0.961
289.79	0.958
290.26	0.959
290.73	0.959
291.20	0.945
291.66	0.953
292.13	0.944
292.60	0.941
293.07	0.933
293.53	0.928
294.00	0.924
294.47	0.921
294.93	0.912
295.40	0.906
295.87	0.903
296.34	0.888
296.80	0.881
297.27	0.869
297.74	0.864
298.20	0.861
298.67	0.842
299.14	0.836
299.60	0.825
300.07	0.815
300.54	0.808
301.01	0.800
301.47	0.788
301.94	0.782
302.41	0.768
302.87	0.761
303.34	0.751
303.81	0.745
304.27	0.738
304.74	0.727
305.21	0.713
305.67	0.711
306.14	0.701
306.61	0.694
307.07	0.685
307.54	0.684
308.01	0.674
308.47	0.667
308.94	0.659
309.40	0.656
309.87	0.651
310.34	0.645
310.80	0.639
311.27	0.637
311.74	0.632
312.20	0.629
312.67	0.628
313.13	0.624
313.60	0.614
314.07	0.613
314.53	0.609
315.00	0.607
315.47	0.601
315.93	0.602
316.40	0.596
316.86	0.592
317.33	0.590
317.80	0.590
318.26	0.583
318.73	0.584
319.19	0.581
319.66	0.575
320.13	0.575
320.59	0.569
321.06	0.572
321.52	0.562
321.99	0.566
322.45	0.560
322.92	0.556
323.39	0.552
323.85	0.551
324.32	0.551
324.78	0.547
325.25	0.537
325.71	0.538
326.18	0.536
326.64	0.533
327.11	0.528
327.58	0.527
328.04	0.526
328.51	0.520
328.97	0.517
329.44	0.519
329.90	0.512
330.37	0.508
330.83	0.506
331.30	0.503
331.76	0.500
332.23	0.496
332.69	0.496
333.16	0.494
333.62	0.489
334.09	0.486
334.56	0.482
335.02	0.480
335.49	0.477
335.95	0.475
336.42	0.473
336.88	0.466
337.35	0.466
337.81	0.463
338.28	0.466
338.74	0.465
339.20	0.469
339.67	0.470
340.13	0.464
340.60	0.459
341.06	0.456
341.53	0.455
341.99	0.453
342.46	0.452
342.92	0.449
343.39	0.446
343.85	0.441
344.32	0.440
344.78	0.442
345.25	0.443
345.71	0.443
346.17	0.444
346.64	0.441
347.10	0.435
347.57	0.427
348.03	0.423
348.50	0.421
348.96	0.414
349.43	0.414
349.89	0.412
350.35	0.408
350.82	0.401
351.28	0.401
351.75	0.388
352.21	0.390
352.67	0.380
353.14	0.378
353.60	0.368
354.07	0.367
354.53	0.359
355.00	0.352
355.46	0.344
355.92	0.334
356.39	0.333
356.85	0.322
357.31	0.312
357.78	0.301
358.24	0.292
358.71	0.285
359.17	0.272
359.63	0.261
360.10	0.250
360.56	0.242
361.03	0.230
361.49	0.216
361.95	0.207
362.42	0.200
362.88	0.188
363.34	0.182
363.81	0.169
364.27	0.163
364.73	0.155
365.20	0.146
365.66	0.142
366.12	0.136
366.59	0.131
367.05	0.126
367.51	0.124
367.98	0.119
368.44	0.115
368.90	0.112
369.37	0.111
369.83	0.109
370.29	0.107
370.76	0.105
371.22	0.105
371.68	0.104
372.15	0.103
372.61	0.101
373.07	0.101
373.54	0.099
374.00	0.100
374.46	0.100
374.92	0.101
375.39	0.100
375.85	0.097
376.31	0.098
376.78	0.097
377.24	0.095
377.70	0.097
378.16	0.095
378.63	0.095
379.09	0.095
379.55	0.093
380.01	0.094
380.48	0.094
380.94	0.093
381.40	0.093
381.87	0.094
382.33	0.092
382.79	0.091
383.25	0.092
383.72	0.095
384.18	0.089
384.64	0.092
385.10	0.090
385.56	0.086
386.03	0.092
386.49	0.090
386.95	0.089
387.41	0.090
387.88	0.088
388.34	0.085
388.80	0.090
389.26	0.089
389.72	0.086
390.19	0.085
390.65	0.087
391.11	0.085
391.57	0.088
392.04	0.088
392.50	0.088
392.96	0.085
393.42	0.084
393.88	0.085
394.34	0.083
394.81	0.086
395.27	0.086
395.73	0.082
396.19	0.083
396.65	0.082
397.12	0.081
397.58	0.081
398.04	0.081
398.50	0.081
398.96	0.080
399.42	0.080
399.89	0.083
400.35	0.082
400.81	0.079
401.27	0.081
401.73	0.078
402.19	0.082
402.65	0.077
403.12	0.079
403.58	0.081
404.04	0.077
404.50	0.078
404.96	0.077
405.42	0.077
405.88	0.076
406.34	0.079
406.81	0.076
407.27	0.076
407.73	0.074
408.19	0.075
408.65	0.074
409.11	0.075
409.57	0.072
410.03	0.077
410.49	0.074
410.96	0.073
411.42	0.073
411.88	0.072
412.34	0.069
412.80	0.073
413.26	0.073
413.72	0.071
414.18	0.071
414.64	0.072
415.10	0.070
415.56	0.071
416.02	0.070
416.48	0.070
416.95	0.073
417.41	0.068
417.87	0.072
418.33	0.069
418.79	0.069
419.25	0.070
419.71	0.070
420.17	0.067
420.63	0.067
421.09	0.064
421.55	0.066
422.01	0.069
422.47	0.069
422.93	0.069
423.39	0.068
423.85	0.066
424.31	0.065
424.77	0.064
425.23	0.066
425.69	0.071
426.15	0.068
426.61	0.068
427.07	0.066
427.53	0.066
427.99	0.066
428.45	0.068
428.91	0.068
429.37	0.068
429.83	0.066
430.29	0.065
430.75	0.066
431.21	0.064
431.67	0.069
432.13	0.067
432.59	0.066
433.05	0.068
433.51	0.066
433.97	0.064
434.43	0.069
434.89	0.070
435.35	0.067
435.81	0.066
436.27	0.067
436.73	0.067
437.19	0.068
437.65	0.063
438.11	0.067
438.57	0.064
439.03	0.066
439.48	0.066
439.94	0.067
440.40	0.064
440.86	0.066
441.32	0.066
441.78	0.065
442.24	0.067
442.70	0.067
443.16	0.067
443.62	0.067
444.08	0.064
444.54	0.065
444.99	0.066
445.45	0.064
445.91	0.065
446.37	0.065
446.83	0.065
447.29	0.066
447.75	0.066
448.21	0.068
448.67	0.066
449.12	0.066
449.58	0.065
450.04	0.067
450.50	0.067
450.96	0.066
451.42	0.065
451.88	0.067
452.34	0.062
452.79	0.065
453.25	0.065
453.71	0.065
454.17	0.064
454.63	0.064
455.09	0.066
455.55	0.064
456.00	0.062
456.46	0.066
456.92	0.067
457.38	0.065
457.84	0.064
458.30	0.069
458.75	0.068
459.21	0.066
459.67	0.067
460.13	0.065
460.59	0.065
461.04	0.067
461.50	0.066
461.96	0.067
462.42	0.064
462.88	0.062
463.33	0.063
463.79	0.065
464.25	0.065
464.71	0.067
465.17	0.065
465.62	0.064
466.08	0.065
466.54	0.066
467.00	0.065
467.46	0.064
467.91	0.065
468.37	0.064
468.83	0.064
469.29	0.065
469.74	0.066
470.20	0.067
470.66	0.066
471.12	0.066
471.57	0.064
472.03	0.066
472.49	0.066
472.95	0.068
473.40	0.065
473.86	0.066
474.32	0.062
474.78	0.066
475.23	0.065
475.69	0.066
476.15	0.067
476.60	0.065
477.06	0.065
477.52	0.067
477.98	0.067
478.43	0.068
478.89	0.067
479.35	0.069
479.80	0.069
480.26	0.065
480.72	0.065
481.18	0.068
481.63	0.069
482.09	0.067
482.55	0.065
483.00	0.067
483.46	0.068
483.92	0.066
484.37	0.067
484.83	0.066
485.29	0.068
485.74	0.067
486.20	0.067
486.66	0.068
487.11	0.066
487.57	0.066
488.03	0.065
488.48	0.068
488.94	0.066
489.40	0.067
489.85	0.068
490.31	0.067
490.77	0.066
491.22	0.068
491.68	0.067
492.13	0.067
492.59	0.069
493.05	0.066
493.50	0.067
493.96	0.066
494.42	0.069
494.87	0.068
495.33	0.068
495.78	0.068
496.24	0.068
496.70	0.070
497.15	0.067
497.61	0.067
498.06	0.067
498.52	0.067
498.98	0.067
499.43	0.067
499.89	0.068
500.34	0.066
500.80	0.066
501.25	0.067
501.71	0.066
502.17	0.064
502.62	0.066
503.08	0.064
503.53	0.067
503.99	0.067
504.44	0.070
504.90	0.065
505.36	0.066
505.81	0.068
506.27	0.065
506.72	0.066
507.18	0.065
507.63	0.066
508.09	0.065
508.54	0.065
509.00	0.066
509.45	0.066
509.91	0.064
510.36	0.064
510.82	0.068
511.27	0.065
511.73	0.066
512.19	0.065
512.64	0.065
513.10	0.067
513.55	0.066
514.01	0.064
514.46	0.066
514.92	0.066
515.37	0.066
515.83	0.065
516.28	0.066
516.73	0.066
517.19	0.065
517.64	0.067
518.10	0.065
518.55	0.066
519.01	0.065
519.46	0.065
519.92	0.064
520.37	0.066
520.83	0.067
521.28	0.066
521.74	0.066
522.19	0.064
522.65	0.062
523.10	0.064
523.55	0.067
524.01	0.066
524.46	0.064
524.92	0.063
525.37	0.066
525.83	0.066
526.28	0.066
526.73	0.065
527.19	0.065
527.64	0.066
528.10	0.066
528.55	0.066
529.01	0.066
529.46	0.066
529.91	0.065
530.37	0.065
530.82	0.065
531.28	0.067
531.73	0.066
532.18	0.069
532.64	0.068
533.09	0.068
533.54	0.067
534.00	0.069
534.45	0.071
534.91	0.067
535.36	0.066
535.81	0.067
536.27	0.068
536.72	0.067
537.17	0.071
537.63	0.069
538.08	0.069
538.54	0.069
538.99	0.072
539.44	0.070
539.90	0.071
540.35	0.071
540.80	0.069
541.26	0.071
541.71	0.072
542.16	0.071
542.62	0.075
543.07	0.072
543.52	0.072
543.98	0.073
544.43	0.073
544.88	0.071
545.34	0.076
545.79	0.076
546.24	0.074
546.69	0.076
547.15	0.077
547.60	0.076
548.05	0.077
548.51	0.077
548.96	0.078
549.41	0.078
549.86	0.078
550.32	0.080
550.77	0.079
551.22	0.079
551.68	0.079
552.13	0.082
552.58	0.080
553.03	0.083
553.49	0.081
553.94	0.085
554.39	0.085
554.84	0.084
555.30	0.084
555.75	0.086
556.20	0.086
556.65	0.087
557.11	0.087
557.56	0.089
558.01	0.089
558.46	0.088
558.92	0.089
559.37	0.090
559.82	0.089
560.27	0.092
560.72	0.092
561.18	0.092
561.63	0.094
562.08	0.095
562.53	0.093
562.99	0.095
563.44	0.096
563.89	0.097
564.34	0.099
564.79	0.099
565.25	0.101
565.70	0.101
566.15	0.099
566.60	0.102
567.05	0.102
567.50	0.104
567.96	0.105
568.41	0.104
568.86	0.105
569.31	0.107
569.76	0.107
570.21	0.108
570.67	0.106
571.12	0.110
571.57	0.110
572.02	0.112
572.47	0.112
572.92	0.112
573.37	0.117
573.83	0.115
574.28	0.116
574.73	0.116
575.18	0.115
575.63	0.117
576.08	0.119
576.53	0.120
576.98	0.121
577.44	0.123
577.89	0.123
578.34	0.124
578.79	0.125
579.24	0.126
579.69	0.129
580.14	0.131
580.59	0.130
581.04	0.131
581.49	0.134
581.95	0.135
582.40	0.137
582.85	0.137
583.30	0.138
583.75	0.141
584.20	0.143
584.65	0.143
585.10	0.146
585.55	0.147
586.00	0.148
586.45	0.150
586.90	0.153
587.35	0.152
587.80	0.157
588.25	0.157
588.71	0.161
589.16	0.163
589.61	0.162
590.06	0.164
590.51	0.166
590.96	0.170
591.41	0.172
591.86	0.174
592.31	0.176
592.76	0.179
593.21	0.179
593.66	0.182
594.11	0.185
594.56	0.187
595.01	0.190
595.46	0.191
595.91	0.193
596.36	0.195
596.81	0.199
597.26	0.200
597.71	0.202
598.16	0.206
598.61	0.208
599.06	0.209
599.51	0.210
599.96	0.214
600.41	0.216
600.86	0.219
601.31	0.221
601.76	0.224
602.21	0.227
602.65	0.231
603.10	0.229
603.55	0.231
604.00	0.236
604.45	0.238
604.90	0.237
605.35	0.242
605.80	0.244
606.25	0.244
606.70	0.244
607.15	0.245
607.60	0.249
608.05	0.251
608.50	0.253
608.95	0.254
609.39	0.256
609.84	0.258
610.29	0.259
610.74	0.261
611.19	0.263
611.64	0.264
612.09	0.264
612.54	0.267
612.99	0.267
613.44	0.269
613.88	0.267
614.33	0.269
614.78	0.273
615.23	0.275
615.68	0.271
616.13	0.272
616.58	0.275
617.03	0.275
617.47	0.276
617.92	0.278
618.37	0.279
618.82	0.279
619.27	0.279
619.72	0.279
620.17	0.280
620.61	0.280
621.06	0.280
621.51	0.280
621.96	0.281
622.41	0.283
622.86	0.282
623.30	0.287
623.75	0.285
624.20	0.287
624.65	0.286
625.10	0.287
625.54	0.287
625.99	0.287
626.44	0.291
626.89	0.292
627.34	0.291
627.78	0.293
628.23	0.295
628.68	0.295
629.13	0.296
629.58	0.300
630.02	0.301
630.47	0.300
630.92	0.303
631.37	0.307
631.81	0.309
632.26	0.307
632.71	0.310
633.16	0.314
633.61	0.313
634.05	0.316
634.50	0.318
634.95	0.321
635.40	0.323
635.84	0.326
636.29	0.328
636.74	0.332
637.18	0.335
637.63	0.336
638.08	0.339
638.53	0.341
638.97	0.344
639.42	0.348
639.87	0.352
640.32	0.355
640.76	0.357
641.21	0.362
641.66	0.364
642.10	0.370
642.55	0.371
643.00	0.375
643.44	0.377
643.89	0.383
644.34	0.385
644.79	0.391
645.23	0.396
645.68	0.397
646.13	0.401
646.57	0.405
647.02	0.408
647.47	0.413
647.91	0.414
648.36	0.420
648.81	0.424
649.25	0.429
649.70	0.431
650.15	0.434
650.59	0.439
651.04	0.442
651.48	0.444
651.93	0.449
652.38	0.454
652.82	0.457
653.27	0.456
653.72	0.463
654.16	0.465
654.61	0.467
655.06	0.470
655.50	0.475
655.95	0.478
656.39	0.478
656.84	0.482
657.29	0.488
657.73	0.488
658.18	0.488
658.62	0.493
659.07	0.499
659.52	0.499
659.96	0.500
660.41	0.506
660.85	0.508
661.30	0.506
661.74	0.507
662.19	0.511
662.64	0.511
663.08	0.514
663.53	0.514
663.97	0.514
664.42	0.513
664.86	0.517
665.31	0.517
665.75	0.518
666.20	0.515
666.65	0.517
667.09	0.518
667.54	0.514
667.98	0.510
668.43	0.509
668.87	0.506
669.32	0.506
669.76	0.502
670.21	0.498
670.65	0.495
671.10	0.489
671.54	0.486
671.99	0.483
672.43	0.474
672.88	0.465
673.32	0.463
673.77	0.458
674.21	0.450
674.66	0.443
675.10	0.436
675.55	0.428
675.99	0.418
676.44	0.410
676.88	0.400
677.33	0.395
677.77	0.385
678.22	0.376
678.66	0.369
679.11	0.359
679.55	0.349
679.99	0.340
680.44	0.328
680.88	0.320
681.33	0.312
681.77	0.303
682.22	0.292
682.66	0.283
683.11	0.272
683.55	0.268
683.99	0.258
684.44	0.251
684.88	0.241
685.33	0.233
685.77	0.222
686.21	0.216
686.66	0.207
687.10	0.198
687.55	0.193
687.99	0.184
688.44	0.177
688.88	0.171
689.32	0.167
689.77	0.158
690.21	0.153
690.65	0.148
691.10	0.141
691.54	0.137
691.99	0.132
692.43	0.129
692.87	0.124
693.32	0.119
693.76	0.115
694.20	0.112
694.65	0.106
695.09	0.102
695.53	0.100
695.98	0.097
696.42	0.094
696.86	0.091
697.31	0.087
697.75	0.085
698.19	0.083
698.64	0.080
699.08	0.078
699.52	0.074
699.97	0.072
700.41	0.072
700.85	0.070
701.30	0.065
701.74	0.067
702.18	0.062
702.63	0.062
703.07	0.061
703.51	0.060
703.96	0.059
704.40	0.058
704.84	0.054
705.28	0.053
705.73	0.055
706.17	0.049
706.61	0.055
707.06	0.050
707.50	0.050
707.94	0.049
708.38	0.048
708.83	0.047
709.27	0.046
709.71	0.045
710.15	0.044
710.60	0.045
711.04	0.043
711.48	0.044
711.92	0.045
712.37	0.041
712.81	0.044
713.25	0.044
713.69	0.042
714.13	0.040
714.58	0.042
715.02	0.040
715.46	0.039
715.90	0.040
716.35	0.040
716.79	0.042
717.23	0.041
717.67	0.038
718.11	0.037
718.56	0.038
719.00	0.037
719.44	0.040
719.88	0.040
720.32	0.039
720.76	0.037
721.21	0.038
721.65	0.037
722.09	0.039
722.53	0.040
722.97	0.039
723.41	0.040
723.86	0.038
724.30	0.037
724.74	0.041
725.18	0.037
725.62	0.039
726.06	0.040
726.50	0.039
726.95	0.038
727.39	0.040
727.83	0.038
728.27	0.040
728.71	0.040
729.15	0.039
729.59	0.036
730.03	0.038
730.48	0.038
730.92	0.040
731.36	0.039
731.80	0.039
732.24	0.044
732.68	0.039
733.12	0.039
733.56	0.041
734.00	0.041
734.44	0.041
734.89	0.042
735.33	0.039
735.77	0.041
736.21	0.041
736.65	0.040
737.09	0.042
737.53	0.041
737.97	0.040
738.41	0.040
738.85	0.043
739.29	0.040
739.73	0.041
740.17	0.039
740.61	0.040
741.05	0.041
741.49	0.041
741.93	0.038
742.37	0.041
742.81	0.039
743.26	0.043
743.70	0.039
744.14	0.042
744.58	0.039
745.02	0.039
745.46	0.040
745.90	0.040
746.34	0.040
746.78	0.043
747.22	0.039
747.66	0.041
748.10	0.042
748.54	0.040
748.98	0.042
749.42	0.040
749.86	0.042
750.29	0.040
750.73	0.041
751.17	0.043
751.61	0.042
752.05	0.040
752.49	0.041
752.93	0.040
753.37	0.042
753.81	0.040
754.25	0.039
754.69	0.042
755.13	0.042
755.57	0.039
756.01	0.039
756.45	0.038
756.89	0.040
757.33	0.039
757.77	0.041
758.21	0.041
758.64	0.039
759.08	0.040
759.52	0.039
759.96	0.043
760.40	0.041
760.84	0.039
761.28	0.039
761.72	0.042
762.16	0.037
762.60	0.040
763.03	0.040
763.47	0.038
763.91	0.039
764.35	0.040
764.79	0.039
765.23	0.038
765.67	0.037
766.11	0.042
766.54	0.039
766.98	0.036
767.42	0.041
767.86	0.041
768.30	0.039
768.74	0.040
769.17	0.040
769.61	0.038
770.05	0.041
770.49	0.043
770.93	0.039
771.37	0.041
771.80	0.038
772.24	0.037
772.68	0.039
773.12	0.037
773.56	0.042
774.00	0.039
774.43	0.038
774.87	0.038
775.31	0.040
775.75	0.037
776.19	0.037
776.62	0.038
777.06	0.039
777.50	0.041
777.94	0.039
778.37	0.040
778.81	0.039
779.25	0.035
779.69	0.037
780.13	0.038
780.56	0.037
781.00	0.038
781.44	0.037
781.88	0.037
782.31	0.037
782.75	0.034
783.19	0.037
783.63	0.038
784.06	0.040
784.50	0.035
784.94	0.040
785.37	0.037
785.81	0.038
786.25	0.037
786.69	0.040
787.12	0.039
787.56	0.039
788.00	0.037
788.43	0.038
788.87	0.037
789.31	0.040
789.75	0.037
790.18	0.037
790.62	0.034
791.06	0.036
791.49	0.038
791.93	0.035
792.37	0.036
792.80	0.040
793.24	0.037
793.68	0.036
794.11	0.038
794.55	0.039
794.99	0.035
795.42	0.038
795.86	0.042
796.30	0.038
796.73	0.032
797.17	0.035
797.61	0.037
798.04	0.039
798.48	0.036
798.91	0.039
799.35	0.038
799.79	0.038
800.22	0.038
800.66	0.040
801.10	0.037
801.53	0.039
801.97	0.038
802.40	0.035
802.84	0.031
803.28	0.032
803.71	0.036
804.15	0.040
804.58	0.038
805.02	0.038
805.46	0.034
805.89	0.039
806.33	0.040
806.76	0.035
807.20	0.040
807.63	0.037
808.07	0.036
808.51	0.039
808.94	0.039
809.38	0.036
809.81	0.039
810.25	0.037
810.68	0.036
811.12	0.038
811.55	0.037
811.99	0.036
812.42	0.038
812.86	0.039
813.29	0.038
813.73	0.035
814.17	0.031
814.60	0.033
815.04	0.036
815.47	0.036
815.91	0.037
816.34	0.035
816.78	0.039
817.21	0.037
