SpectraSuite Data File
++++++++++++++++++++++++++++++++++++
Date: Wed May 04 15:07:34 CEST 2016
User: spectrasuite
Dark Spectrum Present: Yes
Reference Spectrum Present: Yes
Number of Sampled Component Spectra: 1
Spectrometers: HR+C0708
Integration Time (usec): 1000 (HR+C0708)
Spectra Averaged: 10 (HR+C0708)
Boxcar Smoothing: 0 (HR+C0708)
Correct for Electrical Dark: No (HR+C0708)
Strobe/Lamp Enabled: No (HR+C0708)
Correct for Detector Non-linearity: No (HR+C0708)
Correct for Stray Light: No (HR+C0708)
Number of Pixels in Processed Spectrum: 2048
>>>>>Begin Processed Spectral Data<<<<<
188.76	-0.000
189.23	-0.000
189.70	-0.000
190.17	-0.000
190.64	-0.000
191.12	-0.000
191.59	-0.000
192.06	-0.000
192.53	-0.000
193.01	-0.000
193.48	-0.000
193.95	-0.000
194.42	-0.000
194.90	-0.000
195.37	-0.000
195.84	-0.000
196.31	-0.000
196.78	-0.000
197.26	-0.000
197.73	-0.000
198.20	-0.000
198.67	-0.000
199.14	-0.000
199.62	-0.000
200.09	-0.000
200.56	-0.000
201.03	-0.000
201.50	0.728
201.97	0.812
202.45	-0.000
202.92	-0.000
203.39	1.061
203.86	1.973
204.33	2.310
204.80	1.134
205.28	0.951
205.75	-0.000
206.22	-0.000
206.69	1.280
207.16	-0.000
207.63	-0.000
208.11	0.858
208.58	-0.000
209.05	-0.000
209.52	2.367
209.99	1.076
210.46	0.818
210.93	-0.000
211.41	1.014
211.88	1.304
212.35	-0.000
212.82	-0.000
213.29	1.186
213.76	1.136
214.23	-0.000
214.70	1.191
215.18	1.062
215.65	0.666
216.12	0.962
216.59	0.858
217.06	0.657
217.53	1.412
218.00	0.941
218.47	1.407
218.94	-0.000
219.41	1.043
219.89	1.107
220.36	0.709
220.83	0.863
221.30	-0.000
221.77	0.853
222.24	0.805
222.71	1.211
223.18	1.428
223.65	0.631
224.12	1.227
224.59	1.305
225.06	1.310
225.54	1.060
226.01	1.036
226.48	1.609
226.95	-0.000
227.42	1.141
227.89	-0.000
228.36	-0.000
228.83	1.430
229.30	1.933
229.77	1.645
230.24	1.388
230.71	1.433
231.18	1.849
231.65	3.319
232.12	1.927
232.59	2.693
233.06	2.114
233.53	-0.000
234.00	1.931
234.47	2.298
234.94	2.760
235.41	2.213
235.88	2.076
236.35	3.055
236.82	2.589
237.29	2.128
237.76	2.436
238.23	2.409
238.70	-0.000
239.17	2.436
239.64	-0.000
240.11	2.792
240.58	2.207
241.05	2.775
241.52	3.109
241.99	2.410
242.46	2.375
242.93	2.520
243.40	-0.000
243.87	2.655
244.34	2.362
244.81	2.690
245.28	2.695
245.75	2.462
246.22	2.881
246.69	4.060
247.16	2.704
247.63	2.589
248.10	2.909
248.57	-0.000
249.04	2.833
249.51	2.477
249.98	3.627
250.45	2.951
250.92	2.631
251.39	2.370
251.85	2.384
252.32	2.102
252.79	2.064
253.26	1.908
253.73	1.800
254.20	1.683
254.67	1.583
255.14	1.536
255.61	1.440
256.08	1.379
256.55	1.316
257.02	1.273
257.49	1.221
257.95	1.180
258.42	1.149
258.89	1.106
259.36	1.077
259.83	1.045
260.30	1.024
260.77	0.998
261.24	0.971
261.71	0.960
262.17	0.936
262.64	0.916
263.11	0.897
263.58	0.888
264.05	0.870
264.52	0.855
264.99	0.839
265.46	0.827
265.92	0.812
266.39	0.796
266.86	0.788
267.33	0.779
267.80	0.769
268.27	0.763
268.74	0.747
269.20	0.739
269.67	0.736
270.14	0.726
270.61	0.717
271.08	0.710
271.55	0.698
272.01	0.695
272.48	0.684
272.95	0.682
273.42	0.672
273.89	0.666
274.36	0.660
274.82	0.659
275.29	0.650
275.76	0.647
276.23	0.643
276.70	0.639
277.16	0.633
277.63	0.630
278.10	0.626
278.57	0.625
279.04	0.624
279.50	0.623
279.97	0.610
280.44	0.615
280.91	0.613
281.38	0.608
281.84	0.610
282.31	0.605
282.78	0.604
283.25	0.609
283.72	0.607
284.18	0.604
284.65	0.604
285.12	0.605
285.59	0.604
286.05	0.602
286.52	0.603
286.99	0.604
287.46	0.605
287.92	0.600
288.39	0.599
288.86	0.602
289.33	0.602
289.79	0.600
290.26	0.597
290.73	0.601
291.20	0.595
291.66	0.591
292.13	0.591
292.60	0.586
293.07	0.585
293.53	0.580
294.00	0.573
294.47	0.573
294.93	0.564
295.40	0.557
295.87	0.555
296.34	0.544
296.80	0.541
297.27	0.528
297.74	0.521
298.20	0.516
298.67	0.507
299.14	0.498
299.60	0.490
300.07	0.482
300.54	0.475
301.01	0.468
301.47	0.458
301.94	0.451
302.41	0.443
302.87	0.437
303.34	0.429
303.81	0.421
304.27	0.416
304.74	0.410
305.21	0.398
305.67	0.395
306.14	0.389
306.61	0.385
307.07	0.374
307.54	0.374
308.01	0.364
308.47	0.362
308.94	0.355
309.40	0.355
309.87	0.353
310.34	0.344
310.80	0.342
311.27	0.339
311.74	0.335
312.20	0.330
312.67	0.329
313.13	0.324
313.60	0.323
314.07	0.319
314.53	0.317
315.00	0.314
315.47	0.313
315.93	0.312
316.40	0.308
316.86	0.307
317.33	0.305
317.80	0.306
318.26	0.303
318.73	0.302
319.19	0.303
319.66	0.297
320.13	0.294
320.59	0.299
321.06	0.295
321.52	0.292
321.99	0.293
322.45	0.292
322.92	0.288
323.39	0.287
323.85	0.286
324.32	0.287
324.78	0.284
325.25	0.282
325.71	0.280
326.18	0.278
326.64	0.277
327.11	0.277
327.58	0.272
328.04	0.278
328.51	0.272
328.97	0.272
329.44	0.270
329.90	0.269
330.37	0.265
330.83	0.265
331.30	0.264
331.76	0.261
332.23	0.259
332.69	0.257
333.16	0.257
333.62	0.253
334.09	0.250
334.56	0.248
335.02	0.246
335.49	0.244
335.95	0.241
336.42	0.242
336.88	0.238
337.35	0.236
337.81	0.236
338.28	0.237
338.74	0.235
339.20	0.236
339.67	0.233
340.13	0.234
340.60	0.233
341.06	0.229
341.53	0.226
341.99	0.224
342.46	0.225
342.92	0.222
343.39	0.221
343.85	0.218
344.32	0.218
344.78	0.219
345.25	0.219
345.71	0.218
346.17	0.219
346.64	0.223
347.10	0.217
347.57	0.213
348.03	0.211
348.50	0.211
348.96	0.211
349.43	0.210
349.89	0.212
350.35	0.212
350.82	0.208
351.28	0.214
351.75	0.210
352.21	0.210
352.67	0.209
353.14	0.208
353.60	0.203
354.07	0.201
354.53	0.201
355.00	0.201
355.46	0.199
355.92	0.199
356.39	0.201
356.85	0.196
357.31	0.193
357.78	0.191
358.24	0.192
358.71	0.195
359.17	0.193
359.63	0.190
360.10	0.191
360.56	0.187
361.03	0.188
361.49	0.188
361.95	0.189
362.42	0.187
362.88	0.187
363.34	0.187
363.81	0.187
364.27	0.186
364.73	0.186
365.20	0.186
365.66	0.182
366.12	0.183
366.59	0.184
367.05	0.184
367.51	0.183
367.98	0.179
368.44	0.181
368.90	0.178
369.37	0.181
369.83	0.181
370.29	0.179
370.76	0.176
371.22	0.176
371.68	0.179
372.15	0.177
372.61	0.173
373.07	0.176
373.54	0.175
374.00	0.174
374.46	0.177
374.92	0.173
375.39	0.176
375.85	0.175
376.31	0.176
376.78	0.174
377.24	0.173
377.70	0.174
378.16	0.173
378.63	0.175
379.09	0.173
379.55	0.173
380.01	0.175
380.48	0.172
380.94	0.174
381.40	0.170
381.87	0.175
382.33	0.169
382.79	0.168
383.25	0.171
383.72	0.174
384.18	0.171
384.64	0.172
385.10	0.169
385.56	0.168
386.03	0.170
386.49	0.169
386.95	0.169
387.41	0.168
387.88	0.164
388.34	0.168
388.80	0.168
389.26	0.166
389.72	0.168
390.19	0.167
390.65	0.162
391.11	0.163
391.57	0.167
392.04	0.165
392.50	0.166
392.96	0.163
393.42	0.163
393.88	0.167
394.34	0.163
394.81	0.164
395.27	0.163
395.73	0.159
396.19	0.163
396.65	0.161
397.12	0.160
397.58	0.158
398.04	0.161
398.50	0.162
398.96	0.162
399.42	0.161
399.89	0.163
400.35	0.163
400.81	0.160
401.27	0.161
401.73	0.159
402.19	0.157
402.65	0.157
403.12	0.161
403.58	0.158
404.04	0.154
404.50	0.156
404.96	0.156
405.42	0.155
405.88	0.156
406.34	0.159
406.81	0.157
407.27	0.154
407.73	0.153
408.19	0.153
408.65	0.152
409.11	0.153
409.57	0.150
410.03	0.155
410.49	0.154
410.96	0.152
411.42	0.151
411.88	0.151
412.34	0.146
412.80	0.149
413.26	0.150
413.72	0.151
414.18	0.148
414.64	0.149
415.10	0.150
415.56	0.151
416.02	0.149
416.48	0.148
416.95	0.149
417.41	0.149
417.87	0.150
418.33	0.146
418.79	0.145
419.25	0.150
419.71	0.147
420.17	0.146
420.63	0.143
421.09	0.144
421.55	0.145
422.01	0.146
422.47	0.150
422.93	0.150
423.39	0.145
423.85	0.144
424.31	0.145
424.77	0.144
425.23	0.145
425.69	0.149
426.15	0.149
426.61	0.146
427.07	0.141
427.53	0.143
427.99	0.143
428.45	0.147
428.91	0.142
429.37	0.142
429.83	0.144
430.29	0.145
430.75	0.147
431.21	0.147
431.67	0.150
432.13	0.146
432.59	0.140
433.05	0.144
433.51	0.141
433.97	0.140
434.43	0.147
434.89	0.146
435.35	0.143
435.81	0.143
436.27	0.142
436.73	0.144
437.19	0.145
437.65	0.140
438.11	0.144
438.57	0.143
439.03	0.141
439.48	0.144
439.94	0.145
440.40	0.141
440.86	0.141
441.32	0.141
441.78	0.141
442.24	0.144
442.70	0.144
443.16	0.140
443.62	0.142
444.08	0.139
444.54	0.141
444.99	0.140
445.45	0.139
445.91	0.139
446.37	0.141
446.83	0.139
447.29	0.138
447.75	0.138
448.21	0.143
448.67	0.140
449.12	0.140
449.58	0.137
450.04	0.140
450.50	0.139
450.96	0.139
451.42	0.140
451.88	0.141
452.34	0.138
452.79	0.138
453.25	0.138
453.71	0.137
454.17	0.138
454.63	0.138
455.09	0.137
455.55	0.138
456.00	0.136
456.46	0.138
456.92	0.140
457.38	0.135
457.84	0.138
458.30	0.138
458.75	0.136
459.21	0.136
459.67	0.135
460.13	0.136
460.59	0.137
461.04	0.135
461.50	0.137
461.96	0.136
462.42	0.135
462.88	0.137
463.33	0.136
463.79	0.137
464.25	0.137
464.71	0.139
465.17	0.137
465.62	0.135
466.08	0.136
466.54	0.139
467.00	0.137
467.46	0.138
467.91	0.140
468.37	0.137
468.83	0.139
469.29	0.137
469.74	0.138
470.20	0.137
470.66	0.136
471.12	0.137
471.57	0.135
472.03	0.138
472.49	0.139
472.95	0.138
473.40	0.138
473.86	0.138
474.32	0.136
474.78	0.136
475.23	0.139
475.69	0.136
476.15	0.140
476.60	0.139
477.06	0.138
477.52	0.137
477.98	0.138
478.43	0.139
478.89	0.137
479.35	0.142
479.80	0.138
480.26	0.137
480.72	0.137
481.18	0.136
481.63	0.137
482.09	0.136
482.55	0.135
483.00	0.135
483.46	0.137
483.92	0.136
484.37	0.137
484.83	0.136
485.29	0.137
485.74	0.134
486.20	0.136
486.66	0.135
487.11	0.135
487.57	0.134
488.03	0.135
488.48	0.136
488.94	0.134
489.40	0.136
489.85	0.137
490.31	0.137
490.77	0.135
491.22	0.137
491.68	0.136
492.13	0.136
492.59	0.137
493.05	0.135
493.50	0.135
493.96	0.134
494.42	0.138
494.87	0.137
495.33	0.134
495.78	0.134
496.24	0.137
496.70	0.137
497.15	0.136
497.61	0.135
498.06	0.134
498.52	0.136
498.98	0.134
499.43	0.132
499.89	0.136
500.34	0.134
500.80	0.135
501.25	0.133
501.71	0.133
502.17	0.134
502.62	0.133
503.08	0.132
503.53	0.131
503.99	0.133
504.44	0.134
504.90	0.132
505.36	0.133
505.81	0.132
506.27	0.132
506.72	0.132
507.18	0.133
507.63	0.130
508.09	0.132
508.54	0.130
509.00	0.134
509.45	0.132
509.91	0.131
510.36	0.133
510.82	0.133
511.27	0.131
511.73	0.134
512.19	0.133
512.64	0.131
513.10	0.133
513.55	0.132
514.01	0.133
514.46	0.132
514.92	0.132
515.37	0.134
515.83	0.132
516.28	0.131
516.73	0.131
517.19	0.131
517.64	0.131
518.10	0.135
518.55	0.131
519.01	0.131
519.46	0.130
519.92	0.131
520.37	0.130
520.83	0.133
521.28	0.128
521.74	0.131
522.19	0.131
522.65	0.131
523.10	0.130
523.55	0.132
524.01	0.132
524.46	0.129
524.92	0.129
525.37	0.133
525.83	0.130
526.28	0.131
526.73	0.131
527.19	0.130
527.64	0.131
528.10	0.130
528.55	0.131
529.01	0.131
529.46	0.131
529.91	0.132
530.37	0.131
530.82	0.131
531.28	0.131
531.73	0.130
532.18	0.132
532.64	0.131
533.09	0.132
533.54	0.130
534.00	0.132
534.45	0.133
534.91	0.131
535.36	0.131
535.81	0.130
536.27	0.132
536.72	0.131
537.17	0.132
537.63	0.131
538.08	0.135
538.54	0.133
538.99	0.135
539.44	0.132
539.90	0.134
540.35	0.134
540.80	0.131
541.26	0.133
541.71	0.134
542.16	0.135
542.62	0.135
543.07	0.137
543.52	0.134
543.98	0.132
544.43	0.136
544.88	0.134
545.34	0.136
545.79	0.136
546.24	0.138
546.69	0.134
547.15	0.137
547.60	0.138
548.05	0.137
548.51	0.138
548.96	0.138
549.41	0.139
549.86	0.139
550.32	0.143
550.77	0.139
551.22	0.139
551.68	0.140
552.13	0.141
552.58	0.140
553.03	0.141
553.49	0.143
553.94	0.141
554.39	0.142
554.84	0.145
555.30	0.143
555.75	0.144
556.20	0.144
556.65	0.145
557.11	0.146
557.56	0.145
558.01	0.148
558.46	0.148
558.92	0.148
559.37	0.150
559.82	0.148
560.27	0.148
560.72	0.148
561.18	0.148
561.63	0.152
562.08	0.152
562.53	0.150
562.99	0.151
563.44	0.154
563.89	0.153
564.34	0.153
564.79	0.156
565.25	0.156
565.70	0.157
566.15	0.156
566.60	0.158
567.05	0.158
567.50	0.161
567.96	0.159
568.41	0.161
568.86	0.160
569.31	0.162
569.76	0.162
570.21	0.164
570.67	0.161
571.12	0.164
571.57	0.165
572.02	0.166
572.47	0.166
572.92	0.166
573.37	0.170
573.83	0.169
574.28	0.170
574.73	0.170
575.18	0.171
575.63	0.170
576.08	0.171
576.53	0.172
576.98	0.173
577.44	0.175
577.89	0.174
578.34	0.178
578.79	0.177
579.24	0.177
579.69	0.179
580.14	0.180
580.59	0.182
581.04	0.184
581.49	0.184
581.95	0.186
582.40	0.188
582.85	0.189
583.30	0.189
583.75	0.192
584.20	0.192
584.65	0.194
585.10	0.195
585.55	0.197
586.00	0.198
586.45	0.197
586.90	0.200
587.35	0.200
587.80	0.203
588.25	0.206
588.71	0.206
589.16	0.210
589.61	0.209
590.06	0.212
590.51	0.213
590.96	0.215
591.41	0.218
591.86	0.218
592.31	0.220
592.76	0.223
593.21	0.222
593.66	0.226
594.11	0.229
594.56	0.229
595.01	0.231
595.46	0.234
595.91	0.237
596.36	0.237
596.81	0.241
597.26	0.240
597.71	0.241
598.16	0.246
598.61	0.248
599.06	0.248
599.51	0.250
599.96	0.252
600.41	0.255
600.86	0.255
601.31	0.257
601.76	0.262
602.21	0.263
602.65	0.266
603.10	0.267
603.55	0.268
604.00	0.271
604.45	0.270
604.90	0.272
605.35	0.277
605.80	0.277
606.25	0.277
606.70	0.281
607.15	0.280
607.60	0.283
608.05	0.285
608.50	0.286
608.95	0.287
609.39	0.286
609.84	0.290
610.29	0.292
610.74	0.293
611.19	0.293
611.64	0.294
612.09	0.298
612.54	0.295
612.99	0.296
613.44	0.297
613.88	0.297
614.33	0.298
614.78	0.302
615.23	0.302
615.68	0.303
616.13	0.302
616.58	0.304
617.03	0.305
617.47	0.307
617.92	0.307
618.37	0.307
618.82	0.307
619.27	0.309
619.72	0.309
620.17	0.310
620.61	0.310
621.06	0.312
621.51	0.310
621.96	0.310
622.41	0.311
622.86	0.312
623.30	0.313
623.75	0.312
624.20	0.313
624.65	0.315
625.10	0.315
625.54	0.317
625.99	0.316
626.44	0.322
626.89	0.321
627.34	0.321
627.78	0.320
628.23	0.321
628.68	0.323
629.13	0.323
629.58	0.325
630.02	0.330
630.47	0.331
630.92	0.329
631.37	0.332
631.81	0.335
632.26	0.334
632.71	0.337
633.16	0.338
633.61	0.341
634.05	0.343
634.50	0.344
634.95	0.347
635.40	0.350
635.84	0.350
636.29	0.354
636.74	0.357
637.18	0.358
637.63	0.360
638.08	0.363
638.53	0.363
638.97	0.366
639.42	0.370
639.87	0.373
640.32	0.378
640.76	0.378
641.21	0.383
641.66	0.383
642.10	0.388
642.55	0.390
643.00	0.391
643.44	0.397
643.89	0.397
644.34	0.400
644.79	0.405
645.23	0.408
645.68	0.410
646.13	0.413
646.57	0.417
647.02	0.421
647.47	0.425
647.91	0.425
648.36	0.427
648.81	0.432
649.25	0.435
649.70	0.437
650.15	0.440
650.59	0.446
651.04	0.450
651.48	0.451
651.93	0.453
652.38	0.459
652.82	0.460
653.27	0.459
653.72	0.465
654.16	0.466
654.61	0.470
655.06	0.470
655.50	0.474
655.95	0.473
656.39	0.472
656.84	0.481
657.29	0.485
657.73	0.485
658.18	0.486
658.62	0.487
659.07	0.491
659.52	0.494
659.96	0.494
660.41	0.496
660.85	0.499
661.30	0.499
661.74	0.500
662.19	0.502
662.64	0.501
663.08	0.501
663.53	0.503
663.97	0.505
664.42	0.501
664.86	0.501
665.31	0.505
665.75	0.502
666.20	0.501
666.65	0.499
667.09	0.498
667.54	0.499
667.98	0.496
668.43	0.495
668.87	0.491
669.32	0.489
669.76	0.486
670.21	0.484
670.65	0.481
671.10	0.477
671.54	0.473
671.99	0.469
672.43	0.462
672.88	0.461
673.32	0.453
673.77	0.448
674.21	0.440
674.66	0.434
675.10	0.428
675.55	0.420
675.99	0.413
676.44	0.405
676.88	0.401
677.33	0.393
677.77	0.386
678.22	0.378
678.66	0.371
679.11	0.363
679.55	0.354
679.99	0.345
680.44	0.339
680.88	0.331
681.33	0.323
681.77	0.314
682.22	0.306
682.66	0.299
683.11	0.292
683.55	0.287
683.99	0.279
684.44	0.271
684.88	0.264
685.33	0.257
685.77	0.246
686.21	0.245
686.66	0.236
687.10	0.229
687.55	0.225
687.99	0.217
688.44	0.211
688.88	0.203
689.32	0.200
689.77	0.195
690.21	0.191
690.65	0.187
691.10	0.181
691.54	0.177
691.99	0.173
692.43	0.169
692.87	0.166
693.32	0.160
693.76	0.156
694.20	0.153
694.65	0.151
695.09	0.146
695.53	0.143
695.98	0.142
696.42	0.140
696.86	0.137
697.31	0.134
697.75	0.132
698.19	0.131
698.64	0.128
699.08	0.127
699.52	0.125
699.97	0.125
700.41	0.120
700.85	0.121
701.30	0.115
701.74	0.117
702.18	0.112
702.63	0.112
703.07	0.111
703.51	0.110
703.96	0.108
704.40	0.107
704.84	0.109
705.28	0.106
705.73	0.106
706.17	0.105
706.61	0.105
707.06	0.101
707.50	0.103
707.94	0.102
708.38	0.101
708.83	0.100
709.27	0.099
709.71	0.099
710.15	0.097
710.60	0.098
711.04	0.094
711.48	0.097
711.92	0.096
712.37	0.095
712.81	0.095
713.25	0.096
713.69	0.093
714.13	0.094
714.58	0.095
715.02	0.093
715.46	0.091
715.90	0.092
716.35	0.093
716.79	0.093
717.23	0.093
717.67	0.092
718.11	0.090
718.56	0.093
719.00	0.092
719.44	0.092
719.88	0.091
720.32	0.092
720.76	0.091
721.21	0.094
721.65	0.091
722.09	0.090
722.53	0.091
722.97	0.091
723.41	0.093
723.86	0.089
724.30	0.090
724.74	0.092
725.18	0.089
725.62	0.089
726.06	0.091
726.50	0.094
726.95	0.092
727.39	0.093
727.83	0.091
728.27	0.095
728.71	0.093
729.15	0.092
729.59	0.088
730.03	0.093
730.48	0.092
730.92	0.094
731.36	0.091
731.80	0.093
732.24	0.094
732.68	0.094
733.12	0.094
733.56	0.093
734.00	0.093
734.44	0.093
734.89	0.094
735.33	0.092
735.77	0.094
736.21	0.093
736.65	0.094
737.09	0.096
737.53	0.095
737.97	0.096
738.41	0.093
738.85	0.094
739.29	0.093
739.73	0.095
740.17	0.092
740.61	0.092
741.05	0.097
741.49	0.094
741.93	0.095
742.37	0.095
742.81	0.095
743.26	0.095
743.70	0.092
744.14	0.094
744.58	0.093
745.02	0.092
745.46	0.094
745.90	0.090
746.34	0.092
746.78	0.094
747.22	0.093
747.66	0.092
748.10	0.094
748.54	0.094
748.98	0.094
749.42	0.095
749.86	0.093
750.29	0.094
750.73	0.094
751.17	0.092
751.61	0.095
752.05	0.092
752.49	0.093
752.93	0.093
753.37	0.092
753.81	0.091
754.25	0.092
754.69	0.093
755.13	0.095
755.57	0.092
756.01	0.090
756.45	0.089
756.89	0.091
757.33	0.093
757.77	0.093
758.21	0.094
758.64	0.090
759.08	0.092
759.52	0.091
759.96	0.093
760.40	0.091
760.84	0.089
761.28	0.090
761.72	0.091
762.16	0.090
762.60	0.089
763.03	0.093
763.47	0.090
763.91	0.091
764.35	0.090
764.79	0.090
765.23	0.091
765.67	0.089
766.11	0.094
766.54	0.091
766.98	0.089
767.42	0.092
767.86	0.094
768.30	0.089
768.74	0.089
769.17	0.092
769.61	0.091
770.05	0.090
770.49	0.095
770.93	0.089
771.37	0.093
771.80	0.090
772.24	0.088
772.68	0.091
773.12	0.090
773.56	0.092
774.00	0.092
774.43	0.090
774.87	0.088
775.31	0.093
775.75	0.090
776.19	0.089
776.62	0.092
777.06	0.088
777.50	0.090
777.94	0.089
778.37	0.091
778.81	0.091
779.25	0.089
779.69	0.089
780.13	0.092
780.56	0.087
781.00	0.088
781.44	0.090
781.88	0.089
782.31	0.087
782.75	0.088
783.19	0.089
783.63	0.089
784.06	0.090
784.50	0.087
784.94	0.089
785.37	0.088
785.81	0.088
786.25	0.086
786.69	0.093
787.12	0.090
787.56	0.089
788.00	0.092
788.43	0.089
788.87	0.090
789.31	0.091
789.75	0.091
790.18	0.089
790.62	0.089
791.06	0.089
791.49	0.092
791.93	0.087
792.37	0.085
792.80	0.091
793.24	0.090
793.68	0.091
794.11	0.088
794.55	0.089
794.99	0.088
795.42	0.092
795.86	0.094
796.30	0.090
796.73	0.089
797.17	0.086
797.61	0.092
798.04	0.090
798.48	0.089
798.91	0.091
799.35	0.091
799.79	0.089
800.22	0.090
800.66	0.088
801.10	0.091
801.53	0.095
801.97	0.088
802.40	0.088
802.84	0.087
803.28	0.089
803.71	0.089
804.15	0.090
804.58	0.093
805.02	0.087
805.46	0.089
805.89	0.086
806.33	0.089
806.76	0.090
807.20	0.092
807.63	0.093
808.07	0.088
808.51	0.087
808.94	0.088
809.38	0.090
809.81	0.090
810.25	0.087
810.68	0.089
811.12	0.088
811.55	0.088
811.99	0.088
812.42	0.088
812.86	0.091
813.29	0.091
813.73	0.089
814.17	0.080
814.60	0.088
815.04	0.085
815.47	0.087
815.91	0.085
816.34	0.087
