SpectraSuite Data File
++++++++++++++++++++++++++++++++++++
Date: Wed May 04 16:55:25 CEST 2016
User: spectrasuite
Dark Spectrum Present: Yes
Reference Spectrum Present: Yes
Number of Sampled Component Spectra: 1
Spectrometers: HR+C0708
Integration Time (usec): 1000 (HR+C0708)
Spectra Averaged: 10 (HR+C0708)
Boxcar Smoothing: 0 (HR+C0708)
Correct for Electrical Dark: No (HR+C0708)
Strobe/Lamp Enabled: No (HR+C0708)
Correct for Detector Non-linearity: No (HR+C0708)
Correct for Stray Light: No (HR+C0708)
Number of Pixels in Processed Spectrum: 2048
>>>>>Begin Processed Spectral Data<<<<<
188.76	-0.000
189.23	-0.000
189.70	-0.000
190.17	-0.000
190.64	-0.000
191.12	-0.000
191.59	-0.000
192.06	-0.000
192.53	-0.000
193.01	-0.000
193.48	-0.000
193.95	-0.000
194.42	-0.000
194.90	-0.000
195.37	-0.000
195.84	-0.000
196.31	-0.000
196.78	-0.000
197.26	-0.000
197.73	-0.000
198.20	-0.000
198.67	-0.000
199.14	-0.000
199.62	-0.000
200.09	-0.000
200.56	-0.000
201.03	-0.000
201.50	-0.000
201.97	-0.000
202.45	-0.000
202.92	-0.000
203.39	-0.000
203.86	-0.000
204.33	-0.000
204.80	-0.000
205.28	-0.000
205.75	-0.000
206.22	-0.000
206.69	-0.000
207.16	-0.000
207.63	-0.000
208.11	-0.000
208.58	-0.000
209.05	-0.000
209.52	-0.000
209.99	-0.000
210.46	1.339
210.93	-0.000
211.41	-0.000
211.88	1.225
212.35	-0.000
212.82	-0.000
213.29	-0.000
213.76	-0.000
214.23	-0.000
214.70	-0.000
215.18	-0.000
215.65	-0.000
216.12	-0.000
216.59	-0.000
217.06	1.045
217.53	-0.000
218.00	-0.000
218.47	1.273
218.94	-0.000
219.41	1.122
219.89	-0.000
220.36	1.416
220.83	-0.000
221.30	-0.000
221.77	-0.000
222.24	2.092
222.71	-0.000
223.18	-0.000
223.65	1.148
224.12	1.569
224.59	-0.000
225.06	-0.000
225.54	1.221
226.01	-0.000
226.48	-0.000
226.95	-0.000
227.42	-0.000
227.89	-0.000
228.36	-0.000
228.83	-0.000
229.30	-0.000
229.77	-0.000
230.24	1.768
230.71	3.516
231.18	-0.000
231.65	-0.000
232.12	-0.000
232.59	-0.000
233.06	-0.000
233.53	-0.000
234.00	-0.000
234.47	-0.000
234.94	-0.000
235.41	2.138
235.88	-0.000
236.35	2.982
236.82	-0.000
237.29	2.734
237.76	3.369
238.23	-0.000
238.70	-0.000
239.17	-0.000
239.64	-0.000
240.11	-0.000
240.58	2.742
241.05	-0.000
241.52	-0.000
241.99	2.677
242.46	3.345
242.93	2.825
243.40	-0.000
243.87	-0.000
244.34	3.209
244.81	-0.000
245.28	-0.000
245.75	3.793
246.22	-0.000
246.69	-0.000
247.16	2.797
247.63	2.994
248.10	3.188
248.57	-0.000
249.04	2.972
249.51	3.000
249.98	-0.000
250.45	-0.000
250.92	3.031
251.39	2.736
251.85	2.679
252.32	2.260
252.79	2.112
253.26	1.935
253.73	1.844
254.20	1.705
254.67	1.620
255.14	1.555
255.61	1.462
256.08	1.403
256.55	1.331
257.02	1.277
257.49	1.223
257.95	1.184
258.42	1.143
258.89	1.106
259.36	1.075
259.83	1.045
260.30	1.026
260.77	0.997
261.24	0.970
261.71	0.947
262.17	0.931
262.64	0.913
263.11	0.886
263.58	0.876
264.05	0.863
264.52	0.844
264.99	0.829
265.46	0.823
265.92	0.808
266.39	0.792
266.86	0.780
267.33	0.770
267.80	0.760
268.27	0.748
268.74	0.737
269.20	0.726
269.67	0.720
270.14	0.705
270.61	0.704
271.08	0.694
271.55	0.682
272.01	0.678
272.48	0.668
272.95	0.659
273.42	0.658
273.89	0.652
274.36	0.645
274.82	0.637
275.29	0.632
275.76	0.629
276.23	0.625
276.70	0.614
277.16	0.616
277.63	0.607
278.10	0.599
278.57	0.599
279.04	0.599
279.50	0.593
279.97	0.590
280.44	0.590
280.91	0.586
281.38	0.582
281.84	0.580
282.31	0.577
282.78	0.576
283.25	0.573
283.72	0.572
284.18	0.569
284.65	0.569
285.12	0.568
285.59	0.569
286.05	0.566
286.52	0.569
286.99	0.568
287.46	0.566
287.92	0.564
288.39	0.558
288.86	0.561
289.33	0.561
289.79	0.557
290.26	0.556
290.73	0.555
291.20	0.550
291.66	0.547
292.13	0.549
292.60	0.543
293.07	0.538
293.53	0.533
294.00	0.528
294.47	0.527
294.93	0.522
295.40	0.514
295.87	0.512
296.34	0.502
296.80	0.495
297.27	0.483
297.74	0.481
298.20	0.477
298.67	0.465
299.14	0.459
299.60	0.452
300.07	0.446
300.54	0.438
301.01	0.431
301.47	0.423
301.94	0.417
302.41	0.409
302.87	0.402
303.34	0.396
303.81	0.389
304.27	0.387
304.74	0.379
305.21	0.368
305.67	0.362
306.14	0.361
306.61	0.354
307.07	0.347
307.54	0.347
308.01	0.340
308.47	0.333
308.94	0.328
309.40	0.327
309.87	0.326
310.34	0.322
310.80	0.315
311.27	0.312
311.74	0.311
312.20	0.306
312.67	0.303
313.13	0.298
313.60	0.297
314.07	0.296
314.53	0.291
315.00	0.288
315.47	0.288
315.93	0.287
316.40	0.283
316.86	0.280
317.33	0.280
317.80	0.280
318.26	0.279
318.73	0.279
319.19	0.277
319.66	0.271
320.13	0.271
320.59	0.270
321.06	0.272
321.52	0.268
321.99	0.268
322.45	0.266
322.92	0.265
323.39	0.264
323.85	0.261
324.32	0.260
324.78	0.257
325.25	0.254
325.71	0.255
326.18	0.254
326.64	0.251
327.11	0.249
327.58	0.249
328.04	0.251
328.51	0.245
328.97	0.244
329.44	0.243
329.90	0.240
330.37	0.236
330.83	0.237
331.30	0.236
331.76	0.234
332.23	0.233
332.69	0.232
333.16	0.231
333.62	0.228
334.09	0.227
334.56	0.224
335.02	0.222
335.49	0.219
335.95	0.217
336.42	0.217
336.88	0.212
337.35	0.212
337.81	0.210
338.28	0.210
338.74	0.210
339.20	0.210
339.67	0.211
340.13	0.209
340.60	0.206
341.06	0.204
341.53	0.199
341.99	0.198
342.46	0.199
342.92	0.198
343.39	0.194
343.85	0.193
344.32	0.193
344.78	0.193
345.25	0.196
345.71	0.195
346.17	0.195
346.64	0.197
347.10	0.195
347.57	0.186
348.03	0.186
348.50	0.186
348.96	0.188
349.43	0.185
349.89	0.186
350.35	0.189
350.82	0.186
351.28	0.186
351.75	0.185
352.21	0.187
352.67	0.184
353.14	0.182
353.60	0.179
354.07	0.180
354.53	0.175
355.00	0.174
355.46	0.174
355.92	0.173
356.39	0.173
356.85	0.168
357.31	0.165
357.78	0.166
358.24	0.167
358.71	0.167
359.17	0.166
359.63	0.165
360.10	0.165
360.56	0.163
361.03	0.162
361.49	0.165
361.95	0.162
362.42	0.163
362.88	0.165
363.34	0.165
363.81	0.161
364.27	0.165
364.73	0.165
365.20	0.162
365.66	0.160
366.12	0.163
366.59	0.161
367.05	0.162
367.51	0.161
367.98	0.160
368.44	0.160
368.90	0.159
369.37	0.160
369.83	0.158
370.29	0.157
370.76	0.154
371.22	0.155
371.68	0.155
372.15	0.155
372.61	0.150
373.07	0.157
373.54	0.151
374.00	0.152
374.46	0.154
374.92	0.151
375.39	0.154
375.85	0.152
376.31	0.152
376.78	0.153
377.24	0.149
377.70	0.152
378.16	0.152
378.63	0.151
379.09	0.151
379.55	0.154
380.01	0.154
380.48	0.150
380.94	0.151
381.40	0.150
381.87	0.153
382.33	0.148
382.79	0.148
383.25	0.150
383.72	0.150
384.18	0.149
384.64	0.150
385.10	0.148
385.56	0.148
386.03	0.149
386.49	0.146
386.95	0.147
387.41	0.147
387.88	0.144
388.34	0.145
388.80	0.148
389.26	0.149
389.72	0.147
390.19	0.144
390.65	0.144
391.11	0.146
391.57	0.146
392.04	0.146
392.50	0.145
392.96	0.145
393.42	0.145
393.88	0.146
394.34	0.143
394.81	0.144
395.27	0.142
395.73	0.140
396.19	0.143
396.65	0.141
397.12	0.138
397.58	0.140
398.04	0.139
398.50	0.141
398.96	0.143
399.42	0.143
399.89	0.143
400.35	0.141
400.81	0.141
401.27	0.141
401.73	0.140
402.19	0.140
402.65	0.136
403.12	0.138
403.58	0.137
404.04	0.135
404.50	0.135
404.96	0.134
405.42	0.135
405.88	0.136
406.34	0.140
406.81	0.137
407.27	0.136
407.73	0.133
408.19	0.132
408.65	0.132
409.11	0.132
409.57	0.133
410.03	0.138
410.49	0.133
410.96	0.135
411.42	0.133
411.88	0.131
412.34	0.130
412.80	0.131
413.26	0.131
413.72	0.130
414.18	0.129
414.64	0.132
415.10	0.130
415.56	0.133
416.02	0.130
416.48	0.131
416.95	0.133
417.41	0.128
417.87	0.129
418.33	0.129
418.79	0.129
419.25	0.131
419.71	0.129
420.17	0.126
420.63	0.124
421.09	0.124
421.55	0.125
422.01	0.130
422.47	0.132
422.93	0.130
423.39	0.130
423.85	0.129
424.31	0.127
424.77	0.128
425.23	0.126
425.69	0.130
426.15	0.131
426.61	0.130
427.07	0.125
427.53	0.125
427.99	0.126
428.45	0.129
428.91	0.125
429.37	0.126
429.83	0.122
430.29	0.125
430.75	0.127
431.21	0.129
431.67	0.131
432.13	0.130
432.59	0.126
433.05	0.124
433.51	0.123
433.97	0.119
434.43	0.129
434.89	0.131
435.35	0.127
435.81	0.125
436.27	0.126
436.73	0.125
437.19	0.130
437.65	0.124
438.11	0.127
438.57	0.125
439.03	0.124
439.48	0.127
439.94	0.125
440.40	0.124
440.86	0.120
441.32	0.123
441.78	0.121
442.24	0.127
442.70	0.125
443.16	0.122
443.62	0.124
444.08	0.121
444.54	0.121
444.99	0.123
445.45	0.120
445.91	0.120
446.37	0.124
446.83	0.122
447.29	0.122
447.75	0.122
448.21	0.127
448.67	0.121
449.12	0.122
449.58	0.122
450.04	0.123
450.50	0.122
450.96	0.121
451.42	0.123
451.88	0.124
452.34	0.122
452.79	0.121
453.25	0.124
453.71	0.121
454.17	0.121
454.63	0.123
455.09	0.118
455.55	0.121
456.00	0.118
456.46	0.120
456.92	0.119
457.38	0.118
457.84	0.119
458.30	0.119
458.75	0.119
459.21	0.117
459.67	0.117
460.13	0.118
460.59	0.118
461.04	0.118
461.50	0.118
461.96	0.120
462.42	0.117
462.88	0.117
463.33	0.116
463.79	0.118
464.25	0.115
464.71	0.117
465.17	0.118
465.62	0.117
466.08	0.118
466.54	0.122
467.00	0.119
467.46	0.121
467.91	0.119
468.37	0.117
468.83	0.118
469.29	0.118
469.74	0.119
470.20	0.119
470.66	0.118
471.12	0.121
471.57	0.117
472.03	0.119
472.49	0.119
472.95	0.120
473.40	0.119
473.86	0.119
474.32	0.120
474.78	0.119
475.23	0.121
475.69	0.118
476.15	0.122
476.60	0.121
477.06	0.119
477.52	0.118
477.98	0.119
478.43	0.121
478.89	0.121
479.35	0.122
479.80	0.118
480.26	0.118
480.72	0.117
481.18	0.118
481.63	0.118
482.09	0.120
482.55	0.116
483.00	0.114
483.46	0.119
483.92	0.117
484.37	0.116
484.83	0.116
485.29	0.118
485.74	0.115
486.20	0.115
486.66	0.119
487.11	0.117
487.57	0.119
488.03	0.117
488.48	0.120
488.94	0.118
489.40	0.118
489.85	0.117
490.31	0.118
490.77	0.116
491.22	0.118
491.68	0.118
492.13	0.117
492.59	0.119
493.05	0.117
493.50	0.117
493.96	0.117
494.42	0.119
494.87	0.118
495.33	0.116
495.78	0.115
496.24	0.117
496.70	0.118
497.15	0.116
497.61	0.116
498.06	0.116
498.52	0.116
498.98	0.116
499.43	0.118
499.89	0.116
500.34	0.114
500.80	0.113
501.25	0.115
501.71	0.114
502.17	0.115
502.62	0.114
503.08	0.113
503.53	0.115
503.99	0.114
504.44	0.114
504.90	0.113
505.36	0.114
505.81	0.115
506.27	0.113
506.72	0.113
507.18	0.113
507.63	0.113
508.09	0.114
508.54	0.112
509.00	0.116
509.45	0.113
509.91	0.115
510.36	0.116
510.82	0.116
511.27	0.115
511.73	0.115
512.19	0.116
512.64	0.114
513.10	0.116
513.55	0.115
514.01	0.116
514.46	0.115
514.92	0.113
515.37	0.116
515.83	0.111
516.28	0.113
516.73	0.114
517.19	0.113
517.64	0.115
518.10	0.114
518.55	0.112
519.01	0.113
519.46	0.112
519.92	0.113
520.37	0.112
520.83	0.112
521.28	0.110
521.74	0.111
522.19	0.113
522.65	0.112
523.10	0.111
523.55	0.113
524.01	0.112
524.46	0.112
524.92	0.113
525.37	0.114
525.83	0.113
526.28	0.114
526.73	0.112
527.19	0.110
527.64	0.113
528.10	0.113
528.55	0.115
529.01	0.113
529.46	0.115
529.91	0.113
530.37	0.114
530.82	0.112
531.28	0.114
531.73	0.113
532.18	0.114
532.64	0.113
533.09	0.114
533.54	0.114
534.00	0.115
534.45	0.113
534.91	0.111
535.36	0.113
535.81	0.112
536.27	0.113
536.72	0.112
537.17	0.114
537.63	0.112
538.08	0.115
538.54	0.115
538.99	0.117
539.44	0.115
539.90	0.116
540.35	0.114
540.80	0.114
541.26	0.116
541.71	0.116
542.16	0.116
542.62	0.117
543.07	0.118
543.52	0.117
543.98	0.115
544.43	0.118
544.88	0.115
545.34	0.119
545.79	0.118
546.24	0.116
546.69	0.117
547.15	0.120
547.60	0.117
548.05	0.118
548.51	0.119
548.96	0.120
549.41	0.121
549.86	0.122
550.32	0.121
550.77	0.121
551.22	0.121
551.68	0.122
552.13	0.123
552.58	0.120
553.03	0.124
553.49	0.121
553.94	0.122
554.39	0.123
554.84	0.124
555.30	0.123
555.75	0.124
556.20	0.125
556.65	0.125
557.11	0.126
557.56	0.127
558.01	0.128
558.46	0.127
558.92	0.126
559.37	0.130
559.82	0.130
560.27	0.127
560.72	0.129
561.18	0.130
561.63	0.131
562.08	0.130
562.53	0.130
562.99	0.130
563.44	0.132
563.89	0.132
564.34	0.134
564.79	0.133
565.25	0.134
565.70	0.135
566.15	0.134
566.60	0.135
567.05	0.137
567.50	0.137
567.96	0.137
568.41	0.138
568.86	0.138
569.31	0.138
569.76	0.139
570.21	0.140
570.67	0.139
571.12	0.141
571.57	0.141
572.02	0.143
572.47	0.142
572.92	0.143
573.37	0.147
573.83	0.145
574.28	0.145
574.73	0.145
575.18	0.147
575.63	0.147
576.08	0.147
576.53	0.147
576.98	0.150
577.44	0.152
577.89	0.150
578.34	0.154
578.79	0.151
579.24	0.154
579.69	0.154
580.14	0.155
580.59	0.156
581.04	0.156
581.49	0.156
581.95	0.159
582.40	0.159
582.85	0.163
583.30	0.162
583.75	0.164
584.20	0.166
584.65	0.167
585.10	0.168
585.55	0.169
586.00	0.167
586.45	0.171
586.90	0.171
587.35	0.171
587.80	0.175
588.25	0.176
588.71	0.176
589.16	0.181
589.61	0.179
590.06	0.182
590.51	0.182
590.96	0.185
591.41	0.187
591.86	0.189
592.31	0.189
592.76	0.191
593.21	0.190
593.66	0.194
594.11	0.195
594.56	0.196
595.01	0.199
595.46	0.199
595.91	0.201
596.36	0.201
596.81	0.206
597.26	0.207
597.71	0.209
598.16	0.208
598.61	0.213
599.06	0.211
599.51	0.213
599.96	0.216
600.41	0.217
600.86	0.221
601.31	0.220
601.76	0.223
602.21	0.225
602.65	0.228
603.10	0.226
603.55	0.228
604.00	0.230
604.45	0.230
604.90	0.234
605.35	0.236
605.80	0.234
606.25	0.236
606.70	0.241
607.15	0.239
607.60	0.240
608.05	0.243
608.50	0.243
608.95	0.244
609.39	0.245
609.84	0.248
610.29	0.246
610.74	0.248
611.19	0.248
611.64	0.251
612.09	0.252
612.54	0.253
612.99	0.253
613.44	0.255
613.88	0.254
614.33	0.256
614.78	0.257
615.23	0.258
615.68	0.257
616.13	0.257
616.58	0.260
617.03	0.259
617.47	0.259
617.92	0.262
618.37	0.262
618.82	0.262
619.27	0.264
619.72	0.264
620.17	0.263
620.61	0.265
621.06	0.263
621.51	0.263
621.96	0.264
622.41	0.265
622.86	0.265
623.30	0.268
623.75	0.266
624.20	0.268
624.65	0.271
625.10	0.271
625.54	0.270
625.99	0.269
626.44	0.273
626.89	0.274
627.34	0.275
627.78	0.275
628.23	0.275
628.68	0.276
629.13	0.277
629.58	0.277
630.02	0.281
630.47	0.285
630.92	0.284
631.37	0.287
631.81	0.287
632.26	0.287
632.71	0.288
633.16	0.290
633.61	0.292
634.05	0.294
634.50	0.294
634.95	0.297
635.40	0.299
635.84	0.301
636.29	0.302
636.74	0.306
637.18	0.309
637.63	0.308
638.08	0.310
638.53	0.312
638.97	0.316
639.42	0.318
639.87	0.320
640.32	0.322
640.76	0.324
641.21	0.327
641.66	0.328
642.10	0.332
642.55	0.335
643.00	0.336
643.44	0.340
643.89	0.342
644.34	0.345
644.79	0.347
645.23	0.351
645.68	0.353
646.13	0.354
646.57	0.358
647.02	0.360
647.47	0.364
647.91	0.366
648.36	0.366
648.81	0.370
649.25	0.373
649.70	0.375
650.15	0.377
650.59	0.382
651.04	0.383
651.48	0.384
651.93	0.389
652.38	0.390
652.82	0.394
653.27	0.391
653.72	0.395
654.16	0.400
654.61	0.398
655.06	0.402
655.50	0.403
655.95	0.400
656.39	0.402
656.84	0.413
657.29	0.416
657.73	0.413
658.18	0.412
658.62	0.413
659.07	0.417
659.52	0.417
659.96	0.420
660.41	0.423
660.85	0.421
661.30	0.421
661.74	0.424
662.19	0.423
662.64	0.424
663.08	0.423
663.53	0.422
663.97	0.426
664.42	0.425
664.86	0.423
665.31	0.423
665.75	0.422
666.20	0.423
666.65	0.423
667.09	0.423
667.54	0.419
667.98	0.418
668.43	0.417
668.87	0.415
669.32	0.413
669.76	0.408
670.21	0.405
670.65	0.401
671.10	0.400
671.54	0.395
671.99	0.395
672.43	0.387
672.88	0.384
673.32	0.381
673.77	0.377
674.21	0.372
674.66	0.365
675.10	0.361
675.55	0.353
675.99	0.349
676.44	0.343
676.88	0.338
677.33	0.331
677.77	0.325
678.22	0.317
678.66	0.313
679.11	0.306
679.55	0.298
679.99	0.292
680.44	0.286
680.88	0.278
681.33	0.273
681.77	0.267
682.22	0.258
682.66	0.253
683.11	0.244
683.55	0.240
683.99	0.236
684.44	0.230
684.88	0.222
685.33	0.216
685.77	0.209
686.21	0.204
686.66	0.199
687.10	0.193
687.55	0.189
687.99	0.183
688.44	0.179
688.88	0.174
689.32	0.171
689.77	0.166
690.21	0.163
690.65	0.158
691.10	0.156
691.54	0.150
691.99	0.148
692.43	0.144
692.87	0.141
693.32	0.135
693.76	0.133
694.20	0.134
694.65	0.129
695.09	0.125
695.53	0.123
695.98	0.123
696.42	0.123
696.86	0.119
697.31	0.116
697.75	0.114
698.19	0.114
698.64	0.110
699.08	0.109
699.52	0.107
699.97	0.103
700.41	0.106
700.85	0.105
701.30	0.101
701.74	0.100
702.18	0.098
702.63	0.097
703.07	0.096
703.51	0.096
703.96	0.097
704.40	0.095
704.84	0.094
705.28	0.092
705.73	0.092
706.17	0.091
706.61	0.091
707.06	0.088
707.50	0.090
707.94	0.089
708.38	0.088
708.83	0.088
709.27	0.087
709.71	0.086
710.15	0.085
710.60	0.088
711.04	0.085
711.48	0.085
711.92	0.086
712.37	0.084
712.81	0.084
713.25	0.085
713.69	0.084
714.13	0.083
714.58	0.082
715.02	0.081
715.46	0.082
715.90	0.081
716.35	0.080
716.79	0.082
717.23	0.084
717.67	0.082
718.11	0.080
718.56	0.083
719.00	0.083
719.44	0.080
719.88	0.083
720.32	0.083
720.76	0.081
721.21	0.081
721.65	0.083
722.09	0.082
722.53	0.082
722.97	0.080
723.41	0.081
723.86	0.081
724.30	0.082
724.74	0.083
725.18	0.082
725.62	0.079
726.06	0.082
726.50	0.083
726.95	0.082
727.39	0.084
727.83	0.082
728.27	0.084
728.71	0.082
729.15	0.082
729.59	0.079
730.03	0.083
730.48	0.081
730.92	0.084
731.36	0.082
731.80	0.082
732.24	0.085
732.68	0.082
733.12	0.082
733.56	0.083
734.00	0.085
734.44	0.084
734.89	0.084
735.33	0.081
735.77	0.086
736.21	0.085
736.65	0.084
737.09	0.087
737.53	0.087
737.97	0.085
738.41	0.082
738.85	0.084
739.29	0.086
739.73	0.085
740.17	0.082
740.61	0.083
741.05	0.086
741.49	0.085
741.93	0.082
742.37	0.085
742.81	0.085
743.26	0.087
743.70	0.084
744.14	0.085
744.58	0.085
745.02	0.083
745.46	0.085
745.90	0.081
746.34	0.085
746.78	0.086
747.22	0.085
747.66	0.083
748.10	0.084
748.54	0.083
748.98	0.085
749.42	0.085
749.86	0.084
750.29	0.085
750.73	0.087
751.17	0.086
751.61	0.086
752.05	0.084
752.49	0.083
752.93	0.083
753.37	0.087
753.81	0.085
754.25	0.083
754.69	0.085
755.13	0.088
755.57	0.085
756.01	0.083
756.45	0.085
756.89	0.083
757.33	0.083
757.77	0.084
758.21	0.085
758.64	0.080
759.08	0.083
759.52	0.082
759.96	0.084
760.40	0.083
760.84	0.082
761.28	0.082
761.72	0.083
762.16	0.084
762.60	0.081
763.03	0.084
763.47	0.082
763.91	0.083
764.35	0.081
764.79	0.083
765.23	0.082
765.67	0.080
766.11	0.085
766.54	0.082
766.98	0.081
767.42	0.083
767.86	0.084
768.30	0.084
768.74	0.080
769.17	0.084
769.61	0.082
770.05	0.080
770.49	0.087
770.93	0.082
771.37	0.085
771.80	0.081
772.24	0.079
772.68	0.081
773.12	0.082
773.56	0.083
774.00	0.083
774.43	0.081
774.87	0.080
775.31	0.082
775.75	0.082
776.19	0.081
776.62	0.083
777.06	0.081
777.50	0.081
777.94	0.081
778.37	0.085
778.81	0.081
779.25	0.078
779.69	0.082
780.13	0.080
780.56	0.080
781.00	0.082
781.44	0.083
781.88	0.082
782.31	0.078
782.75	0.078
783.19	0.082
783.63	0.082
784.06	0.079
784.50	0.083
784.94	0.083
785.37	0.080
785.81	0.081
786.25	0.082
786.69	0.082
787.12	0.082
787.56	0.082
788.00	0.081
788.43	0.084
788.87	0.082
789.31	0.084
789.75	0.084
790.18	0.082
790.62	0.083
791.06	0.083
791.49	0.081
791.93	0.080
792.37	0.081
792.80	0.087
793.24	0.080
793.68	0.083
794.11	0.084
794.55	0.084
794.99	0.083
795.42	0.087
795.86	0.084
796.30	0.083
796.73	0.080
797.17	0.079
797.61	0.085
798.04	0.083
798.48	0.081
798.91	0.083
799.35	0.084
799.79	0.081
800.22	0.081
800.66	0.081
801.10	0.083
801.53	0.086
801.97	0.085
802.40	0.080
802.84	0.079
803.28	0.081
803.71	0.081
804.15	0.085
804.58	0.085
805.02	0.083
805.46	0.081
805.89	0.080
806.33	0.085
806.76	0.081
807.20	0.081
807.63	0.083
808.07	0.084
808.51	0.083
808.94	0.082
809.38	0.080
809.81	0.081
810.25	0.079
810.68	0.085
811.12	0.083
811.55	0.084
811.99	0.085
812.42	0.082
812.86	0.085
813.29	0.080
813.73	0.083
814.17	0.078
814.60	0.081
