SpectraSuite Data File
++++++++++++++++++++++++++++++++++++
Date: Wed May 04 12:49:31 CEST 2016
User: spectrasuite
Dark Spectrum Present: Yes
Reference Spectrum Present: Yes
Number of Sampled Component Spectra: 1
Spectrometers: HR+C0708
Integration Time (usec): 1000 (HR+C0708)
Spectra Averaged: 10 (HR+C0708)
Boxcar Smoothing: 0 (HR+C0708)
Correct for Electrical Dark: No (HR+C0708)
Strobe/Lamp Enabled: No (HR+C0708)
Correct for Detector Non-linearity: No (HR+C0708)
Correct for Stray Light: No (HR+C0708)
Number of Pixels in Processed Spectrum: 2048
>>>>>Begin Processed Spectral Data<<<<<
188.76	1.181
189.23	0.217
189.70	0.621
190.17	0.103
190.64	-0.000
191.12	1.267
191.59	-1.308
192.06	-0.000
192.53	1.607
193.01	0.160
193.48	-0.000
193.95	-0.000
194.42	0.599
194.90	-0.000
195.37	0.921
195.84	-0.000
196.31	0.943
196.78	0.388
197.26	-0.000
197.73	0.696
198.20	0.038
198.67	-0.000
199.14	1.118
199.62	0.303
200.09	1.118
200.56	0.645
201.03	0.636
201.50	0.796
201.97	0.377
202.45	0.594
202.92	0.693
203.39	0.706
203.86	0.769
204.33	0.611
204.80	0.610
205.28	0.561
205.75	0.526
206.22	0.521
206.69	0.716
207.16	0.491
207.63	0.682
208.11	0.431
208.58	0.494
209.05	0.890
209.52	0.664
209.99	0.502
210.46	0.514
210.93	0.687
211.41	0.556
211.88	0.541
212.35	0.707
212.82	0.839
213.29	0.606
213.76	0.426
214.23	0.849
214.70	0.510
215.18	0.481
215.65	0.566
216.12	0.494
216.59	0.465
217.06	0.550
217.53	0.654
218.00	0.553
218.47	0.646
218.94	0.505
219.41	0.550
219.89	0.544
220.36	0.492
220.83	0.652
221.30	0.754
221.77	0.564
222.24	0.598
222.71	0.597
223.18	0.800
223.65	0.713
224.12	0.520
224.59	0.732
225.06	0.873
225.54	0.593
226.01	0.969
226.48	0.844
226.95	0.905
227.42	0.961
227.89	1.012
228.36	1.060
228.83	1.046
229.30	1.047
229.77	1.760
230.24	1.155
230.71	1.183
231.18	1.299
231.65	1.820
232.12	1.430
232.59	1.614
233.06	1.694
233.53	1.813
234.00	1.658
234.47	1.676
234.94	2.224
235.41	1.851
235.88	1.816
236.35	2.006
236.82	2.058
237.29	1.801
237.76	2.072
238.23	2.248
238.70	2.214
239.17	1.963
239.64	2.666
240.11	2.557
240.58	2.087
241.05	2.164
241.52	2.425
241.99	2.186
242.46	2.342
242.93	2.276
243.40	2.859
243.87	2.344
244.34	2.241
244.81	2.207
245.28	2.456
245.75	2.423
246.22	2.396
246.69	2.898
247.16	2.324
247.63	2.294
248.10	2.509
248.57	2.939
249.04	2.398
249.51	2.351
249.98	2.657
250.45	2.545
250.92	2.491
251.39	2.478
251.85	2.923
252.32	2.634
252.79	2.324
253.26	2.582
253.73	2.628
254.20	2.354
254.67	2.398
255.14	3.171
255.61	2.760
256.08	2.711
256.55	2.748
257.02	3.472
257.49	2.900
257.95	2.647
258.42	2.789
258.89	2.693
259.36	2.726
259.83	2.755
260.30	2.885
260.77	2.708
261.24	2.635
261.71	2.641
262.17	2.861
262.64	3.205
263.11	2.726
263.58	2.857
264.05	2.773
264.52	2.784
264.99	3.028
265.46	2.907
265.92	2.656
266.39	2.756
266.86	2.878
267.33	2.704
267.80	2.859
268.27	2.783
268.74	2.916
269.20	2.807
269.67	2.616
270.14	2.963
270.61	2.636
271.08	2.437
271.55	2.625
272.01	2.795
272.48	2.535
272.95	2.590
273.42	2.790
273.89	2.762
274.36	2.715
274.82	2.529
275.29	2.922
275.76	2.693
276.23	2.697
276.70	2.621
277.16	2.855
277.63	2.594
278.10	2.625
278.57	2.584
279.04	2.593
279.50	2.752
279.97	2.626
280.44	2.728
280.91	2.909
281.38	2.674
281.84	2.730
282.31	2.780
282.78	2.713
283.25	2.678
283.72	2.870
284.18	2.586
284.65	2.760
285.12	2.720
285.59	2.719
286.05	2.732
286.52	2.587
286.99	2.733
287.46	2.722
287.92	2.534
288.39	2.673
288.86	2.955
289.33	2.712
289.79	2.531
290.26	2.510
290.73	2.687
291.20	2.482
291.66	2.436
292.13	2.582
292.60	2.706
293.07	2.545
293.53	2.580
294.00	2.610
294.47	2.515
294.93	2.610
295.40	2.592
295.87	2.722
296.34	2.620
296.80	2.503
297.27	2.543
297.74	2.719
298.20	2.440
298.67	2.516
299.14	2.559
299.60	2.419
300.07	2.505
300.54	2.660
301.01	2.425
301.47	2.503
301.94	2.353
302.41	2.459
302.87	2.473
303.34	2.569
303.81	2.402
304.27	2.514
304.74	2.333
305.21	2.460
305.67	2.647
306.14	2.461
306.61	2.452
307.07	2.404
307.54	2.491
308.01	2.544
308.47	2.416
308.94	2.447
309.40	2.431
309.87	2.436
310.34	2.407
310.80	2.537
311.27	2.419
311.74	2.357
312.20	2.423
312.67	2.534
313.13	2.527
313.60	2.397
314.07	2.329
314.53	2.445
315.00	2.304
315.47	2.378
315.93	2.517
316.40	2.382
316.86	2.437
317.33	2.465
317.80	2.361
318.26	2.274
318.73	2.314
319.19	2.495
319.66	2.349
320.13	2.295
320.59	2.275
321.06	2.362
321.52	2.327
321.99	2.325
322.45	2.232
322.92	2.239
323.39	2.311
323.85	2.234
324.32	2.232
324.78	2.198
325.25	2.183
325.71	2.223
326.18	2.204
326.64	2.166
327.11	2.138
327.58	2.198
328.04	2.171
328.51	2.102
328.97	2.153
329.44	2.154
329.90	2.214
330.37	2.070
330.83	2.161
331.30	2.180
331.76	2.063
332.23	2.208
332.69	2.180
333.16	2.134
333.62	2.134
334.09	2.125
334.56	2.154
335.02	2.117
335.49	2.065
335.95	2.194
336.42	2.151
336.88	1.992
337.35	2.079
337.81	2.113
338.28	2.122
338.74	2.069
339.20	2.032
339.67	2.070
340.13	2.123
340.60	2.075
341.06	2.120
341.53	2.081
341.99	2.040
342.46	2.091
342.92	2.073
343.39	2.008
343.85	2.007
344.32	2.029
344.78	2.043
345.25	1.970
345.71	1.988
346.17	2.012
346.64	2.008
347.10	1.953
347.57	1.923
348.03	1.910
348.50	1.835
348.96	1.903
349.43	1.922
349.89	1.801
350.35	1.796
350.82	1.730
351.28	1.730
351.75	1.685
352.21	1.602
352.67	1.610
353.14	1.629
353.60	1.539
354.07	1.509
354.53	1.507
355.00	1.449
355.46	1.425
355.92	1.411
356.39	1.358
356.85	1.316
357.31	1.240
357.78	1.204
358.24	1.155
358.71	1.074
359.17	1.028
359.63	0.969
360.10	0.897
360.56	0.844
361.03	0.781
361.49	0.725
361.95	0.668
362.42	0.612
362.88	0.570
363.34	0.524
363.81	0.474
364.27	0.438
364.73	0.405
365.20	0.371
365.66	0.344
366.12	0.321
366.59	0.296
367.05	0.277
367.51	0.261
367.98	0.248
368.44	0.235
368.90	0.220
369.37	0.216
369.83	0.206
370.29	0.193
370.76	0.188
371.22	0.184
371.68	0.179
372.15	0.175
372.61	0.169
373.07	0.168
373.54	0.163
374.00	0.162
374.46	0.160
374.92	0.163
375.39	0.156
375.85	0.153
376.31	0.152
376.78	0.150
377.24	0.150
377.70	0.150
378.16	0.149
378.63	0.147
379.09	0.145
379.55	0.144
380.01	0.143
380.48	0.141
380.94	0.140
381.40	0.138
381.87	0.138
382.33	0.137
382.79	0.134
383.25	0.135
383.72	0.139
384.18	0.134
384.64	0.135
385.10	0.133
385.56	0.129
386.03	0.133
386.49	0.132
386.95	0.130
387.41	0.133
387.88	0.128
388.34	0.127
388.80	0.129
389.26	0.129
389.72	0.129
390.19	0.126
390.65	0.125
391.11	0.123
391.57	0.125
392.04	0.124
392.50	0.125
392.96	0.122
393.42	0.120
393.88	0.120
394.34	0.118
394.81	0.120
395.27	0.119
395.73	0.118
396.19	0.118
396.65	0.118
397.12	0.118
397.58	0.117
398.04	0.114
398.50	0.114
398.96	0.112
399.42	0.115
399.89	0.113
400.35	0.114
400.81	0.111
401.27	0.111
401.73	0.111
402.19	0.110
402.65	0.108
403.12	0.111
403.58	0.109
404.04	0.108
404.50	0.108
404.96	0.107
405.42	0.111
405.88	0.104
406.34	0.106
406.81	0.106
407.27	0.105
407.73	0.102
408.19	0.105
408.65	0.105
409.11	0.103
409.57	0.100
410.03	0.104
410.49	0.102
410.96	0.103
411.42	0.104
411.88	0.101
412.34	0.098
412.80	0.102
413.26	0.101
413.72	0.099
414.18	0.099
414.64	0.099
415.10	0.098
415.56	0.100
416.02	0.098
416.48	0.098
416.95	0.100
417.41	0.098
417.87	0.097
418.33	0.098
418.79	0.095
419.25	0.099
419.71	0.096
420.17	0.095
420.63	0.094
421.09	0.095
421.55	0.094
422.01	0.093
422.47	0.093
422.93	0.094
423.39	0.094
423.85	0.092
424.31	0.092
424.77	0.092
425.23	0.090
425.69	0.095
426.15	0.094
426.61	0.092
427.07	0.089
427.53	0.092
427.99	0.091
428.45	0.092
428.91	0.090
429.37	0.092
429.83	0.090
430.29	0.088
430.75	0.090
431.21	0.090
431.67	0.088
432.13	0.088
432.59	0.086
433.05	0.090
433.51	0.088
433.97	0.085
434.43	0.088
434.89	0.090
435.35	0.087
435.81	0.089
436.27	0.088
436.73	0.085
437.19	0.087
437.65	0.083
438.11	0.086
438.57	0.089
439.03	0.084
439.48	0.084
439.94	0.086
440.40	0.082
440.86	0.085
441.32	0.085
441.78	0.083
442.24	0.083
442.70	0.089
443.16	0.083
443.62	0.087
444.08	0.081
444.54	0.082
444.99	0.086
445.45	0.082
445.91	0.081
446.37	0.083
446.83	0.082
447.29	0.083
447.75	0.080
448.21	0.086
448.67	0.085
449.12	0.082
449.58	0.081
450.04	0.084
450.50	0.081
450.96	0.080
451.42	0.082
451.88	0.081
452.34	0.081
452.79	0.081
453.25	0.081
453.71	0.081
454.17	0.080
454.63	0.081
455.09	0.080
455.55	0.079
456.00	0.077
456.46	0.081
456.92	0.081
457.38	0.080
457.84	0.082
458.30	0.080
458.75	0.082
459.21	0.079
459.67	0.080
460.13	0.080
460.59	0.081
461.04	0.081
461.50	0.078
461.96	0.080
462.42	0.079
462.88	0.078
463.33	0.076
463.79	0.077
464.25	0.075
464.71	0.078
465.17	0.077
465.62	0.075
466.08	0.077
466.54	0.077
467.00	0.077
467.46	0.076
467.91	0.077
468.37	0.074
468.83	0.076
469.29	0.076
469.74	0.076
470.20	0.076
470.66	0.075
471.12	0.076
471.57	0.074
472.03	0.075
472.49	0.076
472.95	0.077
473.40	0.074
473.86	0.075
474.32	0.074
474.78	0.072
475.23	0.075
475.69	0.074
476.15	0.076
476.60	0.075
477.06	0.075
477.52	0.074
477.98	0.075
478.43	0.075
478.89	0.073
479.35	0.075
479.80	0.074
480.26	0.071
480.72	0.073
481.18	0.071
481.63	0.075
482.09	0.073
482.55	0.071
483.00	0.072
483.46	0.073
483.92	0.071
484.37	0.072
484.83	0.071
485.29	0.073
485.74	0.074
486.20	0.072
486.66	0.073
487.11	0.071
487.57	0.070
488.03	0.071
488.48	0.073
488.94	0.071
489.40	0.070
489.85	0.069
490.31	0.070
490.77	0.069
491.22	0.071
491.68	0.071
492.13	0.070
492.59	0.071
493.05	0.071
493.50	0.070
493.96	0.070
494.42	0.073
494.87	0.071
495.33	0.069
495.78	0.068
496.24	0.069
496.70	0.072
497.15	0.070
497.61	0.069
498.06	0.068
498.52	0.069
498.98	0.067
499.43	0.069
499.89	0.072
500.34	0.069
500.80	0.069
501.25	0.067
501.71	0.068
502.17	0.066
502.62	0.066
503.08	0.066
503.53	0.068
503.99	0.068
504.44	0.067
504.90	0.067
505.36	0.068
505.81	0.069
506.27	0.065
506.72	0.065
507.18	0.067
507.63	0.067
508.09	0.069
508.54	0.063
509.00	0.066
509.45	0.066
509.91	0.065
510.36	0.066
510.82	0.068
511.27	0.065
511.73	0.067
512.19	0.067
512.64	0.063
513.10	0.065
513.55	0.065
514.01	0.065
514.46	0.067
514.92	0.065
515.37	0.068
515.83	0.065
516.28	0.066
516.73	0.067
517.19	0.067
517.64	0.065
518.10	0.066
518.55	0.064
519.01	0.065
519.46	0.064
519.92	0.065
520.37	0.063
520.83	0.065
521.28	0.062
521.74	0.064
522.19	0.065
522.65	0.063
523.10	0.064
523.55	0.067
524.01	0.064
524.46	0.064
524.92	0.064
525.37	0.066
525.83	0.064
526.28	0.065
526.73	0.065
527.19	0.063
527.64	0.062
528.10	0.063
528.55	0.064
529.01	0.064
529.46	0.064
529.91	0.062
530.37	0.062
530.82	0.063
531.28	0.061
531.73	0.063
532.18	0.064
532.64	0.064
533.09	0.063
533.54	0.063
534.00	0.063
534.45	0.063
534.91	0.062
535.36	0.063
535.81	0.062
536.27	0.061
536.72	0.059
537.17	0.063
537.63	0.061
538.08	0.064
538.54	0.061
538.99	0.062
539.44	0.063
539.90	0.063
540.35	0.062
540.80	0.062
541.26	0.062
541.71	0.065
542.16	0.064
542.62	0.065
543.07	0.065
543.52	0.062
543.98	0.064
544.43	0.064
544.88	0.062
545.34	0.063
545.79	0.066
546.24	0.063
546.69	0.061
547.15	0.062
547.60	0.064
548.05	0.064
548.51	0.063
548.96	0.063
549.41	0.064
549.86	0.064
550.32	0.063
550.77	0.063
551.22	0.062
551.68	0.063
552.13	0.065
552.58	0.063
553.03	0.064
553.49	0.060
553.94	0.063
554.39	0.063
554.84	0.065
555.30	0.062
555.75	0.065
556.20	0.064
556.65	0.064
557.11	0.065
557.56	0.063
558.01	0.065
558.46	0.064
558.92	0.064
559.37	0.066
559.82	0.064
560.27	0.064
560.72	0.065
561.18	0.065
561.63	0.064
562.08	0.065
562.53	0.064
562.99	0.065
563.44	0.066
563.89	0.064
564.34	0.066
564.79	0.067
565.25	0.066
565.70	0.067
566.15	0.064
566.60	0.067
567.05	0.067
567.50	0.068
567.96	0.066
568.41	0.068
568.86	0.068
569.31	0.067
569.76	0.068
570.21	0.069
570.67	0.067
571.12	0.068
571.57	0.068
572.02	0.068
572.47	0.068
572.92	0.067
573.37	0.072
573.83	0.070
574.28	0.070
574.73	0.069
575.18	0.068
575.63	0.068
576.08	0.068
576.53	0.069
576.98	0.070
577.44	0.071
577.89	0.068
578.34	0.072
578.79	0.069
579.24	0.070
579.69	0.069
580.14	0.071
580.59	0.071
581.04	0.070
581.49	0.071
581.95	0.074
582.40	0.072
582.85	0.073
583.30	0.074
583.75	0.075
584.20	0.073
584.65	0.075
585.10	0.075
585.55	0.076
586.00	0.076
586.45	0.075
586.90	0.077
587.35	0.077
587.80	0.077
588.25	0.078
588.71	0.078
589.16	0.081
589.61	0.079
590.06	0.079
590.51	0.080
590.96	0.081
591.41	0.081
591.86	0.082
592.31	0.082
592.76	0.081
593.21	0.082
593.66	0.085
594.11	0.084
594.56	0.085
595.01	0.086
595.46	0.084
595.91	0.086
596.36	0.087
596.81	0.087
597.26	0.086
597.71	0.088
598.16	0.092
598.61	0.090
599.06	0.091
599.51	0.090
599.96	0.091
600.41	0.090
600.86	0.094
601.31	0.090
601.76	0.095
602.21	0.095
602.65	0.096
603.10	0.094
603.55	0.095
604.00	0.097
604.45	0.096
604.90	0.096
605.35	0.099
605.80	0.097
606.25	0.098
606.70	0.101
607.15	0.100
607.60	0.101
608.05	0.102
608.50	0.101
608.95	0.100
609.39	0.102
609.84	0.100
610.29	0.103
610.74	0.102
611.19	0.102
611.64	0.104
612.09	0.105
612.54	0.103
612.99	0.104
613.44	0.104
613.88	0.103
614.33	0.106
614.78	0.105
615.23	0.105
615.68	0.104
616.13	0.104
616.58	0.105
617.03	0.106
617.47	0.106
617.92	0.107
618.37	0.108
618.82	0.107
619.27	0.106
619.72	0.106
620.17	0.106
620.61	0.107
621.06	0.107
621.51	0.105
621.96	0.106
622.41	0.107
622.86	0.106
623.30	0.107
623.75	0.107
624.20	0.107
624.65	0.107
625.10	0.107
625.54	0.106
625.99	0.105
626.44	0.110
626.89	0.109
627.34	0.108
627.78	0.108
628.23	0.110
628.68	0.109
629.13	0.108
629.58	0.109
630.02	0.110
630.47	0.111
630.92	0.110
631.37	0.112
631.81	0.112
632.26	0.112
632.71	0.113
633.16	0.115
633.61	0.114
634.05	0.115
634.50	0.115
634.95	0.115
635.40	0.118
635.84	0.117
636.29	0.117
636.74	0.119
637.18	0.120
637.63	0.121
638.08	0.120
638.53	0.119
638.97	0.122
639.42	0.124
639.87	0.123
640.32	0.125
640.76	0.125
641.21	0.126
641.66	0.128
642.10	0.129
642.55	0.129
643.00	0.131
643.44	0.131
643.89	0.133
644.34	0.133
644.79	0.134
645.23	0.134
645.68	0.134
646.13	0.137
646.57	0.139
647.02	0.138
647.47	0.140
647.91	0.141
648.36	0.139
648.81	0.142
649.25	0.142
649.70	0.144
650.15	0.146
650.59	0.147
651.04	0.149
651.48	0.148
651.93	0.150
652.38	0.151
652.82	0.150
653.27	0.149
653.72	0.152
654.16	0.153
654.61	0.155
655.06	0.155
655.50	0.156
655.95	0.156
656.39	0.155
656.84	0.155
657.29	0.160
657.73	0.160
658.18	0.158
658.62	0.159
659.07	0.163
659.52	0.162
659.96	0.165
660.41	0.166
660.85	0.164
661.30	0.165
661.74	0.166
662.19	0.168
662.64	0.168
663.08	0.166
663.53	0.165
663.97	0.168
664.42	0.165
664.86	0.168
665.31	0.166
665.75	0.165
666.20	0.167
666.65	0.168
667.09	0.167
667.54	0.166
667.98	0.165
668.43	0.166
668.87	0.166
669.32	0.166
669.76	0.163
670.21	0.163
670.65	0.161
671.10	0.160
671.54	0.159
671.99	0.160
672.43	0.155
672.88	0.153
673.32	0.154
673.77	0.151
674.21	0.151
674.66	0.147
675.10	0.146
675.55	0.143
675.99	0.140
676.44	0.141
676.88	0.136
677.33	0.135
677.77	0.131
678.22	0.129
678.66	0.128
679.11	0.125
679.55	0.122
679.99	0.119
680.44	0.116
680.88	0.115
681.33	0.113
681.77	0.110
682.22	0.106
682.66	0.106
683.11	0.099
683.55	0.100
683.99	0.098
684.44	0.095
684.88	0.093
685.33	0.091
685.77	0.087
686.21	0.087
686.66	0.084
687.10	0.081
687.55	0.079
687.99	0.079
688.44	0.078
688.88	0.074
689.32	0.072
689.77	0.071
690.21	0.070
690.65	0.067
691.10	0.066
691.54	0.066
691.99	0.063
692.43	0.064
692.87	0.062
693.32	0.061
693.76	0.060
694.20	0.058
694.65	0.059
695.09	0.055
695.53	0.055
695.98	0.056
696.42	0.054
696.86	0.052
697.31	0.052
697.75	0.049
698.19	0.052
698.64	0.050
699.08	0.049
699.52	0.050
699.97	0.048
700.41	0.046
700.85	0.049
701.30	0.044
701.74	0.046
702.18	0.045
702.63	0.045
703.07	0.042
703.51	0.044
703.96	0.044
704.40	0.044
704.84	0.043
705.28	0.042
705.73	0.044
706.17	0.042
706.61	0.045
707.06	0.042
707.50	0.041
707.94	0.043
708.38	0.041
708.83	0.041
709.27	0.042
709.71	0.040
710.15	0.039
710.60	0.044
711.04	0.038
711.48	0.041
711.92	0.041
712.37	0.040
712.81	0.040
713.25	0.043
713.69	0.039
714.13	0.038
714.58	0.039
715.02	0.038
715.46	0.041
715.90	0.040
716.35	0.040
716.79	0.040
717.23	0.041
717.67	0.040
718.11	0.039
718.56	0.039
719.00	0.040
719.44	0.041
719.88	0.042
720.32	0.040
720.76	0.038
721.21	0.041
721.65	0.040
722.09	0.040
722.53	0.041
722.97	0.039
723.41	0.041
723.86	0.040
724.30	0.039
724.74	0.041
725.18	0.039
725.62	0.042
726.06	0.040
726.50	0.042
726.95	0.041
727.39	0.042
727.83	0.042
728.27	0.042
728.71	0.041
729.15	0.041
729.59	0.041
730.03	0.044
730.48	0.042
730.92	0.044
731.36	0.041
731.80	0.040
732.24	0.047
732.68	0.044
733.12	0.042
733.56	0.043
734.00	0.046
734.44	0.043
734.89	0.044
735.33	0.043
735.77	0.046
736.21	0.046
736.65	0.045
737.09	0.045
737.53	0.046
737.97	0.045
738.41	0.045
738.85	0.045
739.29	0.045
739.73	0.044
740.17	0.043
740.61	0.042
741.05	0.048
741.49	0.044
741.93	0.042
742.37	0.044
742.81	0.044
743.26	0.045
743.70	0.045
744.14	0.044
744.58	0.045
745.02	0.043
745.46	0.044
745.90	0.044
746.34	0.045
746.78	0.045
747.22	0.046
747.66	0.045
748.10	0.044
748.54	0.044
748.98	0.044
749.42	0.043
749.86	0.046
750.29	0.045
750.73	0.047
751.17	0.043
751.61	0.044
752.05	0.044
752.49	0.045
752.93	0.044
753.37	0.045
753.81	0.044
754.25	0.042
754.69	0.044
755.13	0.044
755.57	0.042
756.01	0.042
756.45	0.042
756.89	0.043
757.33	0.041
757.77	0.042
758.21	0.045
758.64	0.041
759.08	0.042
759.52	0.043
759.96	0.045
760.40	0.043
760.84	0.042
761.28	0.044
761.72	0.043
762.16	0.041
762.60	0.043
763.03	0.046
763.47	0.043
763.91	0.041
764.35	0.041
764.79	0.044
765.23	0.042
765.67	0.040
766.11	0.043
766.54	0.042
766.98	0.040
767.42	0.042
767.86	0.045
768.30	0.041
768.74	0.044
769.17	0.045
769.61	0.041
770.05	0.042
770.49	0.044
770.93	0.043
771.37	0.045
771.80	0.039
772.24	0.039
772.68	0.042
773.12	0.042
773.56	0.043
774.00	0.042
774.43	0.042
774.87	0.040
775.31	0.043
775.75	0.042
776.19	0.042
776.62	0.043
777.06	0.040
777.50	0.044
777.94	0.040
778.37	0.044
778.81	0.042
779.25	0.039
779.69	0.040
780.13	0.043
780.56	0.038
781.00	0.042
781.44	0.040
781.88	0.040
782.31	0.039
782.75	0.040
783.19	0.039
783.63	0.042
784.06	0.039
784.50	0.040
784.94	0.042
785.37	0.038
785.81	0.039
786.25	0.040
786.69	0.039
787.12	0.042
787.56	0.041
788.00	0.040
788.43	0.042
788.87	0.041
789.31	0.042
789.75	0.042
790.18	0.039
790.62	0.039
791.06	0.042
791.49	0.042
791.93	0.039
792.37	0.038
792.80	0.042
793.24	0.040
793.68	0.042
794.11	0.041
794.55	0.042
794.99	0.040
795.42	0.040
795.86	0.043
796.30	0.039
796.73	0.036
797.17	0.039
797.61	0.039
798.04	0.043
798.48	0.039
798.91	0.039
799.35	0.041
799.79	0.038
800.22	0.040
800.66	0.037
801.10	0.041
801.53	0.044
801.97	0.042
802.40	0.035
802.84	0.038
803.28	0.040
803.71	0.037
804.15	0.043
804.58	0.042
805.02	0.040
805.46	0.039
805.89	0.038
806.33	0.040
806.76	0.035
807.20	0.040
807.63	0.040
808.07	0.038
808.51	0.041
808.94	0.042
809.38	0.037
809.81	0.042
810.25	0.039
810.68	0.041
811.12	0.038
811.55	0.044
811.99	0.039
812.42	0.040
812.86	0.041
813.29	0.040
813.73	0.039
814.17	0.035
814.60	0.036
815.04	0.037
815.47	0.038
815.91	0.035
816.34	0.041
816.78	0.041
817.21	0.042
817.65	0.040
