SpectraSuite Data File
++++++++++++++++++++++++++++++++++++
Date: Wed May 04 12:56:35 CEST 2016
User: spectrasuite
Dark Spectrum Present: Yes
Reference Spectrum Present: Yes
Number of Sampled Component Spectra: 1
Spectrometers: HR+C0708
Integration Time (usec): 1000 (HR+C0708)
Spectra Averaged: 10 (HR+C0708)
Boxcar Smoothing: 0 (HR+C0708)
Correct for Electrical Dark: No (HR+C0708)
Strobe/Lamp Enabled: No (HR+C0708)
Correct for Detector Non-linearity: No (HR+C0708)
Correct for Stray Light: No (HR+C0708)
Number of Pixels in Processed Spectrum: 2048
>>>>>Begin Processed Spectral Data<<<<<
188.76	0.336
189.23	-0.000
189.70	0.672
190.17	0.841
190.64	-0.000
191.12	-0.000
191.59	-0.000
192.06	-0.000
192.53	-0.000
193.01	-0.000
193.48	-0.000
193.95	-0.000
194.42	-0.000
194.90	-0.000
195.37	-0.000
195.84	-0.000
196.31	-0.000
196.78	-0.000
197.26	-0.000
197.73	0.793
198.20	0.802
198.67	-0.000
199.14	-0.000
199.62	-0.000
200.09	-0.000
200.56	-0.000
201.03	-0.000
201.50	1.043
201.97	1.107
202.45	0.907
202.92	0.864
203.39	1.021
203.86	0.876
204.33	0.624
204.80	-0.000
205.28	-0.000
205.75	0.756
206.22	0.637
206.69	0.803
207.16	1.096
207.63	0.837
208.11	1.008
208.58	0.760
209.05	1.059
209.52	-0.000
209.99	1.024
210.46	0.652
210.93	1.320
211.41	0.877
211.88	0.488
212.35	0.863
212.82	1.714
213.29	1.002
213.76	0.828
214.23	0.792
214.70	1.032
215.18	0.863
215.65	0.849
216.12	0.562
216.59	0.757
217.06	0.583
217.53	0.742
218.00	0.817
218.47	0.708
218.94	0.893
219.41	0.661
219.89	0.728
220.36	0.760
220.83	0.823
221.30	-0.000
221.77	0.839
222.24	0.951
222.71	1.063
223.18	1.296
223.65	0.602
224.12	0.791
224.59	1.175
225.06	1.199
225.54	0.806
226.01	1.252
226.48	1.237
226.95	1.445
227.42	1.275
227.89	1.355
228.36	1.642
228.83	1.245
229.30	1.237
229.77	1.496
230.24	1.190
230.71	1.451
231.18	1.463
231.65	-0.000
232.12	1.890
232.59	1.986
233.06	2.052
233.53	2.464
234.00	1.658
234.47	2.143
234.94	2.132
235.41	1.886
235.88	1.899
236.35	2.239
236.82	1.954
237.29	2.044
237.76	2.237
238.23	2.334
238.70	2.558
239.17	2.084
239.64	2.756
240.11	2.612
240.58	2.149
241.05	2.373
241.52	2.584
241.99	2.410
242.46	2.261
242.93	2.285
243.40	2.765
243.87	2.597
244.34	2.295
244.81	2.433
245.28	2.456
245.75	2.448
246.22	2.419
246.69	-0.000
247.16	2.575
247.63	2.634
248.10	2.524
248.57	-0.000
249.04	2.710
249.51	2.523
249.98	3.083
250.45	2.861
250.92	2.734
251.39	2.828
251.85	3.562
252.32	2.638
252.79	2.624
253.26	2.829
253.73	2.787
254.20	2.679
254.67	2.461
255.14	3.638
255.61	2.846
256.08	2.721
256.55	2.834
257.02	4.025
257.49	2.675
257.95	3.149
258.42	2.776
258.89	2.748
259.36	2.792
259.83	3.148
260.30	3.035
260.77	3.029
261.24	2.635
261.71	2.833
262.17	4.961
262.64	2.854
263.11	2.721
263.58	2.995
264.05	2.914
264.52	2.825
264.99	2.906
265.46	3.018
265.92	2.842
266.39	2.722
266.86	3.758
267.33	2.999
267.80	2.777
268.27	2.803
268.74	3.061
269.20	2.888
269.67	2.851
270.14	2.914
270.61	2.935
271.08	2.726
271.55	2.599
272.01	2.811
272.48	2.750
272.95	2.590
273.42	2.852
273.89	2.855
274.36	2.689
274.82	2.623
275.29	2.812
275.76	2.760
276.23	2.771
276.70	2.510
277.16	2.962
277.63	2.627
278.10	2.665
278.57	2.611
279.04	2.727
279.50	2.745
279.97	2.584
280.44	2.636
280.91	2.914
281.38	2.619
281.84	2.628
282.31	2.756
282.78	2.674
283.25	2.749
283.72	3.130
284.18	2.746
284.65	2.701
285.12	2.748
285.59	2.711
286.05	2.698
286.52	2.620
286.99	2.632
287.46	2.830
287.92	2.599
288.39	2.615
288.86	2.726
289.33	2.841
289.79	2.556
290.26	2.744
290.73	2.664
291.20	2.472
291.66	2.532
292.13	2.623
292.60	2.666
293.07	2.515
293.53	2.623
294.00	2.546
294.47	2.634
294.93	2.600
295.40	2.675
295.87	2.775
296.34	2.541
296.80	2.423
297.27	2.557
297.74	2.647
298.20	2.563
298.67	2.503
299.14	2.559
299.60	2.489
300.07	2.520
300.54	2.576
301.01	2.563
301.47	2.448
301.94	2.337
302.41	2.415
302.87	2.444
303.34	2.573
303.81	2.409
304.27	2.467
304.74	2.492
305.21	2.452
305.67	2.482
306.14	2.536
306.61	2.458
307.07	2.484
307.54	2.600
308.01	2.542
308.47	2.418
308.94	2.440
309.40	2.424
309.87	2.409
310.34	2.430
310.80	2.457
311.27	2.414
311.74	2.354
312.20	2.465
312.67	2.682
313.13	2.408
313.60	2.383
314.07	2.308
314.53	2.407
315.00	2.338
315.47	2.435
315.93	2.522
316.40	2.400
316.86	2.333
317.33	2.382
317.80	2.457
318.26	2.299
318.73	2.325
319.19	2.393
319.66	2.332
320.13	2.278
320.59	2.236
321.06	2.363
321.52	2.347
321.99	2.268
322.45	2.263
322.92	2.324
323.39	2.275
323.85	2.254
324.32	2.356
324.78	2.199
325.25	2.236
325.71	2.187
326.18	2.140
326.64	2.247
327.11	2.147
327.58	2.225
328.04	2.284
328.51	2.107
328.97	2.201
329.44	2.259
329.90	2.190
330.37	2.127
330.83	2.146
331.30	2.169
331.76	2.102
332.23	2.141
332.69	2.178
333.16	2.201
333.62	2.117
334.09	2.131
334.56	2.183
335.02	2.136
335.49	2.142
335.95	2.180
336.42	2.140
336.88	2.092
337.35	2.029
337.81	2.066
338.28	2.162
338.74	2.046
339.20	2.070
339.67	2.165
340.13	2.082
340.60	2.062
341.06	2.097
341.53	2.067
341.99	2.033
342.46	2.039
342.92	2.070
343.39	2.049
343.85	2.039
344.32	1.992
344.78	2.052
345.25	2.007
345.71	1.964
346.17	2.011
346.64	1.973
347.10	1.951
347.57	1.950
348.03	1.926
348.50	1.854
348.96	1.911
349.43	1.903
349.89	1.828
350.35	1.802
350.82	1.733
351.28	1.742
351.75	1.670
352.21	1.639
352.67	1.592
353.14	1.639
353.60	1.600
354.07	1.523
354.53	1.543
355.00	1.515
355.46	1.489
355.92	1.451
356.39	1.455
356.85	1.388
357.31	1.331
357.78	1.291
358.24	1.226
358.71	1.169
359.17	1.110
359.63	1.067
360.10	1.010
360.56	0.944
361.03	0.881
361.49	0.835
361.95	0.777
362.42	0.728
362.88	0.675
363.34	0.626
363.81	0.578
364.27	0.539
364.73	0.503
365.20	0.470
365.66	0.439
366.12	0.411
366.59	0.387
367.05	0.363
367.51	0.341
367.98	0.326
368.44	0.313
368.90	0.297
369.37	0.288
369.83	0.276
370.29	0.262
370.76	0.256
371.22	0.248
371.68	0.246
372.15	0.240
372.61	0.231
373.07	0.230
373.54	0.227
374.00	0.223
374.46	0.221
374.92	0.217
375.39	0.217
375.85	0.213
376.31	0.210
376.78	0.207
377.24	0.208
377.70	0.204
378.16	0.203
378.63	0.203
379.09	0.201
379.55	0.199
380.01	0.199
380.48	0.197
380.94	0.197
381.40	0.193
381.87	0.195
382.33	0.192
382.79	0.190
383.25	0.191
383.72	0.191
384.18	0.187
384.64	0.187
385.10	0.186
385.56	0.182
386.03	0.183
386.49	0.182
386.95	0.183
387.41	0.181
387.88	0.179
388.34	0.175
388.80	0.177
389.26	0.176
389.72	0.176
390.19	0.172
390.65	0.172
391.11	0.172
391.57	0.172
392.04	0.174
392.50	0.173
392.96	0.168
393.42	0.168
393.88	0.169
394.34	0.165
394.81	0.169
395.27	0.168
395.73	0.162
396.19	0.166
396.65	0.165
397.12	0.162
397.58	0.162
398.04	0.163
398.50	0.163
398.96	0.161
399.42	0.159
399.89	0.160
400.35	0.160
400.81	0.157
401.27	0.156
401.73	0.155
402.19	0.158
402.65	0.153
403.12	0.157
403.58	0.155
404.04	0.149
404.50	0.150
404.96	0.150
405.42	0.150
405.88	0.148
406.34	0.150
406.81	0.148
407.27	0.147
407.73	0.147
408.19	0.149
408.65	0.146
409.11	0.145
409.57	0.143
410.03	0.145
410.49	0.142
410.96	0.144
411.42	0.145
411.88	0.144
412.34	0.138
412.80	0.142
413.26	0.143
413.72	0.141
414.18	0.138
414.64	0.139
415.10	0.138
415.56	0.140
416.02	0.136
416.48	0.136
416.95	0.138
417.41	0.135
417.87	0.136
418.33	0.136
418.79	0.134
419.25	0.133
419.71	0.135
420.17	0.133
420.63	0.133
421.09	0.132
421.55	0.134
422.01	0.134
422.47	0.133
422.93	0.133
423.39	0.132
423.85	0.129
424.31	0.128
424.77	0.133
425.23	0.131
425.69	0.130
426.15	0.130
426.61	0.131
427.07	0.124
427.53	0.128
427.99	0.128
428.45	0.129
428.91	0.126
429.37	0.128
429.83	0.127
430.29	0.125
430.75	0.126
431.21	0.126
431.67	0.125
432.13	0.126
432.59	0.122
433.05	0.127
433.51	0.123
433.97	0.122
434.43	0.125
434.89	0.125
435.35	0.120
435.81	0.122
436.27	0.121
436.73	0.121
437.19	0.120
437.65	0.121
438.11	0.120
438.57	0.119
439.03	0.119
439.48	0.120
439.94	0.120
440.40	0.121
440.86	0.118
441.32	0.120
441.78	0.118
442.24	0.119
442.70	0.118
443.16	0.117
443.62	0.120
444.08	0.116
444.54	0.117
444.99	0.116
445.45	0.115
445.91	0.116
446.37	0.118
446.83	0.116
447.29	0.114
447.75	0.113
448.21	0.118
448.67	0.114
449.12	0.117
449.58	0.115
450.04	0.115
450.50	0.114
450.96	0.111
451.42	0.112
451.88	0.115
452.34	0.112
452.79	0.112
453.25	0.113
453.71	0.112
454.17	0.109
454.63	0.112
455.09	0.111
455.55	0.112
456.00	0.109
456.46	0.112
456.92	0.113
457.38	0.113
457.84	0.113
458.30	0.111
458.75	0.110
459.21	0.109
459.67	0.111
460.13	0.110
460.59	0.111
461.04	0.109
461.50	0.112
461.96	0.112
462.42	0.109
462.88	0.107
463.33	0.109
463.79	0.108
464.25	0.106
464.71	0.108
465.17	0.105
465.62	0.107
466.08	0.107
466.54	0.108
467.00	0.106
467.46	0.107
467.91	0.107
468.37	0.105
468.83	0.106
469.29	0.105
469.74	0.105
470.20	0.106
470.66	0.104
471.12	0.104
471.57	0.106
472.03	0.104
472.49	0.104
472.95	0.106
473.40	0.105
473.86	0.104
474.32	0.104
474.78	0.103
475.23	0.105
475.69	0.103
476.15	0.104
476.60	0.104
477.06	0.104
477.52	0.103
477.98	0.104
478.43	0.104
478.89	0.105
479.35	0.104
479.80	0.103
480.26	0.101
480.72	0.101
481.18	0.100
481.63	0.103
482.09	0.102
482.55	0.099
483.00	0.100
483.46	0.102
483.92	0.098
484.37	0.101
484.83	0.098
485.29	0.100
485.74	0.099
486.20	0.099
486.66	0.099
487.11	0.097
487.57	0.099
488.03	0.097
488.48	0.101
488.94	0.097
489.40	0.097
489.85	0.097
490.31	0.098
490.77	0.097
491.22	0.100
491.68	0.097
492.13	0.097
492.59	0.099
493.05	0.096
493.50	0.095
493.96	0.096
494.42	0.097
494.87	0.098
495.33	0.094
495.78	0.095
496.24	0.097
496.70	0.096
497.15	0.096
497.61	0.095
498.06	0.096
498.52	0.096
498.98	0.094
499.43	0.095
499.89	0.097
500.34	0.096
500.80	0.094
501.25	0.093
501.71	0.094
502.17	0.093
502.62	0.095
503.08	0.092
503.53	0.095
503.99	0.094
504.44	0.095
504.90	0.091
505.36	0.094
505.81	0.094
506.27	0.092
506.72	0.092
507.18	0.093
507.63	0.093
508.09	0.092
508.54	0.091
509.00	0.092
509.45	0.092
509.91	0.090
510.36	0.092
510.82	0.092
511.27	0.088
511.73	0.090
512.19	0.091
512.64	0.090
513.10	0.091
513.55	0.091
514.01	0.092
514.46	0.092
514.92	0.090
515.37	0.093
515.83	0.089
516.28	0.090
516.73	0.090
517.19	0.089
517.64	0.089
518.10	0.091
518.55	0.090
519.01	0.091
519.46	0.090
519.92	0.088
520.37	0.087
520.83	0.090
521.28	0.088
521.74	0.088
522.19	0.088
522.65	0.089
523.10	0.088
523.55	0.089
524.01	0.087
524.46	0.089
524.92	0.086
525.37	0.087
525.83	0.087
526.28	0.087
526.73	0.086
527.19	0.088
527.64	0.085
528.10	0.089
528.55	0.087
529.01	0.089
529.46	0.088
529.91	0.085
530.37	0.086
530.82	0.087
531.28	0.087
531.73	0.088
532.18	0.090
532.64	0.086
533.09	0.088
533.54	0.085
534.00	0.086
534.45	0.088
534.91	0.086
535.36	0.085
535.81	0.085
536.27	0.084
536.72	0.085
537.17	0.087
537.63	0.084
538.08	0.087
538.54	0.087
538.99	0.087
539.44	0.085
539.90	0.086
540.35	0.084
540.80	0.085
541.26	0.085
541.71	0.086
542.16	0.086
542.62	0.089
543.07	0.086
543.52	0.086
543.98	0.086
544.43	0.087
544.88	0.086
545.34	0.089
545.79	0.085
546.24	0.085
546.69	0.085
547.15	0.088
547.60	0.087
548.05	0.086
548.51	0.087
548.96	0.088
549.41	0.087
549.86	0.087
550.32	0.087
550.77	0.086
551.22	0.086
551.68	0.088
552.13	0.087
552.58	0.087
553.03	0.087
553.49	0.086
553.94	0.085
554.39	0.087
554.84	0.089
555.30	0.088
555.75	0.087
556.20	0.086
556.65	0.087
557.11	0.086
557.56	0.087
558.01	0.091
558.46	0.088
558.92	0.088
559.37	0.092
559.82	0.087
560.27	0.087
560.72	0.090
561.18	0.088
561.63	0.089
562.08	0.089
562.53	0.086
562.99	0.088
563.44	0.090
563.89	0.089
564.34	0.091
564.79	0.091
565.25	0.090
565.70	0.090
566.15	0.089
566.60	0.091
567.05	0.090
567.50	0.091
567.96	0.092
568.41	0.092
568.86	0.091
569.31	0.092
569.76	0.092
570.21	0.094
570.67	0.091
571.12	0.092
571.57	0.092
572.02	0.092
572.47	0.092
572.92	0.093
573.37	0.097
573.83	0.094
574.28	0.094
574.73	0.092
575.18	0.094
575.63	0.093
576.08	0.094
576.53	0.095
576.98	0.093
577.44	0.098
577.89	0.095
578.34	0.098
578.79	0.094
579.24	0.095
579.69	0.096
580.14	0.097
580.59	0.098
581.04	0.097
581.49	0.098
581.95	0.099
582.40	0.100
582.85	0.101
583.30	0.098
583.75	0.100
584.20	0.100
584.65	0.099
585.10	0.102
585.55	0.101
586.00	0.101
586.45	0.101
586.90	0.103
587.35	0.102
587.80	0.103
588.25	0.104
588.71	0.105
589.16	0.108
589.61	0.104
590.06	0.107
590.51	0.107
590.96	0.108
591.41	0.109
591.86	0.109
592.31	0.110
592.76	0.110
593.21	0.110
593.66	0.113
594.11	0.112
594.56	0.114
595.01	0.115
595.46	0.113
595.91	0.115
596.36	0.116
596.81	0.117
597.26	0.115
597.71	0.120
598.16	0.119
598.61	0.119
599.06	0.120
599.51	0.120
599.96	0.121
600.41	0.123
600.86	0.123
601.31	0.122
601.76	0.126
602.21	0.126
602.65	0.127
603.10	0.126
603.55	0.127
604.00	0.128
604.45	0.129
604.90	0.127
605.35	0.131
605.80	0.129
606.25	0.131
606.70	0.131
607.15	0.131
607.60	0.133
608.05	0.133
608.50	0.135
608.95	0.134
609.39	0.135
609.84	0.135
610.29	0.137
610.74	0.136
611.19	0.136
611.64	0.137
612.09	0.135
612.54	0.138
612.99	0.137
613.44	0.137
613.88	0.137
614.33	0.137
614.78	0.140
615.23	0.138
615.68	0.138
616.13	0.139
616.58	0.139
617.03	0.140
617.47	0.139
617.92	0.140
618.37	0.140
618.82	0.141
619.27	0.141
619.72	0.141
620.17	0.141
620.61	0.142
621.06	0.141
621.51	0.140
621.96	0.141
622.41	0.140
622.86	0.141
623.30	0.144
623.75	0.141
624.20	0.142
624.65	0.142
625.10	0.143
625.54	0.140
625.99	0.142
626.44	0.144
626.89	0.143
627.34	0.143
627.78	0.144
628.23	0.145
628.68	0.143
629.13	0.144
629.58	0.146
630.02	0.147
630.47	0.146
630.92	0.147
631.37	0.150
631.81	0.148
632.26	0.149
632.71	0.149
633.16	0.152
633.61	0.151
634.05	0.151
634.50	0.152
634.95	0.152
635.40	0.154
635.84	0.153
636.29	0.155
636.74	0.155
637.18	0.157
637.63	0.158
638.08	0.158
638.53	0.158
638.97	0.160
639.42	0.162
639.87	0.163
640.32	0.164
640.76	0.165
641.21	0.166
641.66	0.167
642.10	0.168
642.55	0.169
643.00	0.170
643.44	0.170
643.89	0.174
644.34	0.175
644.79	0.175
645.23	0.178
645.68	0.177
646.13	0.179
646.57	0.180
647.02	0.180
647.47	0.184
647.91	0.183
648.36	0.185
648.81	0.184
649.25	0.188
649.70	0.186
650.15	0.188
650.59	0.192
651.04	0.194
651.48	0.192
651.93	0.195
652.38	0.197
652.82	0.197
653.27	0.194
653.72	0.198
654.16	0.200
654.61	0.202
655.06	0.202
655.50	0.203
655.95	0.202
656.39	0.202
656.84	0.203
657.29	0.208
657.73	0.208
658.18	0.207
658.62	0.209
659.07	0.212
659.52	0.211
659.96	0.213
660.41	0.215
660.85	0.215
661.30	0.216
661.74	0.215
662.19	0.216
662.64	0.217
663.08	0.215
663.53	0.217
663.97	0.216
664.42	0.215
664.86	0.219
665.31	0.219
665.75	0.217
666.20	0.219
666.65	0.219
667.09	0.217
667.54	0.216
667.98	0.215
668.43	0.214
668.87	0.213
669.32	0.215
669.76	0.214
670.21	0.212
670.65	0.210
671.10	0.206
671.54	0.207
671.99	0.208
672.43	0.201
672.88	0.202
673.32	0.200
673.77	0.199
674.21	0.196
674.66	0.190
675.10	0.190
675.55	0.186
675.99	0.185
676.44	0.180
676.88	0.180
677.33	0.178
677.77	0.172
678.22	0.168
678.66	0.165
679.11	0.162
679.55	0.161
679.99	0.158
680.44	0.154
680.88	0.150
681.33	0.147
681.77	0.142
682.22	0.139
682.66	0.137
683.11	0.133
683.55	0.132
683.99	0.129
684.44	0.127
684.88	0.124
685.33	0.120
685.77	0.116
686.21	0.116
686.66	0.110
687.10	0.108
687.55	0.106
687.99	0.103
688.44	0.101
688.88	0.099
689.32	0.098
689.77	0.095
690.21	0.093
690.65	0.092
691.10	0.088
691.54	0.087
691.99	0.087
692.43	0.084
692.87	0.084
693.32	0.081
693.76	0.079
694.20	0.078
694.65	0.078
695.09	0.075
695.53	0.074
695.98	0.073
696.42	0.073
696.86	0.074
697.31	0.071
697.75	0.070
698.19	0.070
698.64	0.068
699.08	0.068
699.52	0.067
699.97	0.065
700.41	0.066
700.85	0.068
701.30	0.062
701.74	0.063
702.18	0.060
702.63	0.062
703.07	0.060
703.51	0.061
703.96	0.061
704.40	0.060
704.84	0.060
705.28	0.059
705.73	0.062
706.17	0.060
706.61	0.060
707.06	0.057
707.50	0.058
707.94	0.059
708.38	0.055
708.83	0.057
709.27	0.058
709.71	0.057
710.15	0.055
710.60	0.059
711.04	0.054
711.48	0.055
711.92	0.058
712.37	0.054
712.81	0.056
713.25	0.057
713.69	0.057
714.13	0.055
714.58	0.057
715.02	0.053
715.46	0.053
715.90	0.055
716.35	0.054
716.79	0.057
717.23	0.056
717.67	0.054
718.11	0.053
718.56	0.054
719.00	0.055
719.44	0.054
719.88	0.054
720.32	0.057
720.76	0.054
721.21	0.055
721.65	0.056
722.09	0.055
722.53	0.055
722.97	0.055
723.41	0.055
723.86	0.056
724.30	0.055
724.74	0.057
725.18	0.056
725.62	0.054
726.06	0.055
726.50	0.057
726.95	0.055
727.39	0.057
727.83	0.057
728.27	0.056
728.71	0.056
729.15	0.055
729.59	0.054
730.03	0.054
730.48	0.056
730.92	0.057
731.36	0.055
731.80	0.056
732.24	0.059
732.68	0.057
733.12	0.057
733.56	0.056
734.00	0.057
734.44	0.056
734.89	0.058
735.33	0.056
735.77	0.058
736.21	0.057
736.65	0.057
737.09	0.060
737.53	0.059
737.97	0.059
738.41	0.058
738.85	0.060
739.29	0.058
739.73	0.061
740.17	0.058
740.61	0.057
741.05	0.060
741.49	0.059
741.93	0.058
742.37	0.057
742.81	0.061
743.26	0.058
743.70	0.058
744.14	0.059
744.58	0.056
745.02	0.056
745.46	0.058
745.90	0.059
746.34	0.057
746.78	0.060
747.22	0.058
747.66	0.057
748.10	0.059
748.54	0.056
748.98	0.057
749.42	0.058
749.86	0.060
750.29	0.058
750.73	0.058
751.17	0.059
751.61	0.059
752.05	0.057
752.49	0.053
752.93	0.057
753.37	0.057
753.81	0.058
754.25	0.056
754.69	0.059
755.13	0.059
755.57	0.057
756.01	0.057
756.45	0.056
756.89	0.059
757.33	0.055
757.77	0.057
758.21	0.057
758.64	0.056
759.08	0.056
759.52	0.057
759.96	0.057
760.40	0.057
760.84	0.056
761.28	0.054
761.72	0.056
762.16	0.056
762.60	0.056
763.03	0.058
763.47	0.056
763.91	0.056
764.35	0.054
764.79	0.055
765.23	0.057
765.67	0.054
766.11	0.058
766.54	0.055
766.98	0.055
767.42	0.056
767.86	0.060
768.30	0.055
768.74	0.054
769.17	0.057
769.61	0.055
770.05	0.056
770.49	0.059
770.93	0.056
771.37	0.059
771.80	0.056
772.24	0.052
772.68	0.055
773.12	0.053
773.56	0.055
774.00	0.053
774.43	0.054
774.87	0.053
775.31	0.055
775.75	0.054
776.19	0.054
776.62	0.054
777.06	0.054
777.50	0.054
777.94	0.053
778.37	0.057
778.81	0.055
779.25	0.054
779.69	0.053
780.13	0.057
780.56	0.052
781.00	0.052
781.44	0.053
781.88	0.056
782.31	0.051
782.75	0.052
783.19	0.054
783.63	0.054
784.06	0.055
784.50	0.050
784.94	0.058
785.37	0.049
785.81	0.054
786.25	0.053
786.69	0.055
787.12	0.054
787.56	0.055
788.00	0.056
788.43	0.054
788.87	0.055
789.31	0.054
789.75	0.054
790.18	0.054
790.62	0.053
791.06	0.053
791.49	0.054
791.93	0.051
792.37	0.052
792.80	0.056
793.24	0.052
793.68	0.053
794.11	0.053
794.55	0.054
794.99	0.052
795.42	0.054
795.86	0.057
796.30	0.053
796.73	0.051
797.17	0.051
797.61	0.055
798.04	0.055
798.48	0.052
798.91	0.056
799.35	0.052
799.79	0.051
800.22	0.054
800.66	0.052
801.10	0.054
801.53	0.056
801.97	0.055
802.40	0.048
802.84	0.050
803.28	0.050
803.71	0.049
804.15	0.052
804.58	0.056
805.02	0.054
805.46	0.052
805.89	0.051
806.33	0.054
806.76	0.052
807.20	0.054
807.63	0.053
808.07	0.052
808.51	0.054
808.94	0.054
809.38	0.053
809.81	0.054
810.25	0.052
810.68	0.052
811.12	0.050
811.55	0.055
811.99	0.052
812.42	0.053
812.86	0.053
813.29	0.053
813.73	0.053
814.17	0.045
814.60	0.050
815.04	0.048
815.47	0.050
815.91	0.046
816.34	0.052
816.78	0.055
