SpectraSuite Data File
++++++++++++++++++++++++++++++++++++
Date: Wed May 04 17:20:37 CEST 2016
User: spectrasuite
Dark Spectrum Present: Yes
Reference Spectrum Present: Yes
Number of Sampled Component Spectra: 1
Spectrometers: HR+C0708
Integration Time (usec): 1000 (HR+C0708)
Spectra Averaged: 10 (HR+C0708)
Boxcar Smoothing: 0 (HR+C0708)
Correct for Electrical Dark: No (HR+C0708)
Strobe/Lamp Enabled: No (HR+C0708)
Correct for Detector Non-linearity: No (HR+C0708)
Correct for Stray Light: No (HR+C0708)
Number of Pixels in Processed Spectrum: 2048
>>>>>Begin Processed Spectral Data<<<<<
188.76	-0.000
189.23	-0.000
189.70	-0.000
190.17	-0.000
190.64	-0.000
191.12	-0.000
191.59	-0.000
192.06	-0.000
192.53	-0.000
193.01	-0.000
193.48	-0.000
193.95	-0.000
194.42	-0.000
194.90	-0.000
195.37	-0.000
195.84	-0.000
196.31	-0.000
196.78	-0.000
197.26	-0.000
197.73	-0.000
198.20	-0.000
198.67	-0.000
199.14	-0.000
199.62	-0.000
200.09	-0.000
200.56	-0.000
201.03	-0.000
201.50	-0.000
201.97	-0.000
202.45	-0.000
202.92	-0.000
203.39	-0.000
203.86	-0.000
204.33	-0.000
204.80	-0.000
205.28	-0.000
205.75	-0.000
206.22	-0.000
206.69	-0.000
207.16	-0.000
207.63	-0.000
208.11	-0.000
208.58	-0.000
209.05	-0.000
209.52	-0.000
209.99	-0.000
210.46	1.219
210.93	-0.000
211.41	-0.000
211.88	-0.000
212.35	-0.000
212.82	-0.000
213.29	-0.000
213.76	-0.000
214.23	-0.000
214.70	-0.000
215.18	-0.000
215.65	1.827
216.12	-0.000
216.59	-0.000
217.06	0.839
217.53	-0.000
218.00	-0.000
218.47	1.335
218.94	-0.000
219.41	-0.000
219.89	-0.000
220.36	-0.000
220.83	-0.000
221.30	-0.000
221.77	-0.000
222.24	2.025
222.71	-0.000
223.18	-0.000
223.65	1.710
224.12	1.439
224.59	2.461
225.06	-0.000
225.54	-0.000
226.01	-0.000
226.48	-0.000
226.95	-0.000
227.42	1.446
227.89	-0.000
228.36	-0.000
228.83	-0.000
229.30	2.871
229.77	-0.000
230.24	-0.000
230.71	-0.000
231.18	1.857
231.65	-0.000
232.12	-0.000
232.59	-0.000
233.06	-0.000
233.53	-0.000
234.00	2.700
234.47	-0.000
234.94	-0.000
235.41	-0.000
235.88	2.712
236.35	-0.000
236.82	-0.000
237.29	-0.000
237.76	-0.000
238.23	-0.000
238.70	-0.000
239.17	2.886
239.64	-0.000
240.11	-0.000
240.58	2.643
241.05	-0.000
241.52	-0.000
241.99	2.799
242.46	3.178
242.93	-0.000
243.40	-0.000
243.87	-0.000
244.34	2.703
244.81	4.132
245.28	4.152
245.75	2.875
246.22	2.866
246.69	-0.000
247.16	3.081
247.63	-0.000
248.10	-0.000
248.57	-0.000
249.04	-0.000
249.51	3.921
249.98	-0.000
250.45	-0.000
250.92	2.962
251.39	2.811
251.85	2.581
252.32	2.264
252.79	2.082
253.26	1.958
253.73	1.858
254.20	1.741
254.67	1.604
255.14	1.550
255.61	1.478
256.08	1.398
256.55	1.330
257.02	1.279
257.49	1.227
257.95	1.179
258.42	1.148
258.89	1.112
259.36	1.077
259.83	1.050
260.30	1.026
260.77	1.001
261.24	0.972
261.71	0.955
262.17	0.934
262.64	0.915
263.11	0.895
263.58	0.878
264.05	0.867
264.52	0.846
264.99	0.833
265.46	0.818
265.92	0.806
266.39	0.792
266.86	0.782
267.33	0.774
267.80	0.755
268.27	0.748
268.74	0.740
269.20	0.733
269.67	0.722
270.14	0.712
270.61	0.702
271.08	0.695
271.55	0.687
272.01	0.680
272.48	0.668
272.95	0.662
273.42	0.655
273.89	0.652
274.36	0.643
274.82	0.636
275.29	0.630
275.76	0.628
276.23	0.620
276.70	0.613
277.16	0.618
277.63	0.607
278.10	0.601
278.57	0.597
279.04	0.595
279.50	0.592
279.97	0.588
280.44	0.583
280.91	0.584
281.38	0.577
281.84	0.575
282.31	0.576
282.78	0.573
283.25	0.570
283.72	0.565
284.18	0.569
284.65	0.564
285.12	0.564
285.59	0.566
286.05	0.563
286.52	0.561
286.99	0.559
287.46	0.560
287.92	0.559
288.39	0.557
288.86	0.559
289.33	0.556
289.79	0.551
290.26	0.549
290.73	0.549
291.20	0.548
291.66	0.540
292.13	0.542
292.60	0.538
293.07	0.528
293.53	0.527
294.00	0.528
294.47	0.520
294.93	0.515
295.40	0.509
295.87	0.508
296.34	0.496
296.80	0.492
297.27	0.482
297.74	0.476
298.20	0.472
298.67	0.458
299.14	0.453
299.60	0.449
300.07	0.440
300.54	0.434
301.01	0.432
301.47	0.418
301.94	0.413
302.41	0.408
302.87	0.400
303.34	0.393
303.81	0.388
304.27	0.383
304.74	0.374
305.21	0.367
305.67	0.363
306.14	0.358
306.61	0.351
307.07	0.346
307.54	0.342
308.01	0.336
308.47	0.333
308.94	0.328
309.40	0.325
309.87	0.322
310.34	0.319
310.80	0.314
311.27	0.311
311.74	0.308
312.20	0.303
312.67	0.302
313.13	0.298
313.60	0.298
314.07	0.294
314.53	0.289
315.00	0.286
315.47	0.286
315.93	0.286
316.40	0.282
316.86	0.281
317.33	0.279
317.80	0.279
318.26	0.278
318.73	0.277
319.19	0.274
319.66	0.271
320.13	0.267
320.59	0.268
321.06	0.268
321.52	0.265
321.99	0.265
322.45	0.264
322.92	0.261
323.39	0.260
323.85	0.259
324.32	0.259
324.78	0.258
325.25	0.252
325.71	0.254
326.18	0.251
326.64	0.250
327.11	0.245
327.58	0.245
328.04	0.248
328.51	0.244
328.97	0.241
329.44	0.240
329.90	0.236
330.37	0.237
330.83	0.234
331.30	0.235
331.76	0.231
332.23	0.230
332.69	0.229
333.16	0.228
333.62	0.226
334.09	0.223
334.56	0.220
335.02	0.217
335.49	0.217
335.95	0.211
336.42	0.212
336.88	0.210
337.35	0.209
337.81	0.205
338.28	0.209
338.74	0.209
339.20	0.209
339.67	0.208
340.13	0.208
340.60	0.204
341.06	0.201
341.53	0.197
341.99	0.198
342.46	0.197
342.92	0.194
343.39	0.192
343.85	0.190
344.32	0.191
344.78	0.188
345.25	0.193
345.71	0.192
346.17	0.195
346.64	0.194
347.10	0.190
347.57	0.185
348.03	0.184
348.50	0.183
348.96	0.186
349.43	0.185
349.89	0.187
350.35	0.183
350.82	0.182
351.28	0.182
351.75	0.183
352.21	0.185
352.67	0.178
353.14	0.179
353.60	0.175
354.07	0.178
354.53	0.178
355.00	0.174
355.46	0.171
355.92	0.171
356.39	0.170
356.85	0.164
357.31	0.165
357.78	0.163
358.24	0.163
358.71	0.167
359.17	0.164
359.63	0.160
360.10	0.160
360.56	0.162
361.03	0.161
361.49	0.161
361.95	0.161
362.42	0.161
362.88	0.162
363.34	0.160
363.81	0.161
364.27	0.160
364.73	0.161
365.20	0.160
365.66	0.157
366.12	0.159
366.59	0.159
367.05	0.159
367.51	0.157
367.98	0.158
368.44	0.158
368.90	0.155
369.37	0.157
369.83	0.156
370.29	0.154
370.76	0.153
371.22	0.152
371.68	0.154
372.15	0.152
372.61	0.150
373.07	0.150
373.54	0.152
374.00	0.149
374.46	0.150
374.92	0.150
375.39	0.150
375.85	0.153
376.31	0.152
376.78	0.151
377.24	0.147
377.70	0.148
378.16	0.148
378.63	0.148
379.09	0.149
379.55	0.147
380.01	0.148
380.48	0.151
380.94	0.147
381.40	0.147
381.87	0.150
382.33	0.144
382.79	0.145
383.25	0.148
383.72	0.147
384.18	0.146
384.64	0.147
385.10	0.146
385.56	0.141
386.03	0.148
386.49	0.145
386.95	0.143
387.41	0.145
387.88	0.142
388.34	0.142
388.80	0.146
389.26	0.143
389.72	0.145
390.19	0.140
390.65	0.139
391.11	0.141
391.57	0.141
392.04	0.139
392.50	0.140
392.96	0.140
393.42	0.139
393.88	0.144
394.34	0.139
394.81	0.139
395.27	0.139
395.73	0.138
396.19	0.138
396.65	0.137
397.12	0.136
397.58	0.138
398.04	0.138
398.50	0.138
398.96	0.138
399.42	0.140
399.89	0.141
400.35	0.141
400.81	0.137
401.27	0.136
401.73	0.138
402.19	0.138
402.65	0.133
403.12	0.136
403.58	0.136
404.04	0.133
404.50	0.131
404.96	0.132
405.42	0.133
405.88	0.134
406.34	0.136
406.81	0.133
407.27	0.131
407.73	0.131
408.19	0.132
408.65	0.128
409.11	0.130
409.57	0.130
410.03	0.133
410.49	0.130
410.96	0.129
411.42	0.130
411.88	0.125
412.34	0.123
412.80	0.127
413.26	0.129
413.72	0.127
414.18	0.127
414.64	0.128
415.10	0.129
415.56	0.128
416.02	0.124
416.48	0.126
416.95	0.128
417.41	0.126
417.87	0.126
418.33	0.125
418.79	0.124
419.25	0.126
419.71	0.124
420.17	0.124
420.63	0.122
421.09	0.118
421.55	0.121
422.01	0.125
422.47	0.129
422.93	0.128
423.39	0.126
423.85	0.125
424.31	0.122
424.77	0.126
425.23	0.123
425.69	0.127
426.15	0.127
426.61	0.124
427.07	0.119
427.53	0.121
427.99	0.122
428.45	0.125
428.91	0.121
429.37	0.120
429.83	0.118
430.29	0.121
430.75	0.125
431.21	0.127
431.67	0.129
432.13	0.125
432.59	0.120
433.05	0.123
433.51	0.119
433.97	0.119
434.43	0.126
434.89	0.127
435.35	0.122
435.81	0.122
436.27	0.122
436.73	0.120
437.19	0.125
437.65	0.122
438.11	0.124
438.57	0.125
439.03	0.124
439.48	0.126
439.94	0.123
440.40	0.121
440.86	0.121
441.32	0.123
441.78	0.122
442.24	0.123
442.70	0.123
443.16	0.120
443.62	0.121
444.08	0.117
444.54	0.119
444.99	0.121
445.45	0.114
445.91	0.118
446.37	0.120
446.83	0.119
447.29	0.118
447.75	0.117
448.21	0.121
448.67	0.119
449.12	0.118
449.58	0.119
450.04	0.119
450.50	0.117
450.96	0.118
451.42	0.119
451.88	0.118
452.34	0.119
452.79	0.117
453.25	0.120
453.71	0.121
454.17	0.118
454.63	0.118
455.09	0.119
455.55	0.119
456.00	0.114
456.46	0.118
456.92	0.117
457.38	0.117
457.84	0.116
458.30	0.117
458.75	0.116
459.21	0.117
459.67	0.113
460.13	0.114
460.59	0.116
461.04	0.114
461.50	0.114
461.96	0.114
462.42	0.115
462.88	0.114
463.33	0.114
463.79	0.114
464.25	0.113
464.71	0.117
465.17	0.116
465.62	0.116
466.08	0.118
466.54	0.118
467.00	0.115
467.46	0.116
467.91	0.119
468.37	0.117
468.83	0.116
469.29	0.117
469.74	0.119
470.20	0.117
470.66	0.114
471.12	0.116
471.57	0.115
472.03	0.117
472.49	0.116
472.95	0.116
473.40	0.116
473.86	0.117
474.32	0.115
474.78	0.117
475.23	0.117
475.69	0.116
476.15	0.120
476.60	0.118
477.06	0.118
477.52	0.115
477.98	0.115
478.43	0.116
478.89	0.115
479.35	0.118
479.80	0.116
480.26	0.112
480.72	0.115
481.18	0.113
481.63	0.116
482.09	0.116
482.55	0.113
483.00	0.113
483.46	0.114
483.92	0.113
484.37	0.113
484.83	0.113
485.29	0.116
485.74	0.113
486.20	0.114
486.66	0.116
487.11	0.114
487.57	0.114
488.03	0.113
488.48	0.117
488.94	0.113
489.40	0.114
489.85	0.112
490.31	0.113
490.77	0.112
491.22	0.116
491.68	0.112
492.13	0.114
492.59	0.115
493.05	0.113
493.50	0.112
493.96	0.113
494.42	0.116
494.87	0.114
495.33	0.113
495.78	0.113
496.24	0.115
496.70	0.114
497.15	0.114
497.61	0.114
498.06	0.113
498.52	0.112
498.98	0.111
499.43	0.114
499.89	0.113
500.34	0.111
500.80	0.112
501.25	0.111
501.71	0.111
502.17	0.110
502.62	0.112
503.08	0.109
503.53	0.110
503.99	0.111
504.44	0.112
504.90	0.109
505.36	0.112
505.81	0.112
506.27	0.110
506.72	0.111
507.18	0.111
507.63	0.111
508.09	0.112
508.54	0.110
509.00	0.112
509.45	0.112
509.91	0.111
510.36	0.112
510.82	0.113
511.27	0.112
511.73	0.110
512.19	0.112
512.64	0.111
513.10	0.112
513.55	0.112
514.01	0.111
514.46	0.109
514.92	0.111
515.37	0.110
515.83	0.110
516.28	0.110
516.73	0.111
517.19	0.109
517.64	0.112
518.10	0.110
518.55	0.110
519.01	0.112
519.46	0.109
519.92	0.110
520.37	0.110
520.83	0.111
521.28	0.109
521.74	0.111
522.19	0.109
522.65	0.108
523.10	0.108
523.55	0.111
524.01	0.108
524.46	0.108
524.92	0.109
525.37	0.111
525.83	0.109
526.28	0.111
526.73	0.111
527.19	0.109
527.64	0.110
528.10	0.110
528.55	0.110
529.01	0.112
529.46	0.109
529.91	0.110
530.37	0.110
530.82	0.110
531.28	0.109
531.73	0.110
532.18	0.112
532.64	0.110
533.09	0.111
533.54	0.109
534.00	0.111
534.45	0.112
534.91	0.108
535.36	0.111
535.81	0.110
536.27	0.109
536.72	0.110
537.17	0.111
537.63	0.110
538.08	0.113
538.54	0.111
538.99	0.112
539.44	0.109
539.90	0.111
540.35	0.111
540.80	0.111
541.26	0.111
541.71	0.114
542.16	0.113
542.62	0.114
543.07	0.113
543.52	0.113
543.98	0.112
544.43	0.112
544.88	0.112
545.34	0.115
545.79	0.115
546.24	0.115
546.69	0.113
547.15	0.114
547.60	0.116
548.05	0.114
548.51	0.118
548.96	0.114
549.41	0.114
549.86	0.115
550.32	0.117
550.77	0.117
551.22	0.116
551.68	0.117
552.13	0.121
552.58	0.118
553.03	0.117
553.49	0.116
553.94	0.117
554.39	0.118
554.84	0.121
555.30	0.120
555.75	0.122
556.20	0.121
556.65	0.121
557.11	0.123
557.56	0.123
558.01	0.124
558.46	0.122
558.92	0.126
559.37	0.127
559.82	0.124
560.27	0.124
560.72	0.124
561.18	0.125
561.63	0.126
562.08	0.125
562.53	0.126
562.99	0.127
563.44	0.127
563.89	0.127
564.34	0.128
564.79	0.130
565.25	0.129
565.70	0.131
566.15	0.130
566.60	0.131
567.05	0.131
567.50	0.133
567.96	0.133
568.41	0.132
568.86	0.133
569.31	0.133
569.76	0.133
570.21	0.135
570.67	0.135
571.12	0.135
571.57	0.137
572.02	0.138
572.47	0.137
572.92	0.139
573.37	0.142
573.83	0.141
574.28	0.140
574.73	0.141
575.18	0.143
575.63	0.142
576.08	0.144
576.53	0.143
576.98	0.143
577.44	0.147
577.89	0.146
578.34	0.148
578.79	0.147
579.24	0.149
579.69	0.148
580.14	0.150
580.59	0.152
581.04	0.152
581.49	0.152
581.95	0.153
582.40	0.155
582.85	0.159
583.30	0.158
583.75	0.161
584.20	0.158
584.65	0.159
585.10	0.165
585.55	0.163
586.00	0.164
586.45	0.164
586.90	0.167
587.35	0.166
587.80	0.168
588.25	0.170
588.71	0.172
589.16	0.175
589.61	0.173
590.06	0.176
590.51	0.176
590.96	0.178
591.41	0.181
591.86	0.182
592.31	0.184
592.76	0.185
593.21	0.184
593.66	0.188
594.11	0.189
594.56	0.190
595.01	0.194
595.46	0.191
595.91	0.195
596.36	0.197
596.81	0.200
597.26	0.198
597.71	0.200
598.16	0.205
598.61	0.205
599.06	0.207
599.51	0.207
599.96	0.210
600.41	0.209
600.86	0.212
601.31	0.212
601.76	0.215
602.21	0.219
602.65	0.217
603.10	0.218
603.55	0.221
604.00	0.223
604.45	0.224
604.90	0.224
605.35	0.228
605.80	0.228
606.25	0.230
606.70	0.232
607.15	0.232
607.60	0.234
608.05	0.234
608.50	0.236
608.95	0.236
609.39	0.241
609.84	0.238
610.29	0.239
610.74	0.242
611.19	0.241
611.64	0.241
612.09	0.244
612.54	0.245
612.99	0.246
613.44	0.245
613.88	0.246
614.33	0.244
614.78	0.249
615.23	0.248
615.68	0.250
616.13	0.249
616.58	0.251
617.03	0.252
617.47	0.251
617.92	0.255
618.37	0.254
618.82	0.252
619.27	0.253
619.72	0.254
620.17	0.254
620.61	0.256
621.06	0.256
621.51	0.255
621.96	0.255
622.41	0.256
622.86	0.256
623.30	0.259
623.75	0.259
624.20	0.259
624.65	0.259
625.10	0.261
625.54	0.261
625.99	0.261
626.44	0.264
626.89	0.264
627.34	0.267
627.78	0.267
628.23	0.268
628.68	0.266
629.13	0.269
629.58	0.269
630.02	0.272
630.47	0.274
630.92	0.273
631.37	0.276
631.81	0.278
632.26	0.277
632.71	0.279
633.16	0.282
633.61	0.282
634.05	0.283
634.50	0.283
634.95	0.287
635.40	0.290
635.84	0.291
636.29	0.291
636.74	0.295
637.18	0.298
637.63	0.299
638.08	0.300
638.53	0.302
638.97	0.303
639.42	0.306
639.87	0.308
640.32	0.311
640.76	0.314
641.21	0.318
641.66	0.318
642.10	0.321
642.55	0.324
643.00	0.324
643.44	0.327
643.89	0.331
644.34	0.334
644.79	0.337
645.23	0.337
645.68	0.341
646.13	0.343
646.57	0.345
647.02	0.349
647.47	0.352
647.91	0.355
648.36	0.356
648.81	0.357
649.25	0.359
649.70	0.362
650.15	0.368
650.59	0.369
651.04	0.373
651.48	0.372
651.93	0.375
652.38	0.380
652.82	0.380
653.27	0.379
653.72	0.383
654.16	0.386
654.61	0.387
655.06	0.387
655.50	0.388
655.95	0.386
656.39	0.385
656.84	0.400
657.29	0.403
657.73	0.399
658.18	0.397
658.62	0.402
659.07	0.404
659.52	0.403
659.96	0.405
660.41	0.407
660.85	0.406
661.30	0.408
661.74	0.409
662.19	0.408
662.64	0.408
663.08	0.409
663.53	0.408
663.97	0.409
664.42	0.408
664.86	0.411
665.31	0.412
665.75	0.408
666.20	0.407
666.65	0.406
667.09	0.404
667.54	0.404
667.98	0.402
668.43	0.401
668.87	0.399
669.32	0.396
669.76	0.395
670.21	0.395
670.65	0.389
671.10	0.386
671.54	0.384
671.99	0.383
672.43	0.375
672.88	0.372
673.32	0.367
673.77	0.363
674.21	0.358
674.66	0.351
675.10	0.348
675.55	0.342
675.99	0.336
676.44	0.330
676.88	0.323
677.33	0.320
677.77	0.314
678.22	0.307
678.66	0.300
679.11	0.292
679.55	0.288
679.99	0.282
680.44	0.275
680.88	0.269
681.33	0.265
681.77	0.257
682.22	0.248
682.66	0.245
683.11	0.235
683.55	0.231
683.99	0.226
684.44	0.220
684.88	0.214
685.33	0.209
685.77	0.202
686.21	0.200
686.66	0.191
687.10	0.186
687.55	0.185
687.99	0.178
688.44	0.174
688.88	0.168
689.32	0.164
689.77	0.160
690.21	0.157
690.65	0.153
691.10	0.149
691.54	0.145
691.99	0.142
692.43	0.141
692.87	0.136
693.32	0.134
693.76	0.130
694.20	0.128
694.65	0.125
695.09	0.122
695.53	0.117
695.98	0.119
696.42	0.116
696.86	0.115
697.31	0.112
697.75	0.111
698.19	0.110
698.64	0.109
699.08	0.105
699.52	0.103
699.97	0.102
700.41	0.101
700.85	0.101
701.30	0.096
701.74	0.098
702.18	0.096
702.63	0.094
703.07	0.091
703.51	0.095
703.96	0.094
704.40	0.091
704.84	0.089
705.28	0.089
705.73	0.090
706.17	0.088
706.61	0.088
707.06	0.088
707.50	0.087
707.94	0.087
708.38	0.085
708.83	0.085
709.27	0.085
709.71	0.085
710.15	0.082
710.60	0.086
711.04	0.081
711.48	0.081
711.92	0.083
712.37	0.081
712.81	0.083
713.25	0.083
713.69	0.082
714.13	0.080
714.58	0.081
715.02	0.080
715.46	0.082
715.90	0.079
716.35	0.078
716.79	0.083
717.23	0.083
717.67	0.081
718.11	0.078
718.56	0.078
719.00	0.080
719.44	0.079
719.88	0.082
720.32	0.080
720.76	0.077
721.21	0.080
721.65	0.078
722.09	0.079
722.53	0.079
722.97	0.078
723.41	0.078
723.86	0.079
724.30	0.077
724.74	0.080
725.18	0.078
725.62	0.079
726.06	0.082
726.50	0.082
726.95	0.082
727.39	0.082
727.83	0.081
728.27	0.082
728.71	0.079
729.15	0.081
729.59	0.079
730.03	0.080
730.48	0.080
730.92	0.082
731.36	0.079
731.80	0.079
732.24	0.084
732.68	0.082
733.12	0.081
733.56	0.081
734.00	0.083
734.44	0.081
734.89	0.082
735.33	0.081
735.77	0.082
736.21	0.081
736.65	0.084
737.09	0.084
737.53	0.084
737.97	0.082
738.41	0.082
738.85	0.082
739.29	0.083
739.73	0.082
740.17	0.082
740.61	0.082
741.05	0.085
741.49	0.083
741.93	0.084
742.37	0.082
742.81	0.083
743.26	0.084
743.70	0.083
744.14	0.083
744.58	0.083
745.02	0.081
745.46	0.085
745.90	0.081
746.34	0.082
746.78	0.085
747.22	0.080
747.66	0.083
748.10	0.083
748.54	0.082
748.98	0.083
749.42	0.085
749.86	0.084
750.29	0.084
750.73	0.084
751.17	0.084
751.61	0.084
752.05	0.083
752.49	0.081
752.93	0.082
753.37	0.083
753.81	0.082
754.25	0.083
754.69	0.083
755.13	0.083
755.57	0.081
756.01	0.080
756.45	0.082
756.89	0.083
757.33	0.081
757.77	0.084
758.21	0.083
758.64	0.079
759.08	0.079
759.52	0.080
759.96	0.082
760.40	0.080
760.84	0.078
761.28	0.079
761.72	0.080
762.16	0.078
762.60	0.081
763.03	0.082
763.47	0.080
763.91	0.081
764.35	0.079
764.79	0.081
765.23	0.082
765.67	0.081
766.11	0.080
766.54	0.080
766.98	0.079
767.42	0.083
767.86	0.083
768.30	0.080
768.74	0.079
769.17	0.082
769.61	0.078
770.05	0.079
770.49	0.084
770.93	0.079
771.37	0.081
771.80	0.081
772.24	0.076
772.68	0.081
773.12	0.079
773.56	0.082
774.00	0.081
774.43	0.079
774.87	0.080
775.31	0.082
775.75	0.083
776.19	0.079
776.62	0.081
777.06	0.078
777.50	0.081
777.94	0.079
778.37	0.083
778.81	0.079
779.25	0.078
779.69	0.079
780.13	0.080
780.56	0.078
781.00	0.079
781.44	0.080
781.88	0.079
782.31	0.075
782.75	0.077
783.19	0.078
783.63	0.079
784.06	0.081
784.50	0.079
784.94	0.081
785.37	0.078
785.81	0.079
786.25	0.078
786.69	0.085
787.12	0.083
787.56	0.082
788.00	0.080
788.43	0.081
788.87	0.082
789.31	0.083
789.75	0.080
790.18	0.081
790.62	0.078
791.06	0.081
791.49	0.083
791.93	0.078
792.37	0.077
792.80	0.080
793.24	0.078
793.68	0.082
794.11	0.080
794.55	0.082
794.99	0.080
795.42	0.084
795.86	0.084
796.30	0.080
796.73	0.080
797.17	0.079
797.61	0.081
798.04	0.079
798.48	0.080
798.91	0.081
799.35	0.081
799.79	0.076
800.22	0.078
800.66	0.079
801.10	0.082
801.53	0.084
801.97	0.083
802.40	0.078
802.84	0.077
803.28	0.080
803.71	0.081
804.15	0.082
804.58	0.084
805.02	0.081
805.46	0.076
805.89	0.078
806.33	0.081
806.76	0.080
807.20	0.081
807.63	0.080
808.07	0.081
808.51	0.081
808.94	0.081
809.38	0.082
809.81	0.083
810.25	0.079
810.68	0.082
811.12	0.080
811.55	0.082
811.99	0.078
812.42	0.081
812.86	0.080
813.29	0.082
813.73	0.083
814.17	0.076
814.60	0.078
