SpectraSuite Data File
++++++++++++++++++++++++++++++++++++
Date: Wed May 04 16:05:01 CEST 2016
User: spectrasuite
Dark Spectrum Present: Yes
Reference Spectrum Present: Yes
Number of Sampled Component Spectra: 1
Spectrometers: HR+C0708
Integration Time (usec): 1000 (HR+C0708)
Spectra Averaged: 10 (HR+C0708)
Boxcar Smoothing: 0 (HR+C0708)
Correct for Electrical Dark: No (HR+C0708)
Strobe/Lamp Enabled: No (HR+C0708)
Correct for Detector Non-linearity: No (HR+C0708)
Correct for Stray Light: No (HR+C0708)
Number of Pixels in Processed Spectrum: 2048
>>>>>Begin Processed Spectral Data<<<<<
188.76	-0.000
189.23	-0.000
189.70	-0.000
190.17	-0.000
190.64	-0.000
191.12	-0.000
191.59	-0.000
192.06	-0.000
192.53	-0.000
193.01	-0.000
193.48	-0.000
193.95	-0.000
194.42	-0.000
194.90	-0.000
195.37	-0.000
195.84	-0.000
196.31	-0.000
196.78	-0.000
197.26	-0.000
197.73	-0.000
198.20	-0.000
198.67	-0.000
199.14	-0.000
199.62	-0.000
200.09	-0.000
200.56	-0.000
201.03	-0.000
201.50	-0.000
201.97	-0.000
202.45	-0.000
202.92	-0.000
203.39	-0.000
203.86	-0.000
204.33	-0.000
204.80	-0.000
205.28	-0.000
205.75	-0.000
206.22	-0.000
206.69	-0.000
207.16	-0.000
207.63	-0.000
208.11	-0.000
208.58	-0.000
209.05	-0.000
209.52	-0.000
209.99	-0.000
210.46	-0.000
210.93	-0.000
211.41	-0.000
211.88	-0.000
212.35	-0.000
212.82	-0.000
213.29	1.840
213.76	-0.000
214.23	-0.000
214.70	-0.000
215.18	2.744
215.65	1.087
216.12	-0.000
216.59	-0.000
217.06	0.927
217.53	-0.000
218.00	-0.000
218.47	1.335
218.94	-0.000
219.41	-0.000
219.89	-0.000
220.36	-0.000
220.83	-0.000
221.30	-0.000
221.77	-0.000
222.24	1.338
222.71	-0.000
223.18	2.399
223.65	1.598
224.12	-0.000
224.59	1.347
225.06	-0.000
225.54	1.552
226.01	-0.000
226.48	-0.000
226.95	-0.000
227.42	-0.000
227.89	-0.000
228.36	-0.000
228.83	-0.000
229.30	-0.000
229.77	-0.000
230.24	-0.000
230.71	-0.000
231.18	1.993
231.65	-0.000
232.12	-0.000
232.59	2.831
233.06	-0.000
233.53	-0.000
234.00	2.620
234.47	-0.000
234.94	-0.000
235.41	-0.000
235.88	-0.000
236.35	-0.000
236.82	-0.000
237.29	2.783
237.76	3.516
238.23	-0.000
238.70	-0.000
239.17	-0.000
239.64	-0.000
240.11	-0.000
240.58	2.823
241.05	-0.000
241.52	-0.000
241.99	2.620
242.46	2.576
242.93	2.793
243.40	-0.000
243.87	-0.000
244.34	2.626
244.81	-0.000
245.28	3.726
245.75	2.922
246.22	3.505
246.69	-0.000
247.16	3.417
247.63	3.500
248.10	-0.000
248.57	-0.000
249.04	3.234
249.51	2.914
249.98	-0.000
250.45	3.861
250.92	2.768
251.39	2.550
251.85	2.521
252.32	2.350
252.79	2.142
253.26	1.958
253.73	1.812
254.20	1.680
254.67	1.610
255.14	1.544
255.61	1.468
256.08	1.388
256.55	1.333
257.02	1.275
257.49	1.230
257.95	1.171
258.42	1.133
258.89	1.109
259.36	1.074
259.83	1.042
260.30	1.026
260.77	0.995
261.24	0.968
261.71	0.947
262.17	0.935
262.64	0.914
263.11	0.891
263.58	0.879
264.05	0.863
264.52	0.845
264.99	0.833
265.46	0.822
265.92	0.803
266.39	0.794
266.86	0.780
267.33	0.770
267.80	0.759
268.27	0.749
268.74	0.740
269.20	0.730
269.67	0.721
270.14	0.716
270.61	0.707
271.08	0.697
271.55	0.688
272.01	0.683
272.48	0.673
272.95	0.669
273.42	0.660
273.89	0.657
274.36	0.649
274.82	0.639
275.29	0.637
275.76	0.632
276.23	0.629
276.70	0.623
277.16	0.624
277.63	0.619
278.10	0.611
278.57	0.608
279.04	0.606
279.50	0.605
279.97	0.600
280.44	0.596
280.91	0.595
281.38	0.592
281.84	0.588
282.31	0.587
282.78	0.590
283.25	0.584
283.72	0.581
284.18	0.582
284.65	0.583
285.12	0.583
285.59	0.580
286.05	0.579
286.52	0.580
286.99	0.581
287.46	0.580
287.92	0.576
288.39	0.576
288.86	0.576
289.33	0.576
289.79	0.576
290.26	0.573
290.73	0.569
291.20	0.570
291.66	0.564
292.13	0.565
292.60	0.564
293.07	0.557
293.53	0.548
294.00	0.549
294.47	0.543
294.93	0.537
295.40	0.530
295.87	0.527
296.34	0.520
296.80	0.511
297.27	0.500
297.74	0.494
298.20	0.489
298.67	0.483
299.14	0.475
299.60	0.467
300.07	0.458
300.54	0.455
301.01	0.447
301.47	0.440
301.94	0.428
302.41	0.422
302.87	0.415
303.34	0.410
303.81	0.402
304.27	0.397
304.74	0.388
305.21	0.379
305.67	0.377
306.14	0.369
306.61	0.364
307.07	0.359
307.54	0.353
308.01	0.346
308.47	0.342
308.94	0.340
309.40	0.336
309.87	0.331
310.34	0.329
310.80	0.325
311.27	0.321
311.74	0.316
312.20	0.315
312.67	0.312
313.13	0.307
313.60	0.308
314.07	0.302
314.53	0.298
315.00	0.297
315.47	0.299
315.93	0.297
316.40	0.292
316.86	0.292
317.33	0.291
317.80	0.288
318.26	0.287
318.73	0.287
319.19	0.286
319.66	0.281
320.13	0.280
320.59	0.282
321.06	0.278
321.52	0.277
321.99	0.276
322.45	0.272
322.92	0.273
323.39	0.273
323.85	0.271
324.32	0.268
324.78	0.268
325.25	0.264
325.71	0.265
326.18	0.263
326.64	0.259
327.11	0.260
327.58	0.257
328.04	0.259
328.51	0.256
328.97	0.257
329.44	0.253
329.90	0.249
330.37	0.250
330.83	0.247
331.30	0.246
331.76	0.244
332.23	0.243
332.69	0.239
333.16	0.239
333.62	0.237
334.09	0.236
334.56	0.235
335.02	0.229
335.49	0.228
335.95	0.227
336.42	0.227
336.88	0.222
337.35	0.219
337.81	0.219
338.28	0.222
338.74	0.220
339.20	0.221
339.67	0.219
340.13	0.220
340.60	0.217
341.06	0.214
341.53	0.212
341.99	0.208
342.46	0.208
342.92	0.206
343.39	0.205
343.85	0.203
344.32	0.202
344.78	0.201
345.25	0.203
345.71	0.207
346.17	0.205
346.64	0.206
347.10	0.200
347.57	0.199
348.03	0.195
348.50	0.193
348.96	0.195
349.43	0.196
349.89	0.198
350.35	0.196
350.82	0.195
351.28	0.198
351.75	0.194
352.21	0.195
352.67	0.192
353.14	0.193
353.60	0.191
354.07	0.189
354.53	0.190
355.00	0.184
355.46	0.183
355.92	0.184
356.39	0.185
356.85	0.179
357.31	0.179
357.78	0.179
358.24	0.178
358.71	0.177
359.17	0.178
359.63	0.175
360.10	0.176
360.56	0.174
361.03	0.175
361.49	0.174
361.95	0.173
362.42	0.173
362.88	0.173
363.34	0.177
363.81	0.172
364.27	0.172
364.73	0.175
365.20	0.173
365.66	0.170
366.12	0.174
366.59	0.169
367.05	0.169
367.51	0.170
367.98	0.171
368.44	0.170
368.90	0.169
369.37	0.167
369.83	0.171
370.29	0.167
370.76	0.166
371.22	0.165
371.68	0.164
372.15	0.165
372.61	0.163
373.07	0.164
373.54	0.162
374.00	0.163
374.46	0.163
374.92	0.164
375.39	0.164
375.85	0.162
376.31	0.163
376.78	0.161
377.24	0.163
377.70	0.162
378.16	0.161
378.63	0.163
379.09	0.162
379.55	0.162
380.01	0.164
380.48	0.163
380.94	0.163
381.40	0.160
381.87	0.161
382.33	0.158
382.79	0.159
383.25	0.159
383.72	0.162
384.18	0.160
384.64	0.160
385.10	0.158
385.56	0.157
386.03	0.160
386.49	0.158
386.95	0.158
387.41	0.157
387.88	0.154
388.34	0.154
388.80	0.157
389.26	0.155
389.72	0.158
390.19	0.155
390.65	0.156
391.11	0.154
391.57	0.155
392.04	0.155
392.50	0.152
392.96	0.154
393.42	0.154
393.88	0.155
394.34	0.152
394.81	0.154
395.27	0.149
395.73	0.149
396.19	0.151
396.65	0.151
397.12	0.149
397.58	0.150
398.04	0.150
398.50	0.151
398.96	0.153
399.42	0.151
399.89	0.154
400.35	0.154
400.81	0.149
401.27	0.153
401.73	0.151
402.19	0.152
402.65	0.146
403.12	0.147
403.58	0.145
404.04	0.144
404.50	0.145
404.96	0.145
405.42	0.146
405.88	0.148
406.34	0.148
406.81	0.147
407.27	0.145
407.73	0.141
408.19	0.143
408.65	0.142
409.11	0.140
409.57	0.144
410.03	0.145
410.49	0.143
410.96	0.144
411.42	0.143
411.88	0.138
412.34	0.136
412.80	0.139
413.26	0.141
413.72	0.139
414.18	0.138
414.64	0.138
415.10	0.139
415.56	0.140
416.02	0.141
416.48	0.139
416.95	0.140
417.41	0.138
417.87	0.138
418.33	0.138
418.79	0.135
419.25	0.139
419.71	0.138
420.17	0.136
420.63	0.134
421.09	0.136
421.55	0.134
422.01	0.136
422.47	0.141
422.93	0.140
423.39	0.135
423.85	0.136
424.31	0.135
424.77	0.137
425.23	0.136
425.69	0.138
426.15	0.140
426.61	0.139
427.07	0.131
427.53	0.132
427.99	0.133
428.45	0.135
428.91	0.133
429.37	0.131
429.83	0.132
430.29	0.134
430.75	0.135
431.21	0.138
431.67	0.137
432.13	0.138
432.59	0.133
433.05	0.132
433.51	0.130
433.97	0.129
434.43	0.138
434.89	0.138
435.35	0.138
435.81	0.134
436.27	0.134
436.73	0.132
437.19	0.139
437.65	0.133
438.11	0.133
438.57	0.135
439.03	0.134
439.48	0.136
439.94	0.134
440.40	0.132
440.86	0.130
441.32	0.132
441.78	0.129
442.24	0.132
442.70	0.132
443.16	0.131
443.62	0.134
444.08	0.133
444.54	0.133
444.99	0.132
445.45	0.130
445.91	0.131
446.37	0.130
446.83	0.132
447.29	0.131
447.75	0.129
448.21	0.134
448.67	0.130
449.12	0.131
449.58	0.130
450.04	0.134
450.50	0.131
450.96	0.126
451.42	0.131
451.88	0.131
452.34	0.130
452.79	0.131
453.25	0.131
453.71	0.131
454.17	0.128
454.63	0.132
455.09	0.131
455.55	0.129
456.00	0.125
456.46	0.129
456.92	0.129
457.38	0.129
457.84	0.129
458.30	0.129
458.75	0.125
459.21	0.127
459.67	0.125
460.13	0.124
460.59	0.127
461.04	0.128
461.50	0.124
461.96	0.126
462.42	0.126
462.88	0.126
463.33	0.126
463.79	0.126
464.25	0.124
464.71	0.128
465.17	0.127
465.62	0.126
466.08	0.128
466.54	0.130
467.00	0.127
467.46	0.129
467.91	0.129
468.37	0.126
468.83	0.131
469.29	0.128
469.74	0.127
470.20	0.128
470.66	0.127
471.12	0.129
471.57	0.129
472.03	0.127
472.49	0.128
472.95	0.129
473.40	0.127
473.86	0.130
474.32	0.127
474.78	0.130
475.23	0.130
475.69	0.126
476.15	0.131
476.60	0.128
477.06	0.130
477.52	0.127
477.98	0.128
478.43	0.130
478.89	0.129
479.35	0.131
479.80	0.128
480.26	0.125
480.72	0.127
481.18	0.127
481.63	0.129
482.09	0.126
482.55	0.125
483.00	0.125
483.46	0.126
483.92	0.127
484.37	0.126
484.83	0.124
485.29	0.125
485.74	0.125
486.20	0.125
486.66	0.127
487.11	0.126
487.57	0.126
488.03	0.124
488.48	0.128
488.94	0.124
489.40	0.126
489.85	0.127
490.31	0.126
490.77	0.123
491.22	0.128
491.68	0.125
492.13	0.128
492.59	0.128
493.05	0.124
493.50	0.126
493.96	0.125
494.42	0.127
494.87	0.126
495.33	0.126
495.78	0.124
496.24	0.127
496.70	0.127
497.15	0.126
497.61	0.125
498.06	0.125
498.52	0.125
498.98	0.123
499.43	0.125
499.89	0.126
500.34	0.124
500.80	0.125
501.25	0.124
501.71	0.123
502.17	0.123
502.62	0.124
503.08	0.122
503.53	0.124
503.99	0.123
504.44	0.123
504.90	0.121
505.36	0.121
505.81	0.124
506.27	0.123
506.72	0.122
507.18	0.123
507.63	0.123
508.09	0.122
508.54	0.121
509.00	0.123
509.45	0.123
509.91	0.122
510.36	0.123
510.82	0.124
511.27	0.124
511.73	0.122
512.19	0.123
512.64	0.121
513.10	0.123
513.55	0.121
514.01	0.124
514.46	0.121
514.92	0.122
515.37	0.123
515.83	0.122
516.28	0.123
516.73	0.123
517.19	0.121
517.64	0.122
518.10	0.122
518.55	0.121
519.01	0.122
519.46	0.121
519.92	0.121
520.37	0.121
520.83	0.122
521.28	0.118
521.74	0.119
522.19	0.120
522.65	0.121
523.10	0.120
523.55	0.120
524.01	0.121
524.46	0.122
524.92	0.120
525.37	0.121
525.83	0.121
526.28	0.121
526.73	0.121
527.19	0.120
527.64	0.121
528.10	0.121
528.55	0.122
529.01	0.122
529.46	0.122
529.91	0.120
530.37	0.122
530.82	0.122
531.28	0.120
531.73	0.122
532.18	0.125
532.64	0.122
533.09	0.121
533.54	0.120
534.00	0.123
534.45	0.124
534.91	0.119
535.36	0.121
535.81	0.121
536.27	0.121
536.72	0.121
537.17	0.122
537.63	0.120
538.08	0.124
538.54	0.123
538.99	0.124
539.44	0.124
539.90	0.123
540.35	0.123
540.80	0.121
541.26	0.123
541.71	0.126
542.16	0.125
542.62	0.128
543.07	0.125
543.52	0.124
543.98	0.125
544.43	0.125
544.88	0.125
545.34	0.127
545.79	0.127
546.24	0.126
546.69	0.126
547.15	0.125
547.60	0.127
548.05	0.127
548.51	0.127
548.96	0.128
549.41	0.129
549.86	0.130
550.32	0.129
550.77	0.130
551.22	0.128
551.68	0.129
552.13	0.131
552.58	0.131
553.03	0.133
553.49	0.131
553.94	0.130
554.39	0.133
554.84	0.133
555.30	0.133
555.75	0.132
556.20	0.133
556.65	0.135
557.11	0.136
557.56	0.134
558.01	0.135
558.46	0.135
558.92	0.136
559.37	0.138
559.82	0.138
560.27	0.139
560.72	0.139
561.18	0.138
561.63	0.138
562.08	0.138
562.53	0.137
562.99	0.141
563.44	0.142
563.89	0.142
564.34	0.143
564.79	0.144
565.25	0.144
565.70	0.144
566.15	0.144
566.60	0.147
567.05	0.145
567.50	0.148
567.96	0.148
568.41	0.148
568.86	0.146
569.31	0.149
569.76	0.148
570.21	0.150
570.67	0.148
571.12	0.151
571.57	0.152
572.02	0.153
572.47	0.153
572.92	0.154
573.37	0.157
573.83	0.156
574.28	0.156
574.73	0.156
575.18	0.157
575.63	0.158
576.08	0.159
576.53	0.158
576.98	0.159
577.44	0.163
577.89	0.162
578.34	0.165
578.79	0.164
579.24	0.164
579.69	0.165
580.14	0.166
580.59	0.167
581.04	0.169
581.49	0.170
581.95	0.171
582.40	0.172
582.85	0.175
583.30	0.175
583.75	0.178
584.20	0.176
584.65	0.177
585.10	0.180
585.55	0.182
586.00	0.182
586.45	0.183
586.90	0.185
587.35	0.186
587.80	0.188
588.25	0.189
588.71	0.192
589.16	0.194
589.61	0.191
590.06	0.194
590.51	0.197
590.96	0.199
591.41	0.200
591.86	0.203
592.31	0.203
592.76	0.205
593.21	0.203
593.66	0.209
594.11	0.211
594.56	0.212
595.01	0.212
595.46	0.215
595.91	0.218
596.36	0.218
596.81	0.222
597.26	0.223
597.71	0.223
598.16	0.226
598.61	0.228
599.06	0.228
599.51	0.231
599.96	0.232
600.41	0.235
600.86	0.236
601.31	0.236
601.76	0.242
602.21	0.243
602.65	0.243
603.10	0.244
603.55	0.245
604.00	0.250
604.45	0.250
604.90	0.250
605.35	0.253
605.80	0.252
606.25	0.255
606.70	0.259
607.15	0.259
607.60	0.261
608.05	0.260
608.50	0.263
608.95	0.265
609.39	0.264
609.84	0.266
610.29	0.268
610.74	0.267
611.19	0.269
611.64	0.269
612.09	0.270
612.54	0.272
612.99	0.273
613.44	0.274
613.88	0.275
614.33	0.273
614.78	0.277
615.23	0.278
615.68	0.276
616.13	0.277
616.58	0.280
617.03	0.282
617.47	0.283
617.92	0.283
618.37	0.283
618.82	0.281
619.27	0.283
619.72	0.282
620.17	0.284
620.61	0.286
621.06	0.286
621.51	0.285
621.96	0.286
622.41	0.286
622.86	0.286
623.30	0.288
623.75	0.290
624.20	0.291
624.65	0.291
625.10	0.291
625.54	0.291
625.99	0.291
626.44	0.293
626.89	0.295
627.34	0.293
627.78	0.296
628.23	0.299
628.68	0.298
629.13	0.298
629.58	0.300
630.02	0.303
630.47	0.303
630.92	0.303
631.37	0.305
631.81	0.307
632.26	0.308
632.71	0.312
633.16	0.312
633.61	0.315
634.05	0.314
634.50	0.315
634.95	0.319
635.40	0.322
635.84	0.323
636.29	0.326
636.74	0.328
637.18	0.331
637.63	0.332
638.08	0.332
638.53	0.336
638.97	0.338
639.42	0.340
639.87	0.342
640.32	0.347
640.76	0.347
641.21	0.351
641.66	0.353
642.10	0.356
642.55	0.361
643.00	0.361
643.44	0.364
643.89	0.367
644.34	0.370
644.79	0.376
645.23	0.376
645.68	0.378
646.13	0.384
646.57	0.385
647.02	0.386
647.47	0.392
647.91	0.393
648.36	0.394
648.81	0.398
649.25	0.401
649.70	0.403
650.15	0.406
650.59	0.409
651.04	0.415
651.48	0.414
651.93	0.417
652.38	0.420
652.82	0.420
653.27	0.424
653.72	0.428
654.16	0.427
654.61	0.431
655.06	0.431
655.50	0.433
655.95	0.431
656.39	0.435
656.84	0.446
657.29	0.447
657.73	0.446
658.18	0.442
658.62	0.448
659.07	0.453
659.52	0.452
659.96	0.451
660.41	0.453
660.85	0.455
661.30	0.455
661.74	0.458
662.19	0.459
662.64	0.459
663.08	0.458
663.53	0.459
663.97	0.460
664.42	0.457
664.86	0.459
665.31	0.459
665.75	0.455
666.20	0.458
666.65	0.457
667.09	0.457
667.54	0.454
667.98	0.452
668.43	0.450
668.87	0.447
669.32	0.447
669.76	0.442
670.21	0.439
670.65	0.436
671.10	0.433
671.54	0.433
671.99	0.429
672.43	0.420
672.88	0.418
673.32	0.413
673.77	0.409
674.21	0.403
674.66	0.393
675.10	0.393
675.55	0.386
675.99	0.378
676.44	0.371
676.88	0.366
677.33	0.361
677.77	0.352
678.22	0.345
678.66	0.340
679.11	0.329
679.55	0.324
679.99	0.318
680.44	0.308
680.88	0.301
681.33	0.294
681.77	0.288
682.22	0.281
682.66	0.275
683.11	0.265
683.55	0.262
683.99	0.255
684.44	0.249
684.88	0.242
685.33	0.232
685.77	0.225
686.21	0.224
686.66	0.215
687.10	0.209
687.55	0.204
687.99	0.198
688.44	0.195
688.88	0.188
689.32	0.184
689.77	0.179
690.21	0.176
690.65	0.172
691.10	0.168
691.54	0.162
691.99	0.159
692.43	0.155
692.87	0.154
693.32	0.150
693.76	0.145
694.20	0.143
694.65	0.140
695.09	0.134
695.53	0.131
695.98	0.132
696.42	0.131
696.86	0.129
697.31	0.124
697.75	0.123
698.19	0.122
698.64	0.119
699.08	0.116
699.52	0.114
699.97	0.114
700.41	0.114
700.85	0.112
701.30	0.107
701.74	0.108
702.18	0.105
702.63	0.105
703.07	0.102
703.51	0.101
703.96	0.102
704.40	0.101
704.84	0.102
705.28	0.098
705.73	0.099
706.17	0.096
706.61	0.098
707.06	0.096
707.50	0.094
707.94	0.096
708.38	0.093
708.83	0.094
709.27	0.093
709.71	0.093
710.15	0.091
710.60	0.095
711.04	0.091
711.48	0.093
711.92	0.089
712.37	0.089
712.81	0.090
713.25	0.091
713.69	0.088
714.13	0.090
714.58	0.087
715.02	0.087
715.46	0.086
715.90	0.087
716.35	0.087
716.79	0.088
717.23	0.088
717.67	0.089
718.11	0.084
718.56	0.087
719.00	0.086
719.44	0.087
719.88	0.089
720.32	0.088
720.76	0.084
721.21	0.087
721.65	0.089
722.09	0.088
722.53	0.085
722.97	0.085
723.41	0.084
723.86	0.086
724.30	0.085
724.74	0.088
725.18	0.084
725.62	0.086
726.06	0.088
726.50	0.087
726.95	0.086
727.39	0.088
727.83	0.086
728.27	0.089
728.71	0.088
729.15	0.088
729.59	0.086
730.03	0.089
730.48	0.089
730.92	0.088
731.36	0.086
731.80	0.089
732.24	0.090
732.68	0.087
733.12	0.089
733.56	0.088
734.00	0.091
734.44	0.090
734.89	0.089
735.33	0.086
735.77	0.090
736.21	0.087
736.65	0.090
737.09	0.091
737.53	0.090
737.97	0.090
738.41	0.088
738.85	0.089
739.29	0.087
739.73	0.091
740.17	0.088
740.61	0.087
741.05	0.093
741.49	0.091
741.93	0.089
742.37	0.088
742.81	0.089
743.26	0.090
743.70	0.090
744.14	0.090
744.58	0.089
745.02	0.088
745.46	0.088
745.90	0.090
746.34	0.092
746.78	0.092
747.22	0.090
747.66	0.089
748.10	0.088
748.54	0.091
748.98	0.088
749.42	0.085
749.86	0.088
750.29	0.090
750.73	0.088
751.17	0.090
751.61	0.092
752.05	0.088
752.49	0.089
752.93	0.085
753.37	0.090
753.81	0.087
754.25	0.088
754.69	0.089
755.13	0.093
755.57	0.089
756.01	0.088
756.45	0.088
756.89	0.089
757.33	0.087
757.77	0.089
758.21	0.090
758.64	0.084
759.08	0.088
759.52	0.087
759.96	0.088
760.40	0.089
760.84	0.085
761.28	0.087
761.72	0.088
762.16	0.086
762.60	0.087
763.03	0.089
763.47	0.086
763.91	0.085
764.35	0.085
764.79	0.085
765.23	0.085
765.67	0.087
766.11	0.088
766.54	0.086
766.98	0.084
767.42	0.086
767.86	0.090
768.30	0.085
768.74	0.087
769.17	0.087
769.61	0.086
770.05	0.086
770.49	0.088
770.93	0.087
771.37	0.088
771.80	0.086
772.24	0.083
772.68	0.087
773.12	0.084
773.56	0.087
774.00	0.089
774.43	0.084
774.87	0.087
775.31	0.086
775.75	0.085
776.19	0.086
776.62	0.086
777.06	0.084
777.50	0.087
777.94	0.086
778.37	0.087
778.81	0.084
779.25	0.082
779.69	0.084
780.13	0.085
780.56	0.081
781.00	0.086
781.44	0.084
781.88	0.087
782.31	0.081
782.75	0.086
783.19	0.085
783.63	0.088
784.06	0.086
784.50	0.085
784.94	0.087
785.37	0.083
785.81	0.085
786.25	0.085
786.69	0.086
787.12	0.087
787.56	0.086
788.00	0.086
788.43	0.087
788.87	0.086
789.31	0.087
789.75	0.085
790.18	0.083
790.62	0.084
791.06	0.082
791.49	0.088
791.93	0.084
792.37	0.082
792.80	0.087
793.24	0.087
793.68	0.087
794.11	0.087
794.55	0.087
794.99	0.087
795.42	0.086
795.86	0.090
796.30	0.085
796.73	0.084
797.17	0.085
797.61	0.086
798.04	0.086
798.48	0.087
798.91	0.088
799.35	0.086
799.79	0.085
800.22	0.085
800.66	0.085
801.10	0.088
801.53	0.090
801.97	0.086
802.40	0.082
802.84	0.083
803.28	0.085
803.71	0.085
804.15	0.089
804.58	0.089
805.02	0.090
805.46	0.087
805.89	0.086
806.33	0.087
806.76	0.087
807.20	0.089
807.63	0.086
808.07	0.085
808.51	0.086
808.94	0.086
809.38	0.084
809.81	0.085
810.25	0.087
810.68	0.086
811.12	0.087
811.55	0.086
811.99	0.086
812.42	0.085
812.86	0.088
813.29	0.088
813.73	0.087
814.17	0.081
814.60	0.084
