SpectraSuite Data File
++++++++++++++++++++++++++++++++++++
Date: Wed May 04 16:23:10 CEST 2016
User: spectrasuite
Dark Spectrum Present: Yes
Reference Spectrum Present: Yes
Number of Sampled Component Spectra: 1
Spectrometers: HR+C0708
Integration Time (usec): 1000 (HR+C0708)
Spectra Averaged: 10 (HR+C0708)
Boxcar Smoothing: 0 (HR+C0708)
Correct for Electrical Dark: No (HR+C0708)
Strobe/Lamp Enabled: No (HR+C0708)
Correct for Detector Non-linearity: No (HR+C0708)
Correct for Stray Light: No (HR+C0708)
Number of Pixels in Processed Spectrum: 2048
>>>>>Begin Processed Spectral Data<<<<<
188.76	-0.000
189.23	-0.000
189.70	-0.000
190.17	-0.000
190.64	-0.000
191.12	-0.000
191.59	-0.000
192.06	-0.000
192.53	-0.000
193.01	-0.000
193.48	-0.000
193.95	-0.000
194.42	-0.000
194.90	-0.000
195.37	-0.000
195.84	-0.000
196.31	-0.000
196.78	-0.000
197.26	-0.000
197.73	-0.000
198.20	-0.000
198.67	-0.000
199.14	-0.000
199.62	-0.000
200.09	-0.000
200.56	-0.000
201.03	-0.000
201.50	-0.000
201.97	-0.000
202.45	-0.000
202.92	-0.000
203.39	-0.000
203.86	-0.000
204.33	-0.000
204.80	-0.000
205.28	-0.000
205.75	-0.000
206.22	-0.000
206.69	-0.000
207.16	-0.000
207.63	-0.000
208.11	-0.000
208.58	-0.000
209.05	-0.000
209.52	-0.000
209.99	-0.000
210.46	-0.000
210.93	-0.000
211.41	2.200
211.88	-0.000
212.35	-0.000
212.82	-0.000
213.29	-0.000
213.76	-0.000
214.23	-0.000
214.70	-0.000
215.18	-0.000
215.65	-0.000
216.12	-0.000
216.59	-0.000
217.06	1.831
217.53	-0.000
218.00	-0.000
218.47	-0.000
218.94	-0.000
219.41	1.207
219.89	-0.000
220.36	-0.000
220.83	-0.000
221.30	-0.000
221.77	-0.000
222.24	1.247
222.71	-0.000
223.18	-0.000
223.65	1.011
224.12	1.916
224.59	1.577
225.06	-0.000
225.54	1.508
226.01	-0.000
226.48	-0.000
226.95	-0.000
227.42	-0.000
227.89	-0.000
228.36	-0.000
228.83	-0.000
229.30	-0.000
229.77	-0.000
230.24	-0.000
230.71	-0.000
231.18	2.082
231.65	-0.000
232.12	-0.000
232.59	-0.000
233.06	-0.000
233.53	-0.000
234.00	3.097
234.47	-0.000
234.94	2.502
235.41	3.712
235.88	-0.000
236.35	-0.000
236.82	-0.000
237.29	-0.000
237.76	2.552
238.23	-0.000
238.70	-0.000
239.17	2.886
239.64	-0.000
240.11	-0.000
240.58	2.982
241.05	-0.000
241.52	-0.000
241.99	3.644
242.46	2.750
242.93	2.632
243.40	-0.000
243.87	4.574
244.34	2.812
244.81	-0.000
245.28	-0.000
245.75	-0.000
246.22	-0.000
246.69	-0.000
247.16	3.468
247.63	-0.000
248.10	3.600
248.57	-0.000
249.04	3.550
249.51	2.929
249.98	-0.000
250.45	3.034
250.92	2.910
251.39	2.811
251.85	2.667
252.32	2.312
252.79	2.115
253.26	1.906
253.73	1.815
254.20	1.700
254.67	1.595
255.14	1.576
255.61	1.451
256.08	1.384
256.55	1.327
257.02	1.282
257.49	1.228
257.95	1.185
258.42	1.142
258.89	1.106
259.36	1.074
259.83	1.045
260.30	1.019
260.77	0.996
261.24	0.969
261.71	0.950
262.17	0.926
262.64	0.910
263.11	0.894
263.58	0.872
264.05	0.862
264.52	0.843
264.99	0.826
265.46	0.816
265.92	0.801
266.39	0.790
266.86	0.783
267.33	0.769
267.80	0.763
268.27	0.749
268.74	0.741
269.20	0.730
269.67	0.723
270.14	0.709
270.61	0.707
271.08	0.697
271.55	0.685
272.01	0.682
272.48	0.671
272.95	0.662
273.42	0.660
273.89	0.653
274.36	0.646
274.82	0.643
275.29	0.635
275.76	0.629
276.23	0.628
276.70	0.622
277.16	0.618
277.63	0.611
278.10	0.606
278.57	0.605
279.04	0.607
279.50	0.601
279.97	0.593
280.44	0.593
280.91	0.592
281.38	0.586
281.84	0.581
282.31	0.582
282.78	0.584
283.25	0.581
283.72	0.579
284.18	0.581
284.65	0.580
285.12	0.577
285.59	0.572
286.05	0.574
286.52	0.572
286.99	0.573
287.46	0.575
287.92	0.569
288.39	0.568
288.86	0.572
289.33	0.568
289.79	0.568
290.26	0.563
290.73	0.563
291.20	0.560
291.66	0.557
292.13	0.556
292.60	0.557
293.07	0.549
293.53	0.542
294.00	0.542
294.47	0.535
294.93	0.529
295.40	0.523
295.87	0.521
296.34	0.511
296.80	0.507
297.27	0.491
297.74	0.491
298.20	0.483
298.67	0.473
299.14	0.466
299.60	0.459
300.07	0.451
300.54	0.443
301.01	0.438
301.47	0.435
301.94	0.425
302.41	0.415
302.87	0.411
303.34	0.406
303.81	0.396
304.27	0.393
304.74	0.385
305.21	0.376
305.67	0.371
306.14	0.365
306.61	0.361
307.07	0.354
307.54	0.353
308.01	0.344
308.47	0.339
308.94	0.335
309.40	0.330
309.87	0.331
310.34	0.328
310.80	0.322
311.27	0.316
311.74	0.314
312.20	0.310
312.67	0.307
313.13	0.305
313.60	0.302
314.07	0.298
314.53	0.298
315.00	0.294
315.47	0.294
315.93	0.292
316.40	0.288
316.86	0.286
317.33	0.285
317.80	0.285
318.26	0.284
318.73	0.283
319.19	0.280
319.66	0.276
320.13	0.276
320.59	0.276
321.06	0.276
321.52	0.270
321.99	0.272
322.45	0.272
322.92	0.270
323.39	0.267
323.85	0.266
324.32	0.265
324.78	0.264
325.25	0.259
325.71	0.260
326.18	0.258
326.64	0.255
327.11	0.254
327.58	0.254
328.04	0.255
328.51	0.252
328.97	0.251
329.44	0.250
329.90	0.246
330.37	0.247
330.83	0.246
331.30	0.242
331.76	0.240
332.23	0.240
332.69	0.236
333.16	0.236
333.62	0.233
334.09	0.232
334.56	0.230
335.02	0.227
335.49	0.225
335.95	0.223
336.42	0.222
336.88	0.217
337.35	0.217
337.81	0.215
338.28	0.217
338.74	0.214
339.20	0.215
339.67	0.216
340.13	0.216
340.60	0.214
341.06	0.206
341.53	0.206
341.99	0.206
342.46	0.202
342.92	0.202
343.39	0.199
343.85	0.198
344.32	0.201
344.78	0.198
345.25	0.203
345.71	0.201
346.17	0.199
346.64	0.202
347.10	0.196
347.57	0.195
348.03	0.193
348.50	0.191
348.96	0.194
349.43	0.194
349.89	0.191
350.35	0.191
350.82	0.191
351.28	0.191
351.75	0.188
352.21	0.192
352.67	0.186
353.14	0.192
353.60	0.185
354.07	0.186
354.53	0.184
355.00	0.182
355.46	0.182
355.92	0.177
356.39	0.179
356.85	0.175
357.31	0.171
357.78	0.172
358.24	0.174
358.71	0.176
359.17	0.173
359.63	0.172
360.10	0.172
360.56	0.170
361.03	0.170
361.49	0.171
361.95	0.168
362.42	0.169
362.88	0.172
363.34	0.170
363.81	0.167
364.27	0.168
364.73	0.169
365.20	0.167
365.66	0.166
366.12	0.166
366.59	0.168
367.05	0.165
367.51	0.167
367.98	0.163
368.44	0.164
368.90	0.165
369.37	0.163
369.83	0.166
370.29	0.164
370.76	0.162
371.22	0.161
371.68	0.161
372.15	0.160
372.61	0.159
373.07	0.161
373.54	0.157
374.00	0.159
374.46	0.160
374.92	0.161
375.39	0.161
375.85	0.158
376.31	0.159
376.78	0.160
377.24	0.156
377.70	0.156
378.16	0.159
378.63	0.159
379.09	0.159
379.55	0.158
380.01	0.157
380.48	0.158
380.94	0.158
381.40	0.158
381.87	0.158
382.33	0.157
382.79	0.155
383.25	0.157
383.72	0.157
384.18	0.155
384.64	0.158
385.10	0.153
385.56	0.154
386.03	0.154
386.49	0.154
386.95	0.155
387.41	0.153
387.88	0.150
388.34	0.152
388.80	0.152
389.26	0.153
389.72	0.152
390.19	0.150
390.65	0.151
391.11	0.151
391.57	0.149
392.04	0.148
392.50	0.149
392.96	0.147
393.42	0.152
393.88	0.151
394.34	0.148
394.81	0.152
395.27	0.149
395.73	0.146
396.19	0.148
396.65	0.147
397.12	0.145
397.58	0.146
398.04	0.146
398.50	0.148
398.96	0.149
399.42	0.150
399.89	0.149
400.35	0.149
400.81	0.146
401.27	0.147
401.73	0.147
402.19	0.144
402.65	0.142
403.12	0.144
403.58	0.143
404.04	0.141
404.50	0.142
404.96	0.142
405.42	0.143
405.88	0.143
406.34	0.147
406.81	0.141
407.27	0.139
407.73	0.138
408.19	0.138
408.65	0.136
409.11	0.140
409.57	0.141
410.03	0.143
410.49	0.138
410.96	0.140
411.42	0.141
411.88	0.136
412.34	0.133
412.80	0.137
413.26	0.137
413.72	0.137
414.18	0.137
414.64	0.137
415.10	0.136
415.56	0.136
416.02	0.136
416.48	0.137
416.95	0.137
417.41	0.137
417.87	0.136
418.33	0.133
418.79	0.133
419.25	0.135
419.71	0.134
420.17	0.132
420.63	0.130
421.09	0.130
421.55	0.132
422.01	0.131
422.47	0.136
422.93	0.137
423.39	0.132
423.85	0.132
424.31	0.132
424.77	0.131
425.23	0.133
425.69	0.136
426.15	0.136
426.61	0.134
427.07	0.129
427.53	0.131
427.99	0.131
428.45	0.136
428.91	0.130
429.37	0.129
429.83	0.127
430.29	0.131
430.75	0.133
431.21	0.137
431.67	0.138
432.13	0.136
432.59	0.130
433.05	0.132
433.51	0.126
433.97	0.126
434.43	0.134
434.89	0.134
435.35	0.130
435.81	0.134
436.27	0.130
436.73	0.129
437.19	0.132
437.65	0.129
438.11	0.134
438.57	0.131
439.03	0.129
439.48	0.134
439.94	0.131
440.40	0.127
440.86	0.126
441.32	0.126
441.78	0.125
442.24	0.132
442.70	0.130
443.16	0.127
443.62	0.129
444.08	0.127
444.54	0.129
444.99	0.129
445.45	0.124
445.91	0.122
446.37	0.125
446.83	0.125
447.29	0.128
447.75	0.127
448.21	0.130
448.67	0.127
449.12	0.126
449.58	0.127
450.04	0.129
450.50	0.128
450.96	0.128
451.42	0.127
451.88	0.130
452.34	0.125
452.79	0.126
453.25	0.126
453.71	0.128
454.17	0.125
454.63	0.128
455.09	0.125
455.55	0.126
456.00	0.125
456.46	0.127
456.92	0.125
457.38	0.125
457.84	0.125
458.30	0.128
458.75	0.125
459.21	0.124
459.67	0.123
460.13	0.125
460.59	0.125
461.04	0.125
461.50	0.121
461.96	0.124
462.42	0.122
462.88	0.122
463.33	0.124
463.79	0.124
464.25	0.124
464.71	0.125
465.17	0.123
465.62	0.122
466.08	0.125
466.54	0.126
467.00	0.124
467.46	0.124
467.91	0.127
468.37	0.124
468.83	0.125
469.29	0.125
469.74	0.123
470.20	0.125
470.66	0.124
471.12	0.125
471.57	0.124
472.03	0.124
472.49	0.126
472.95	0.127
473.40	0.123
473.86	0.127
474.32	0.124
474.78	0.124
475.23	0.125
475.69	0.125
476.15	0.127
476.60	0.126
477.06	0.126
477.52	0.123
477.98	0.126
478.43	0.126
478.89	0.124
479.35	0.125
479.80	0.125
480.26	0.122
480.72	0.125
481.18	0.122
481.63	0.125
482.09	0.123
482.55	0.121
483.00	0.119
483.46	0.124
483.92	0.122
484.37	0.122
484.83	0.120
485.29	0.123
485.74	0.120
486.20	0.122
486.66	0.125
487.11	0.121
487.57	0.123
488.03	0.119
488.48	0.125
488.94	0.121
489.40	0.121
489.85	0.123
490.31	0.122
490.77	0.122
491.22	0.124
491.68	0.123
492.13	0.121
492.59	0.125
493.05	0.124
493.50	0.121
493.96	0.120
494.42	0.123
494.87	0.121
495.33	0.120
495.78	0.121
496.24	0.122
496.70	0.124
497.15	0.123
497.61	0.122
498.06	0.120
498.52	0.121
498.98	0.121
499.43	0.122
499.89	0.122
500.34	0.122
500.80	0.120
501.25	0.120
501.71	0.120
502.17	0.117
502.62	0.121
503.08	0.119
503.53	0.121
503.99	0.119
504.44	0.121
504.90	0.120
505.36	0.120
505.81	0.121
506.27	0.119
506.72	0.119
507.18	0.119
507.63	0.120
508.09	0.119
508.54	0.119
509.00	0.120
509.45	0.120
509.91	0.119
510.36	0.120
510.82	0.120
511.27	0.121
511.73	0.120
512.19	0.120
512.64	0.118
513.10	0.119
513.55	0.119
514.01	0.121
514.46	0.121
514.92	0.120
515.37	0.120
515.83	0.117
516.28	0.119
516.73	0.117
517.19	0.118
517.64	0.118
518.10	0.117
518.55	0.117
519.01	0.120
519.46	0.117
519.92	0.116
520.37	0.117
520.83	0.118
521.28	0.116
521.74	0.117
522.19	0.116
522.65	0.116
523.10	0.118
523.55	0.117
524.01	0.119
524.46	0.118
524.92	0.117
525.37	0.116
525.83	0.117
526.28	0.118
526.73	0.119
527.19	0.117
527.64	0.117
528.10	0.118
528.55	0.118
529.01	0.118
529.46	0.120
529.91	0.117
530.37	0.118
530.82	0.119
531.28	0.118
531.73	0.118
532.18	0.121
532.64	0.117
533.09	0.119
533.54	0.118
534.00	0.119
534.45	0.119
534.91	0.117
535.36	0.118
535.81	0.117
536.27	0.118
536.72	0.117
537.17	0.117
537.63	0.119
538.08	0.120
538.54	0.118
538.99	0.120
539.44	0.120
539.90	0.121
540.35	0.118
540.80	0.118
541.26	0.118
541.71	0.123
542.16	0.120
542.62	0.123
543.07	0.122
543.52	0.122
543.98	0.122
544.43	0.121
544.88	0.120
545.34	0.124
545.79	0.124
546.24	0.123
546.69	0.122
547.15	0.124
547.60	0.121
548.05	0.125
548.51	0.124
548.96	0.125
549.41	0.124
549.86	0.125
550.32	0.125
550.77	0.124
551.22	0.124
551.68	0.127
552.13	0.128
552.58	0.127
553.03	0.128
553.49	0.128
553.94	0.128
554.39	0.128
554.84	0.130
555.30	0.128
555.75	0.130
556.20	0.129
556.65	0.132
557.11	0.132
557.56	0.131
558.01	0.133
558.46	0.132
558.92	0.133
559.37	0.136
559.82	0.134
560.27	0.133
560.72	0.135
561.18	0.134
561.63	0.134
562.08	0.136
562.53	0.136
562.99	0.135
563.44	0.137
563.89	0.138
564.34	0.138
564.79	0.139
565.25	0.139
565.70	0.141
566.15	0.141
566.60	0.141
567.05	0.143
567.50	0.142
567.96	0.144
568.41	0.144
568.86	0.143
569.31	0.145
569.76	0.146
570.21	0.147
570.67	0.144
571.12	0.146
571.57	0.147
572.02	0.149
572.47	0.148
572.92	0.151
573.37	0.152
573.83	0.151
574.28	0.152
574.73	0.153
575.18	0.153
575.63	0.154
576.08	0.154
576.53	0.154
576.98	0.154
577.44	0.159
577.89	0.157
578.34	0.161
578.79	0.158
579.24	0.158
579.69	0.160
580.14	0.161
580.59	0.162
581.04	0.163
581.49	0.164
581.95	0.166
582.40	0.169
582.85	0.169
583.30	0.168
583.75	0.173
584.20	0.173
584.65	0.174
585.10	0.177
585.55	0.176
586.00	0.175
586.45	0.180
586.90	0.180
587.35	0.179
587.80	0.182
588.25	0.184
588.71	0.186
589.16	0.189
589.61	0.187
590.06	0.187
590.51	0.191
590.96	0.192
591.41	0.194
591.86	0.196
592.31	0.196
592.76	0.200
593.21	0.198
593.66	0.204
594.11	0.204
594.56	0.206
595.01	0.209
595.46	0.209
595.91	0.212
596.36	0.211
596.81	0.217
597.26	0.215
597.71	0.218
598.16	0.219
598.61	0.222
599.06	0.222
599.51	0.224
599.96	0.226
600.41	0.227
600.86	0.232
601.31	0.230
601.76	0.235
602.21	0.236
602.65	0.237
603.10	0.237
603.55	0.238
604.00	0.240
604.45	0.242
604.90	0.243
605.35	0.248
605.80	0.246
606.25	0.248
606.70	0.251
607.15	0.251
607.60	0.252
608.05	0.253
608.50	0.256
608.95	0.257
609.39	0.258
609.84	0.259
610.29	0.261
610.74	0.261
611.19	0.263
611.64	0.264
612.09	0.265
612.54	0.265
612.99	0.265
613.44	0.267
613.88	0.267
614.33	0.266
614.78	0.271
615.23	0.269
615.68	0.269
616.13	0.272
616.58	0.272
617.03	0.273
617.47	0.273
617.92	0.275
618.37	0.275
618.82	0.274
619.27	0.274
619.72	0.275
620.17	0.276
620.61	0.276
621.06	0.276
621.51	0.278
621.96	0.278
622.41	0.278
622.86	0.279
623.30	0.279
623.75	0.280
624.20	0.281
624.65	0.284
625.10	0.284
625.54	0.281
625.99	0.285
626.44	0.286
626.89	0.286
627.34	0.287
627.78	0.289
628.23	0.290
628.68	0.290
629.13	0.291
629.58	0.292
630.02	0.292
630.47	0.294
630.92	0.295
631.37	0.299
631.81	0.297
632.26	0.300
632.71	0.302
633.16	0.304
633.61	0.304
634.05	0.307
634.50	0.307
634.95	0.311
635.40	0.312
635.84	0.315
636.29	0.318
636.74	0.322
637.18	0.321
637.63	0.323
638.08	0.327
638.53	0.326
638.97	0.327
639.42	0.333
639.87	0.332
640.32	0.336
640.76	0.339
641.21	0.342
641.66	0.343
642.10	0.346
642.55	0.349
643.00	0.353
643.44	0.353
643.89	0.358
644.34	0.360
644.79	0.364
645.23	0.367
645.68	0.366
646.13	0.372
646.57	0.374
647.02	0.379
647.47	0.381
647.91	0.382
648.36	0.384
648.81	0.387
649.25	0.389
649.70	0.391
650.15	0.396
650.59	0.402
651.04	0.401
651.48	0.402
651.93	0.405
652.38	0.408
652.82	0.410
653.27	0.411
653.72	0.414
654.16	0.416
654.61	0.416
655.06	0.420
655.50	0.422
655.95	0.420
656.39	0.419
656.84	0.434
657.29	0.435
657.73	0.432
658.18	0.431
658.62	0.435
659.07	0.437
659.52	0.436
659.96	0.438
660.41	0.442
660.85	0.442
661.30	0.444
661.74	0.443
662.19	0.445
662.64	0.444
663.08	0.445
663.53	0.445
663.97	0.447
664.42	0.441
664.86	0.446
665.31	0.446
665.75	0.445
666.20	0.443
666.65	0.446
667.09	0.442
667.54	0.439
667.98	0.438
668.43	0.438
668.87	0.434
669.32	0.433
669.76	0.429
670.21	0.426
670.65	0.424
671.10	0.420
671.54	0.419
671.99	0.416
672.43	0.409
672.88	0.404
673.32	0.401
673.77	0.397
674.21	0.392
674.66	0.383
675.10	0.378
675.55	0.372
675.99	0.362
676.44	0.360
676.88	0.354
677.33	0.348
677.77	0.341
678.22	0.333
678.66	0.329
679.11	0.320
679.55	0.314
679.99	0.305
680.44	0.299
680.88	0.291
681.33	0.287
681.77	0.279
682.22	0.268
682.66	0.265
683.11	0.256
683.55	0.252
683.99	0.247
684.44	0.240
684.88	0.237
685.33	0.227
685.77	0.221
686.21	0.215
686.66	0.209
687.10	0.202
687.55	0.199
687.99	0.193
688.44	0.189
688.88	0.182
689.32	0.177
689.77	0.176
690.21	0.170
690.65	0.166
691.10	0.161
691.54	0.158
691.99	0.155
692.43	0.151
692.87	0.147
693.32	0.143
693.76	0.140
694.20	0.139
694.65	0.136
695.09	0.133
695.53	0.130
695.98	0.127
696.42	0.126
696.86	0.124
697.31	0.121
697.75	0.119
698.19	0.118
698.64	0.116
699.08	0.114
699.52	0.111
699.97	0.110
700.41	0.109
700.85	0.108
701.30	0.105
701.74	0.104
702.18	0.101
702.63	0.104
703.07	0.101
703.51	0.100
703.96	0.099
704.40	0.098
704.84	0.098
705.28	0.096
705.73	0.097
706.17	0.093
706.61	0.095
707.06	0.093
707.50	0.093
707.94	0.092
708.38	0.090
708.83	0.092
709.27	0.092
709.71	0.091
710.15	0.089
710.60	0.093
711.04	0.087
711.48	0.088
711.92	0.089
712.37	0.089
712.81	0.086
713.25	0.089
713.69	0.085
714.13	0.086
714.58	0.086
715.02	0.084
715.46	0.083
715.90	0.085
716.35	0.084
716.79	0.085
717.23	0.087
717.67	0.087
718.11	0.082
718.56	0.085
719.00	0.085
719.44	0.084
719.88	0.084
720.32	0.085
720.76	0.084
721.21	0.086
721.65	0.085
722.09	0.084
722.53	0.085
722.97	0.085
723.41	0.085
723.86	0.084
724.30	0.086
724.74	0.087
725.18	0.084
725.62	0.085
726.06	0.083
726.50	0.086
726.95	0.087
727.39	0.084
727.83	0.086
728.27	0.086
728.71	0.087
729.15	0.083
729.59	0.085
730.03	0.086
730.48	0.086
730.92	0.085
731.36	0.086
731.80	0.084
732.24	0.087
732.68	0.085
733.12	0.087
733.56	0.087
734.00	0.086
734.44	0.085
734.89	0.088
735.33	0.085
735.77	0.088
736.21	0.086
736.65	0.087
737.09	0.091
737.53	0.088
737.97	0.089
738.41	0.088
738.85	0.087
739.29	0.085
739.73	0.089
740.17	0.087
740.61	0.086
741.05	0.086
741.49	0.089
741.93	0.086
742.37	0.087
742.81	0.088
743.26	0.088
743.70	0.088
744.14	0.088
744.58	0.086
745.02	0.087
745.46	0.088
745.90	0.087
746.34	0.087
746.78	0.088
747.22	0.085
747.66	0.087
748.10	0.087
748.54	0.086
748.98	0.086
749.42	0.086
749.86	0.087
750.29	0.086
750.73	0.089
751.17	0.087
751.61	0.088
752.05	0.083
752.49	0.087
752.93	0.084
753.37	0.090
753.81	0.087
754.25	0.087
754.69	0.088
755.13	0.089
755.57	0.086
756.01	0.086
756.45	0.085
756.89	0.087
757.33	0.086
757.77	0.086
758.21	0.088
758.64	0.085
759.08	0.084
759.52	0.086
759.96	0.088
760.40	0.085
760.84	0.084
761.28	0.084
761.72	0.084
762.16	0.084
762.60	0.086
763.03	0.086
763.47	0.085
763.91	0.085
764.35	0.085
764.79	0.084
765.23	0.085
765.67	0.083
766.11	0.087
766.54	0.084
766.98	0.083
767.42	0.083
767.86	0.088
768.30	0.083
768.74	0.084
769.17	0.085
769.61	0.084
770.05	0.084
770.49	0.086
770.93	0.085
771.37	0.085
771.80	0.081
772.24	0.083
772.68	0.085
773.12	0.083
773.56	0.086
774.00	0.086
774.43	0.087
774.87	0.083
775.31	0.084
775.75	0.084
776.19	0.083
776.62	0.085
777.06	0.084
777.50	0.083
777.94	0.080
778.37	0.085
778.81	0.083
779.25	0.082
779.69	0.084
780.13	0.087
780.56	0.082
781.00	0.085
781.44	0.085
781.88	0.086
782.31	0.083
782.75	0.080
783.19	0.084
783.63	0.084
784.06	0.085
784.50	0.084
784.94	0.084
785.37	0.083
785.81	0.081
786.25	0.084
786.69	0.085
787.12	0.085
787.56	0.087
788.00	0.083
788.43	0.084
788.87	0.086
789.31	0.086
789.75	0.086
790.18	0.085
790.62	0.082
791.06	0.084
791.49	0.084
791.93	0.082
792.37	0.080
792.80	0.083
793.24	0.082
793.68	0.083
794.11	0.088
794.55	0.084
794.99	0.085
795.42	0.084
795.86	0.086
796.30	0.086
796.73	0.082
797.17	0.083
797.61	0.088
798.04	0.086
798.48	0.085
798.91	0.083
799.35	0.083
799.79	0.081
800.22	0.086
800.66	0.086
801.10	0.087
801.53	0.086
801.97	0.086
802.40	0.081
802.84	0.085
803.28	0.081
803.71	0.088
804.15	0.086
804.58	0.089
805.02	0.085
805.46	0.082
805.89	0.086
806.33	0.086
806.76	0.084
807.20	0.084
807.63	0.084
808.07	0.085
808.51	0.088
808.94	0.087
809.38	0.084
809.81	0.087
810.25	0.082
810.68	0.086
811.12	0.082
811.55	0.086
811.99	0.088
812.42	0.085
812.86	0.085
813.29	0.085
813.73	0.085
814.17	0.078
814.60	0.084
