SpectraSuite Data File
++++++++++++++++++++++++++++++++++++
Date: Wed May 04 16:34:15 CEST 2016
User: spectrasuite
Dark Spectrum Present: Yes
Reference Spectrum Present: Yes
Number of Sampled Component Spectra: 1
Spectrometers: HR+C0708
Integration Time (usec): 1000 (HR+C0708)
Spectra Averaged: 10 (HR+C0708)
Boxcar Smoothing: 0 (HR+C0708)
Correct for Electrical Dark: No (HR+C0708)
Strobe/Lamp Enabled: No (HR+C0708)
Correct for Detector Non-linearity: No (HR+C0708)
Correct for Stray Light: No (HR+C0708)
Number of Pixels in Processed Spectrum: 2048
>>>>>Begin Processed Spectral Data<<<<<
188.76	-0.000
189.23	-0.000
189.70	-0.000
190.17	-0.000
190.64	-0.000
191.12	-0.000
191.59	-0.000
192.06	-0.000
192.53	-0.000
193.01	-0.000
193.48	-0.000
193.95	-0.000
194.42	-0.000
194.90	-0.000
195.37	-0.000
195.84	-0.000
196.31	-0.000
196.78	-0.000
197.26	-0.000
197.73	-0.000
198.20	-0.000
198.67	-0.000
199.14	-0.000
199.62	-0.000
200.09	-0.000
200.56	-0.000
201.03	-0.000
201.50	-0.000
201.97	-0.000
202.45	-0.000
202.92	-0.000
203.39	-0.000
203.86	-0.000
204.33	-0.000
204.80	-0.000
205.28	-0.000
205.75	-0.000
206.22	-0.000
206.69	-0.000
207.16	-0.000
207.63	-0.000
208.11	-0.000
208.58	-0.000
209.05	-0.000
209.52	-0.000
209.99	-0.000
210.46	-0.000
210.93	-0.000
211.41	-0.000
211.88	-0.000
212.35	-0.000
212.82	-0.000
213.29	-0.000
213.76	-0.000
214.23	-0.000
214.70	-0.000
215.18	-0.000
215.65	1.554
216.12	-0.000
216.59	1.557
217.06	1.789
217.53	1.846
218.00	-0.000
218.47	1.287
218.94	-0.000
219.41	-0.000
219.89	-0.000
220.36	-0.000
220.83	1.470
221.30	-0.000
221.77	-0.000
222.24	-0.000
222.71	1.332
223.18	-0.000
223.65	1.317
224.12	2.268
224.59	1.347
225.06	-0.000
225.54	-0.000
226.01	-0.000
226.48	-0.000
226.95	-0.000
227.42	1.248
227.89	-0.000
228.36	-0.000
228.83	-0.000
229.30	2.570
229.77	-0.000
230.24	2.865
230.71	2.118
231.18	1.687
231.65	-0.000
232.12	-0.000
232.59	-0.000
233.06	-0.000
233.53	-0.000
234.00	2.357
234.47	-0.000
234.94	-0.000
235.41	-0.000
235.88	2.692
236.35	-0.000
236.82	-0.000
237.29	2.801
237.76	3.038
238.23	-0.000
238.70	-0.000
239.17	2.618
239.64	-0.000
240.11	-0.000
240.58	2.857
241.05	3.535
241.52	-0.000
241.99	-0.000
242.46	2.797
242.93	2.643
243.40	-0.000
243.87	3.461
244.34	2.812
244.81	2.739
245.28	-0.000
245.75	3.191
246.22	2.819
246.69	-0.000
247.16	-0.000
247.63	-0.000
248.10	3.680
248.57	-0.000
249.04	-0.000
249.51	2.842
249.98	-0.000
250.45	-0.000
250.92	2.858
251.39	2.547
251.85	2.869
252.32	2.372
252.79	2.114
253.26	1.997
253.73	1.866
254.20	1.705
254.67	1.613
255.14	1.558
255.61	1.470
256.08	1.394
256.55	1.335
257.02	1.287
257.49	1.225
257.95	1.177
258.42	1.142
258.89	1.109
259.36	1.081
259.83	1.044
260.30	1.025
260.77	0.997
261.24	0.971
261.71	0.951
262.17	0.932
262.64	0.915
263.11	0.889
263.58	0.875
264.05	0.861
264.52	0.845
264.99	0.831
265.46	0.820
265.92	0.806
266.39	0.790
266.86	0.781
267.33	0.772
267.80	0.759
268.27	0.749
268.74	0.741
269.20	0.728
269.67	0.724
270.14	0.711
270.61	0.703
271.08	0.693
271.55	0.687
272.01	0.680
272.48	0.673
272.95	0.662
273.42	0.654
273.89	0.656
274.36	0.644
274.82	0.637
275.29	0.635
275.76	0.631
276.23	0.627
276.70	0.622
277.16	0.618
277.63	0.616
278.10	0.610
278.57	0.601
279.04	0.599
279.50	0.599
279.97	0.596
280.44	0.590
280.91	0.591
281.38	0.583
281.84	0.582
282.31	0.579
282.78	0.578
283.25	0.580
283.72	0.575
284.18	0.575
284.65	0.573
285.12	0.572
285.59	0.572
286.05	0.570
286.52	0.567
286.99	0.573
287.46	0.572
287.92	0.568
288.39	0.566
288.86	0.569
289.33	0.565
289.79	0.563
290.26	0.562
290.73	0.561
291.20	0.558
291.66	0.554
292.13	0.556
292.60	0.551
293.07	0.545
293.53	0.539
294.00	0.541
294.47	0.533
294.93	0.530
295.40	0.521
295.87	0.517
296.34	0.507
296.80	0.503
297.27	0.493
297.74	0.484
298.20	0.481
298.67	0.473
299.14	0.468
299.60	0.461
300.07	0.448
300.54	0.443
301.01	0.437
301.47	0.428
301.94	0.426
302.41	0.415
302.87	0.409
303.34	0.400
303.81	0.395
304.27	0.389
304.74	0.381
305.21	0.375
305.67	0.370
306.14	0.363
306.61	0.360
307.07	0.351
307.54	0.348
308.01	0.341
308.47	0.337
308.94	0.334
309.40	0.333
309.87	0.326
310.34	0.323
310.80	0.323
311.27	0.316
311.74	0.315
312.20	0.311
312.67	0.308
313.13	0.300
313.60	0.298
314.07	0.299
314.53	0.296
315.00	0.290
315.47	0.292
315.93	0.293
316.40	0.288
316.86	0.288
317.33	0.286
317.80	0.285
318.26	0.281
318.73	0.281
319.19	0.281
319.66	0.279
320.13	0.274
320.59	0.275
321.06	0.275
321.52	0.269
321.99	0.271
322.45	0.267
322.92	0.268
323.39	0.266
323.85	0.265
324.32	0.264
324.78	0.262
325.25	0.260
325.71	0.262
326.18	0.259
326.64	0.254
327.11	0.251
327.58	0.255
328.04	0.255
328.51	0.251
328.97	0.248
329.44	0.245
329.90	0.244
330.37	0.244
330.83	0.243
331.30	0.241
331.76	0.236
332.23	0.238
332.69	0.234
333.16	0.235
333.62	0.232
334.09	0.229
334.56	0.229
335.02	0.225
335.49	0.224
335.95	0.221
336.42	0.220
336.88	0.216
337.35	0.212
337.81	0.213
338.28	0.216
338.74	0.212
339.20	0.215
339.67	0.213
340.13	0.213
340.60	0.214
341.06	0.206
341.53	0.206
341.99	0.202
342.46	0.204
342.92	0.203
343.39	0.196
343.85	0.198
344.32	0.197
344.78	0.197
345.25	0.201
345.71	0.198
346.17	0.198
346.64	0.201
347.10	0.197
347.57	0.192
348.03	0.190
348.50	0.189
348.96	0.192
349.43	0.191
349.89	0.192
350.35	0.191
350.82	0.188
351.28	0.191
351.75	0.187
352.21	0.192
352.67	0.184
353.14	0.187
353.60	0.183
354.07	0.185
354.53	0.182
355.00	0.183
355.46	0.182
355.92	0.177
356.39	0.177
356.85	0.174
357.31	0.171
357.78	0.172
358.24	0.169
358.71	0.172
359.17	0.174
359.63	0.171
360.10	0.169
360.56	0.169
361.03	0.170
361.49	0.170
361.95	0.169
362.42	0.168
362.88	0.170
363.34	0.169
363.81	0.166
364.27	0.167
364.73	0.169
365.20	0.166
365.66	0.165
366.12	0.166
366.59	0.164
367.05	0.167
367.51	0.166
367.98	0.165
368.44	0.165
368.90	0.164
369.37	0.165
369.83	0.163
370.29	0.160
370.76	0.162
371.22	0.161
371.68	0.161
372.15	0.160
372.61	0.158
373.07	0.159
373.54	0.158
374.00	0.158
374.46	0.158
374.92	0.157
375.39	0.158
375.85	0.156
376.31	0.158
376.78	0.157
377.24	0.155
377.70	0.156
378.16	0.156
378.63	0.157
379.09	0.156
379.55	0.155
380.01	0.158
380.48	0.157
380.94	0.156
381.40	0.156
381.87	0.157
382.33	0.155
382.79	0.155
383.25	0.154
383.72	0.157
384.18	0.153
384.64	0.154
385.10	0.155
385.56	0.151
386.03	0.154
386.49	0.153
386.95	0.153
387.41	0.151
387.88	0.149
388.34	0.148
388.80	0.151
389.26	0.152
389.72	0.150
390.19	0.149
390.65	0.149
391.11	0.149
391.57	0.150
392.04	0.148
392.50	0.150
392.96	0.148
393.42	0.150
393.88	0.152
394.34	0.149
394.81	0.148
395.27	0.149
395.73	0.146
396.19	0.149
396.65	0.146
397.12	0.143
397.58	0.145
398.04	0.145
398.50	0.145
398.96	0.147
399.42	0.148
399.89	0.148
400.35	0.146
400.81	0.143
401.27	0.148
401.73	0.144
402.19	0.147
402.65	0.140
403.12	0.143
403.58	0.142
404.04	0.138
404.50	0.138
404.96	0.140
405.42	0.141
405.88	0.143
406.34	0.143
406.81	0.143
407.27	0.141
407.73	0.137
408.19	0.139
408.65	0.136
409.11	0.139
409.57	0.139
410.03	0.140
410.49	0.139
410.96	0.136
411.42	0.138
411.88	0.136
412.34	0.134
412.80	0.134
413.26	0.137
413.72	0.135
414.18	0.135
414.64	0.134
415.10	0.135
415.56	0.136
416.02	0.134
416.48	0.134
416.95	0.137
417.41	0.132
417.87	0.134
418.33	0.135
418.79	0.134
419.25	0.133
419.71	0.134
420.17	0.129
420.63	0.130
421.09	0.130
421.55	0.131
422.01	0.133
422.47	0.136
422.93	0.135
423.39	0.132
423.85	0.131
424.31	0.130
424.77	0.133
425.23	0.128
425.69	0.133
426.15	0.134
426.61	0.133
427.07	0.128
427.53	0.127
427.99	0.132
428.45	0.132
428.91	0.129
429.37	0.129
429.83	0.128
430.29	0.130
430.75	0.131
431.21	0.134
431.67	0.137
432.13	0.133
432.59	0.129
433.05	0.128
433.51	0.125
433.97	0.125
434.43	0.134
434.89	0.136
435.35	0.130
435.81	0.132
436.27	0.130
436.73	0.128
437.19	0.132
437.65	0.129
438.11	0.130
438.57	0.129
439.03	0.127
439.48	0.129
439.94	0.131
440.40	0.129
440.86	0.126
441.32	0.127
441.78	0.126
442.24	0.129
442.70	0.129
443.16	0.125
443.62	0.130
444.08	0.127
444.54	0.125
444.99	0.127
445.45	0.123
445.91	0.125
446.37	0.127
446.83	0.129
447.29	0.126
447.75	0.125
448.21	0.128
448.67	0.126
449.12	0.125
449.58	0.127
450.04	0.129
450.50	0.126
450.96	0.127
451.42	0.127
451.88	0.129
452.34	0.125
452.79	0.127
453.25	0.128
453.71	0.128
454.17	0.123
454.63	0.125
455.09	0.127
455.55	0.125
456.00	0.123
456.46	0.126
456.92	0.124
457.38	0.123
457.84	0.125
458.30	0.125
458.75	0.122
459.21	0.122
459.67	0.123
460.13	0.123
460.59	0.123
461.04	0.124
461.50	0.120
461.96	0.121
462.42	0.119
462.88	0.122
463.33	0.123
463.79	0.122
464.25	0.120
464.71	0.124
465.17	0.122
465.62	0.123
466.08	0.123
466.54	0.124
467.00	0.122
467.46	0.125
467.91	0.125
468.37	0.123
468.83	0.126
469.29	0.125
469.74	0.123
470.20	0.124
470.66	0.121
471.12	0.123
471.57	0.122
472.03	0.123
472.49	0.124
472.95	0.126
473.40	0.125
473.86	0.125
474.32	0.122
474.78	0.122
475.23	0.125
475.69	0.123
476.15	0.126
476.60	0.127
477.06	0.125
477.52	0.123
477.98	0.126
478.43	0.124
478.89	0.123
479.35	0.125
479.80	0.124
480.26	0.119
480.72	0.121
481.18	0.122
481.63	0.124
482.09	0.125
482.55	0.121
483.00	0.120
483.46	0.121
483.92	0.120
484.37	0.120
484.83	0.121
485.29	0.123
485.74	0.121
486.20	0.121
486.66	0.121
487.11	0.120
487.57	0.120
488.03	0.121
488.48	0.123
488.94	0.122
489.40	0.122
489.85	0.122
490.31	0.121
490.77	0.120
491.22	0.123
491.68	0.122
492.13	0.121
492.59	0.125
493.05	0.123
493.50	0.121
493.96	0.121
494.42	0.123
494.87	0.122
495.33	0.121
495.78	0.121
496.24	0.120
496.70	0.123
497.15	0.122
497.61	0.121
498.06	0.122
498.52	0.120
498.98	0.119
499.43	0.122
499.89	0.122
500.34	0.118
500.80	0.120
501.25	0.120
501.71	0.119
502.17	0.117
502.62	0.119
503.08	0.117
503.53	0.118
503.99	0.119
504.44	0.121
504.90	0.115
505.36	0.118
505.81	0.121
506.27	0.118
506.72	0.117
507.18	0.119
507.63	0.120
508.09	0.117
508.54	0.116
509.00	0.120
509.45	0.119
509.91	0.117
510.36	0.118
510.82	0.119
511.27	0.117
511.73	0.119
512.19	0.117
512.64	0.118
513.10	0.120
513.55	0.119
514.01	0.119
514.46	0.118
514.92	0.119
515.37	0.119
515.83	0.118
516.28	0.117
516.73	0.117
517.19	0.116
517.64	0.118
518.10	0.115
518.55	0.118
519.01	0.118
519.46	0.117
519.92	0.116
520.37	0.117
520.83	0.118
521.28	0.117
521.74	0.116
522.19	0.115
522.65	0.115
523.10	0.115
523.55	0.118
524.01	0.116
524.46	0.116
524.92	0.116
525.37	0.119
525.83	0.117
526.28	0.116
526.73	0.114
527.19	0.117
527.64	0.116
528.10	0.117
528.55	0.117
529.01	0.118
529.46	0.117
529.91	0.117
530.37	0.117
530.82	0.117
531.28	0.116
531.73	0.118
532.18	0.119
532.64	0.118
533.09	0.117
533.54	0.117
534.00	0.118
534.45	0.116
534.91	0.117
535.36	0.119
535.81	0.117
536.27	0.116
536.72	0.118
537.17	0.118
537.63	0.117
538.08	0.121
538.54	0.118
538.99	0.120
539.44	0.120
539.90	0.120
540.35	0.119
540.80	0.119
541.26	0.120
541.71	0.123
542.16	0.120
542.62	0.121
543.07	0.123
543.52	0.121
543.98	0.121
544.43	0.121
544.88	0.120
545.34	0.122
545.79	0.120
546.24	0.123
546.69	0.122
547.15	0.123
547.60	0.121
548.05	0.121
548.51	0.124
548.96	0.122
549.41	0.124
549.86	0.126
550.32	0.126
550.77	0.126
551.22	0.125
551.68	0.124
552.13	0.127
552.58	0.126
553.03	0.125
553.49	0.125
553.94	0.125
554.39	0.127
554.84	0.127
555.30	0.127
555.75	0.130
556.20	0.129
556.65	0.130
557.11	0.129
557.56	0.131
558.01	0.132
558.46	0.130
558.92	0.132
559.37	0.136
559.82	0.133
560.27	0.133
560.72	0.133
561.18	0.134
561.63	0.136
562.08	0.133
562.53	0.134
562.99	0.133
563.44	0.136
563.89	0.137
564.34	0.136
564.79	0.137
565.25	0.139
565.70	0.138
566.15	0.139
566.60	0.141
567.05	0.141
567.50	0.143
567.96	0.142
568.41	0.143
568.86	0.143
569.31	0.145
569.76	0.143
570.21	0.145
570.67	0.144
571.12	0.145
571.57	0.146
572.02	0.147
572.47	0.147
572.92	0.148
573.37	0.151
573.83	0.150
574.28	0.151
574.73	0.150
575.18	0.152
575.63	0.152
576.08	0.152
576.53	0.153
576.98	0.153
577.44	0.156
577.89	0.154
578.34	0.157
578.79	0.156
579.24	0.156
579.69	0.159
580.14	0.160
580.59	0.161
581.04	0.162
581.49	0.163
581.95	0.165
582.40	0.167
582.85	0.167
583.30	0.169
583.75	0.170
584.20	0.171
584.65	0.171
585.10	0.174
585.55	0.174
586.00	0.173
586.45	0.178
586.90	0.179
587.35	0.178
587.80	0.180
588.25	0.183
588.71	0.183
589.16	0.187
589.61	0.185
590.06	0.187
590.51	0.189
590.96	0.191
591.41	0.196
591.86	0.195
592.31	0.195
592.76	0.197
593.21	0.195
593.66	0.202
594.11	0.202
594.56	0.203
595.01	0.206
595.46	0.205
595.91	0.208
596.36	0.212
596.81	0.213
597.26	0.213
597.71	0.213
598.16	0.217
598.61	0.219
599.06	0.220
599.51	0.221
599.96	0.223
600.41	0.223
600.86	0.226
601.31	0.230
601.76	0.232
602.21	0.231
602.65	0.236
603.10	0.237
603.55	0.234
604.00	0.239
604.45	0.240
604.90	0.240
605.35	0.245
605.80	0.243
606.25	0.245
606.70	0.249
607.15	0.247
607.60	0.248
608.05	0.249
608.50	0.252
608.95	0.253
609.39	0.254
609.84	0.255
610.29	0.255
610.74	0.258
611.19	0.257
611.64	0.258
612.09	0.260
612.54	0.263
612.99	0.261
613.44	0.261
613.88	0.264
614.33	0.262
614.78	0.265
615.23	0.267
615.68	0.267
616.13	0.266
616.58	0.270
617.03	0.269
617.47	0.270
617.92	0.271
618.37	0.270
618.82	0.272
619.27	0.270
619.72	0.272
620.17	0.273
620.61	0.274
621.06	0.273
621.51	0.270
621.96	0.275
622.41	0.276
622.86	0.275
623.30	0.277
623.75	0.276
624.20	0.279
624.65	0.278
625.10	0.278
625.54	0.279
625.99	0.277
626.44	0.282
626.89	0.283
627.34	0.282
627.78	0.284
628.23	0.285
628.68	0.287
629.13	0.285
629.58	0.288
630.02	0.290
630.47	0.293
630.92	0.291
631.37	0.295
631.81	0.296
632.26	0.295
632.71	0.297
633.16	0.300
633.61	0.301
634.05	0.304
634.50	0.303
634.95	0.306
635.40	0.307
635.84	0.311
636.29	0.312
636.74	0.317
637.18	0.317
637.63	0.318
638.08	0.322
638.53	0.323
638.97	0.324
639.42	0.327
639.87	0.329
640.32	0.333
640.76	0.334
641.21	0.339
641.66	0.340
642.10	0.341
642.55	0.346
643.00	0.346
643.44	0.349
643.89	0.351
644.34	0.356
644.79	0.360
645.23	0.363
645.68	0.362
646.13	0.368
646.57	0.370
647.02	0.371
647.47	0.376
647.91	0.375
648.36	0.378
648.81	0.380
649.25	0.385
649.70	0.386
650.15	0.391
650.59	0.394
651.04	0.397
651.48	0.398
651.93	0.400
652.38	0.404
652.82	0.405
653.27	0.404
653.72	0.410
654.16	0.412
654.61	0.414
655.06	0.413
655.50	0.416
655.95	0.412
656.39	0.416
656.84	0.426
657.29	0.430
657.73	0.427
658.18	0.425
658.62	0.428
659.07	0.431
659.52	0.430
659.96	0.432
660.41	0.436
660.85	0.436
661.30	0.436
661.74	0.435
662.19	0.438
662.64	0.439
663.08	0.439
663.53	0.438
663.97	0.439
664.42	0.437
664.86	0.436
665.31	0.441
665.75	0.439
666.20	0.437
666.65	0.436
667.09	0.435
667.54	0.432
667.98	0.432
668.43	0.427
668.87	0.430
669.32	0.427
669.76	0.424
670.21	0.422
670.65	0.415
671.10	0.412
671.54	0.410
671.99	0.407
672.43	0.404
672.88	0.397
673.32	0.395
673.77	0.391
674.21	0.384
674.66	0.378
675.10	0.373
675.55	0.366
675.99	0.361
676.44	0.354
676.88	0.350
677.33	0.343
677.77	0.337
678.22	0.328
678.66	0.324
679.11	0.315
679.55	0.312
679.99	0.304
680.44	0.296
680.88	0.290
681.33	0.282
681.77	0.273
682.22	0.266
682.66	0.261
683.11	0.256
683.55	0.248
683.99	0.242
684.44	0.237
684.88	0.231
685.33	0.223
685.77	0.217
686.21	0.212
686.66	0.204
687.10	0.201
687.55	0.195
687.99	0.189
688.44	0.187
688.88	0.177
689.32	0.178
689.77	0.172
690.21	0.167
690.65	0.165
691.10	0.158
691.54	0.156
691.99	0.150
692.43	0.148
692.87	0.147
693.32	0.143
693.76	0.138
694.20	0.138
694.65	0.135
695.09	0.130
695.53	0.129
695.98	0.125
696.42	0.124
696.86	0.123
697.31	0.121
697.75	0.117
698.19	0.116
698.64	0.113
699.08	0.113
699.52	0.110
699.97	0.110
700.41	0.108
700.85	0.108
701.30	0.104
701.74	0.106
702.18	0.102
702.63	0.100
703.07	0.100
703.51	0.099
703.96	0.101
704.40	0.098
704.84	0.096
705.28	0.096
705.73	0.096
706.17	0.092
706.61	0.096
707.06	0.091
707.50	0.094
707.94	0.094
708.38	0.092
708.83	0.091
709.27	0.089
709.71	0.090
710.15	0.089
710.60	0.090
711.04	0.086
711.48	0.089
711.92	0.088
712.37	0.085
712.81	0.086
713.25	0.089
713.69	0.085
714.13	0.084
714.58	0.084
715.02	0.085
715.46	0.084
715.90	0.084
716.35	0.083
716.79	0.087
717.23	0.084
717.67	0.085
718.11	0.084
718.56	0.083
719.00	0.084
719.44	0.084
719.88	0.085
720.32	0.083
720.76	0.084
721.21	0.085
721.65	0.083
722.09	0.084
722.53	0.084
722.97	0.084
723.41	0.082
723.86	0.084
724.30	0.083
724.74	0.085
725.18	0.082
725.62	0.084
726.06	0.085
726.50	0.086
726.95	0.085
727.39	0.083
727.83	0.085
728.27	0.082
728.71	0.084
729.15	0.084
729.59	0.084
730.03	0.086
730.48	0.083
730.92	0.086
731.36	0.082
731.80	0.085
732.24	0.089
732.68	0.086
733.12	0.085
733.56	0.087
734.00	0.089
734.44	0.086
734.89	0.086
735.33	0.084
735.77	0.087
736.21	0.086
736.65	0.087
737.09	0.090
737.53	0.087
737.97	0.089
738.41	0.088
738.85	0.087
739.29	0.086
739.73	0.088
740.17	0.085
740.61	0.086
741.05	0.088
741.49	0.087
741.93	0.087
742.37	0.087
742.81	0.085
743.26	0.086
743.70	0.086
744.14	0.086
744.58	0.086
745.02	0.086
745.46	0.087
745.90	0.084
746.34	0.089
746.78	0.089
747.22	0.086
747.66	0.086
748.10	0.086
748.54	0.085
748.98	0.085
749.42	0.088
749.86	0.088
750.29	0.087
750.73	0.087
751.17	0.086
751.61	0.088
752.05	0.087
752.49	0.087
752.93	0.087
753.37	0.089
753.81	0.085
754.25	0.087
754.69	0.089
755.13	0.088
755.57	0.086
756.01	0.087
756.45	0.086
756.89	0.086
757.33	0.084
757.77	0.087
758.21	0.088
758.64	0.084
759.08	0.083
759.52	0.087
759.96	0.084
760.40	0.084
760.84	0.085
761.28	0.085
761.72	0.086
762.16	0.086
762.60	0.085
763.03	0.086
763.47	0.083
763.91	0.084
764.35	0.084
764.79	0.082
765.23	0.087
765.67	0.084
766.11	0.086
766.54	0.084
766.98	0.081
767.42	0.085
767.86	0.084
768.30	0.084
768.74	0.082
769.17	0.087
769.61	0.085
770.05	0.083
770.49	0.087
770.93	0.084
771.37	0.089
771.80	0.084
772.24	0.084
772.68	0.084
773.12	0.083
773.56	0.086
774.00	0.085
774.43	0.082
774.87	0.083
775.31	0.086
775.75	0.082
776.19	0.085
776.62	0.086
777.06	0.084
777.50	0.085
777.94	0.081
778.37	0.083
778.81	0.084
779.25	0.083
779.69	0.084
780.13	0.083
780.56	0.080
781.00	0.081
781.44	0.082
781.88	0.086
782.31	0.081
782.75	0.081
783.19	0.084
783.63	0.083
784.06	0.083
784.50	0.085
784.94	0.086
785.37	0.083
785.81	0.085
786.25	0.081
786.69	0.082
787.12	0.085
787.56	0.085
788.00	0.085
788.43	0.084
788.87	0.084
789.31	0.085
789.75	0.083
790.18	0.083
790.62	0.083
791.06	0.087
791.49	0.085
791.93	0.081
792.37	0.082
792.80	0.083
793.24	0.083
793.68	0.085
794.11	0.084
794.55	0.082
794.99	0.084
795.42	0.086
795.86	0.087
796.30	0.085
796.73	0.079
797.17	0.083
797.61	0.085
798.04	0.086
798.48	0.083
798.91	0.084
799.35	0.087
799.79	0.084
800.22	0.085
800.66	0.086
801.10	0.085
801.53	0.088
801.97	0.086
802.40	0.081
802.84	0.085
803.28	0.083
803.71	0.083
804.15	0.087
804.58	0.091
805.02	0.085
805.46	0.082
805.89	0.083
806.33	0.082
806.76	0.085
807.20	0.087
807.63	0.085
808.07	0.085
808.51	0.085
808.94	0.085
809.38	0.085
809.81	0.088
810.25	0.084
810.68	0.084
811.12	0.081
811.55	0.087
811.99	0.083
812.42	0.084
812.86	0.084
813.29	0.081
813.73	0.084
814.17	0.080
814.60	0.082
