SpectraSuite Data File
++++++++++++++++++++++++++++++++++++
Date: Wed May 04 12:37:26 CEST 2016
User: spectrasuite
Dark Spectrum Present: Yes
Reference Spectrum Present: Yes
Number of Sampled Component Spectra: 1
Spectrometers: HR+C0708
Integration Time (usec): 1000 (HR+C0708)
Spectra Averaged: 10 (HR+C0708)
Boxcar Smoothing: 0 (HR+C0708)
Correct for Electrical Dark: No (HR+C0708)
Strobe/Lamp Enabled: No (HR+C0708)
Correct for Detector Non-linearity: No (HR+C0708)
Correct for Stray Light: No (HR+C0708)
Number of Pixels in Processed Spectrum: 2048
>>>>>Begin Processed Spectral Data<<<<<
188.76	-0.098
189.23	-0.000
189.70	0.558
190.17	0.400
190.64	-0.000
191.12	-0.000
191.59	-0.865
192.06	-0.000
192.53	1.255
193.01	-0.000
193.48	0.750
193.95	-0.000
194.42	-0.000
194.90	1.269
195.37	-0.000
195.84	-0.000
196.31	0.621
196.78	0.643
197.26	-0.000
197.73	0.879
198.20	1.978
198.67	-0.000
199.14	0.259
199.62	1.077
200.09	0.980
200.56	0.818
201.03	0.720
201.50	0.517
201.97	0.568
202.45	0.861
202.92	0.746
203.39	0.851
203.86	0.743
204.33	0.573
204.80	0.840
205.28	0.675
205.75	0.912
206.22	0.640
206.69	0.578
207.16	0.547
207.63	0.750
208.11	0.649
208.58	0.537
209.05	0.649
209.52	0.608
209.99	0.644
210.46	0.349
210.93	0.970
211.41	0.752
211.88	0.582
212.35	0.512
212.82	0.901
213.29	0.686
213.76	0.659
214.23	0.675
214.70	0.636
215.18	0.694
215.65	0.364
216.12	0.639
216.59	0.552
217.06	0.367
217.53	0.682
218.00	0.461
218.47	0.464
218.94	0.684
219.41	0.678
219.89	0.590
220.36	0.684
220.83	0.682
221.30	0.998
221.77	0.963
222.24	0.578
222.71	0.834
223.18	0.789
223.65	0.633
224.12	0.691
224.59	0.885
225.06	1.350
225.54	0.886
226.01	1.142
226.48	0.977
226.95	1.233
227.42	0.834
227.89	1.212
228.36	1.169
228.83	1.063
229.30	1.262
229.77	1.615
230.24	1.200
230.71	1.426
231.18	1.338
231.65	1.762
232.12	1.638
232.59	1.487
233.06	1.785
233.53	1.969
234.00	1.473
234.47	1.757
234.94	1.907
235.41	1.755
235.88	1.696
236.35	1.926
236.82	1.937
237.29	1.871
237.76	1.890
238.23	2.257
238.70	2.109
239.17	2.032
239.64	2.434
240.11	2.387
240.58	2.033
241.05	2.187
241.52	2.297
241.99	2.075
242.46	2.201
242.93	2.255
243.40	2.599
243.87	2.370
244.34	2.160
244.81	2.459
245.28	2.450
245.75	2.230
246.22	2.445
246.69	2.497
247.16	2.358
247.63	2.461
248.10	2.543
248.57	3.842
249.04	2.767
249.51	2.340
249.98	2.893
250.45	2.444
250.92	2.501
251.39	2.494
251.85	2.679
252.32	2.451
252.79	2.475
253.26	2.516
253.73	2.520
254.20	2.502
254.67	2.382
255.14	2.654
255.61	2.827
256.08	2.647
256.55	2.700
257.02	2.832
257.49	2.673
257.95	2.707
258.42	2.620
258.89	2.766
259.36	2.691
259.83	2.766
260.30	2.979
260.77	2.910
261.24	2.475
261.71	2.724
262.17	2.831
262.64	2.924
263.11	2.608
263.58	2.742
264.05	2.804
264.52	2.724
264.99	2.643
265.46	2.788
265.92	2.672
266.39	2.575
266.86	2.868
267.33	2.765
267.80	2.788
268.27	2.935
268.74	2.994
269.20	2.775
269.67	2.714
270.14	2.700
270.61	2.927
271.08	2.531
271.55	2.599
272.01	2.705
272.48	2.709
272.95	2.623
273.42	2.621
273.89	2.675
274.36	2.562
274.82	2.697
275.29	2.700
275.76	2.602
276.23	2.700
276.70	2.405
277.16	2.786
277.63	2.551
278.10	2.550
278.57	2.634
279.04	2.596
279.50	2.662
279.97	2.608
280.44	2.691
280.91	2.970
281.38	2.548
281.84	2.537
282.31	2.555
282.78	2.619
283.25	2.539
283.72	2.813
284.18	2.694
284.65	2.623
285.12	2.566
285.59	2.678
286.05	2.621
286.52	2.580
286.99	2.644
287.46	2.830
287.92	2.680
288.39	2.459
288.86	2.658
289.33	2.666
289.79	2.396
290.26	2.670
290.73	2.626
291.20	2.481
291.66	2.532
292.13	2.499
292.60	2.628
293.07	2.565
293.53	2.522
294.00	2.616
294.47	2.640
294.93	2.501
295.40	2.526
295.87	2.622
296.34	2.553
296.80	2.481
297.27	2.543
297.74	2.581
298.20	2.540
298.67	2.466
299.14	2.478
299.60	2.472
300.07	2.367
300.54	2.653
301.01	2.457
301.47	2.426
301.94	2.372
302.41	2.408
302.87	2.420
303.34	2.577
303.81	2.442
304.27	2.366
304.74	2.424
305.21	2.305
305.67	2.564
306.14	2.414
306.61	2.319
307.07	2.345
307.54	2.445
308.01	2.376
308.47	2.338
308.94	2.342
309.40	2.272
309.87	2.338
310.34	2.276
310.80	2.365
311.27	2.328
311.74	2.267
312.20	2.360
312.67	2.523
313.13	2.295
313.60	2.289
314.07	2.263
314.53	2.279
315.00	2.267
315.47	2.253
315.93	2.418
316.40	2.386
316.86	2.280
317.33	2.295
317.80	2.311
318.26	2.227
318.73	2.267
319.19	2.360
319.66	2.293
320.13	2.224
320.59	2.128
321.06	2.190
321.52	2.242
321.99	2.214
322.45	2.231
322.92	2.232
323.39	2.152
323.85	2.132
324.32	2.208
324.78	2.083
325.25	2.114
325.71	2.126
326.18	2.075
326.64	2.127
327.11	1.977
327.58	2.076
328.04	2.072
328.51	1.995
328.97	2.070
329.44	2.119
329.90	2.054
330.37	2.012
330.83	2.000
331.30	2.037
331.76	2.048
332.23	2.019
332.69	2.076
333.16	2.093
333.62	1.988
334.09	2.012
334.56	2.013
335.02	1.964
335.49	1.988
335.95	2.009
336.42	1.988
336.88	1.973
337.35	1.953
337.81	1.976
338.28	2.013
338.74	1.935
339.20	1.997
339.67	1.994
340.13	1.955
340.60	1.981
341.06	1.950
341.53	1.981
341.99	1.944
342.46	1.961
342.92	1.960
343.39	1.953
343.85	1.878
344.32	1.910
344.78	1.908
345.25	1.895
345.71	1.892
346.17	1.862
346.64	1.900
347.10	1.848
347.57	1.827
348.03	1.854
348.50	1.780
348.96	1.761
349.43	1.791
349.89	1.725
350.35	1.668
350.82	1.638
351.28	1.596
351.75	1.586
352.21	1.563
352.67	1.494
353.14	1.499
353.60	1.473
354.07	1.385
354.53	1.391
355.00	1.369
355.46	1.305
355.92	1.276
356.39	1.240
356.85	1.181
357.31	1.109
357.78	1.046
358.24	0.985
358.71	0.911
359.17	0.858
359.63	0.789
360.10	0.723
360.56	0.652
361.03	0.594
361.49	0.535
361.95	0.479
362.42	0.426
362.88	0.380
363.34	0.337
363.81	0.291
364.27	0.256
364.73	0.226
365.20	0.199
365.66	0.173
366.12	0.156
366.59	0.140
367.05	0.126
367.51	0.113
367.98	0.103
368.44	0.097
368.90	0.089
369.37	0.088
369.83	0.080
370.29	0.076
370.76	0.072
371.22	0.068
371.68	0.069
372.15	0.065
372.61	0.061
373.07	0.061
373.54	0.060
374.00	0.061
374.46	0.060
374.92	0.060
375.39	0.056
375.85	0.056
376.31	0.057
376.78	0.057
377.24	0.055
377.70	0.055
378.16	0.055
378.63	0.054
379.09	0.055
379.55	0.054
380.01	0.056
380.48	0.055
380.94	0.055
381.40	0.052
381.87	0.054
382.33	0.052
382.79	0.051
383.25	0.052
383.72	0.054
384.18	0.051
384.64	0.053
385.10	0.051
385.56	0.052
386.03	0.055
386.49	0.054
386.95	0.056
387.41	0.054
387.88	0.049
388.34	0.047
388.80	0.052
389.26	0.051
389.72	0.053
390.19	0.053
390.65	0.050
391.11	0.052
391.57	0.051
392.04	0.052
392.50	0.053
392.96	0.051
393.42	0.049
393.88	0.050
394.34	0.049
394.81	0.050
395.27	0.050
395.73	0.047
396.19	0.050
396.65	0.049
397.12	0.048
397.58	0.050
398.04	0.050
398.50	0.050
398.96	0.047
399.42	0.049
399.89	0.047
400.35	0.049
400.81	0.049
401.27	0.049
401.73	0.047
402.19	0.049
402.65	0.045
403.12	0.045
403.58	0.045
404.04	0.044
404.50	0.044
404.96	0.044
405.42	0.046
405.88	0.043
406.34	0.046
406.81	0.044
407.27	0.042
407.73	0.041
408.19	0.044
408.65	0.043
409.11	0.042
409.57	0.041
410.03	0.045
410.49	0.043
410.96	0.042
411.42	0.044
411.88	0.042
412.34	0.038
412.80	0.039
413.26	0.041
413.72	0.039
414.18	0.039
414.64	0.040
415.10	0.040
415.56	0.041
416.02	0.039
416.48	0.041
416.95	0.041
417.41	0.040
417.87	0.040
418.33	0.040
418.79	0.039
419.25	0.042
419.71	0.038
420.17	0.038
420.63	0.039
421.09	0.036
421.55	0.038
422.01	0.036
422.47	0.040
422.93	0.038
423.39	0.038
423.85	0.037
424.31	0.038
424.77	0.041
425.23	0.039
425.69	0.039
426.15	0.039
426.61	0.040
427.07	0.036
427.53	0.039
427.99	0.040
428.45	0.040
428.91	0.040
429.37	0.040
429.83	0.038
430.29	0.040
430.75	0.038
431.21	0.037
431.67	0.039
432.13	0.038
432.59	0.038
433.05	0.040
433.51	0.040
433.97	0.037
434.43	0.038
434.89	0.039
435.35	0.038
435.81	0.041
436.27	0.041
436.73	0.039
437.19	0.039
437.65	0.038
438.11	0.040
438.57	0.040
439.03	0.042
439.48	0.040
439.94	0.040
440.40	0.041
440.86	0.039
441.32	0.043
441.78	0.039
442.24	0.040
442.70	0.040
443.16	0.044
443.62	0.044
444.08	0.041
444.54	0.040
444.99	0.042
445.45	0.040
445.91	0.042
446.37	0.042
446.83	0.045
447.29	0.041
447.75	0.040
448.21	0.045
448.67	0.042
449.12	0.043
449.58	0.042
450.04	0.045
450.50	0.042
450.96	0.039
451.42	0.042
451.88	0.043
452.34	0.042
452.79	0.041
453.25	0.045
453.71	0.043
454.17	0.044
454.63	0.045
455.09	0.044
455.55	0.044
456.00	0.043
456.46	0.046
456.92	0.046
457.38	0.047
457.84	0.045
458.30	0.045
458.75	0.045
459.21	0.045
459.67	0.045
460.13	0.046
460.59	0.046
461.04	0.048
461.50	0.045
461.96	0.047
462.42	0.046
462.88	0.047
463.33	0.045
463.79	0.046
464.25	0.045
464.71	0.047
465.17	0.045
465.62	0.044
466.08	0.046
466.54	0.046
467.00	0.045
467.46	0.046
467.91	0.046
468.37	0.045
468.83	0.047
469.29	0.046
469.74	0.047
470.20	0.048
470.66	0.048
471.12	0.048
471.57	0.046
472.03	0.047
472.49	0.048
472.95	0.050
473.40	0.047
473.86	0.048
474.32	0.047
474.78	0.047
475.23	0.047
475.69	0.048
476.15	0.050
476.60	0.051
477.06	0.049
477.52	0.048
477.98	0.051
478.43	0.049
478.89	0.050
479.35	0.051
479.80	0.050
480.26	0.048
480.72	0.049
481.18	0.049
481.63	0.053
482.09	0.052
482.55	0.050
483.00	0.048
483.46	0.051
483.92	0.051
484.37	0.052
484.83	0.049
485.29	0.052
485.74	0.051
486.20	0.050
486.66	0.051
487.11	0.052
487.57	0.050
488.03	0.050
488.48	0.053
488.94	0.051
489.40	0.052
489.85	0.052
490.31	0.052
490.77	0.049
491.22	0.054
491.68	0.051
492.13	0.053
492.59	0.051
493.05	0.052
493.50	0.052
493.96	0.051
494.42	0.056
494.87	0.055
495.33	0.052
495.78	0.052
496.24	0.054
496.70	0.055
497.15	0.055
497.61	0.053
498.06	0.053
498.52	0.052
498.98	0.052
499.43	0.053
499.89	0.054
500.34	0.052
500.80	0.053
501.25	0.053
501.71	0.053
502.17	0.053
502.62	0.054
503.08	0.050
503.53	0.053
503.99	0.054
504.44	0.052
504.90	0.053
505.36	0.055
505.81	0.055
506.27	0.052
506.72	0.052
507.18	0.051
507.63	0.052
508.09	0.054
508.54	0.052
509.00	0.054
509.45	0.055
509.91	0.052
510.36	0.052
510.82	0.054
511.27	0.052
511.73	0.053
512.19	0.053
512.64	0.051
513.10	0.054
513.55	0.052
514.01	0.055
514.46	0.053
514.92	0.053
515.37	0.053
515.83	0.052
516.28	0.054
516.73	0.053
517.19	0.054
517.64	0.053
518.10	0.054
518.55	0.053
519.01	0.054
519.46	0.052
519.92	0.054
520.37	0.052
520.83	0.055
521.28	0.052
521.74	0.053
522.19	0.054
522.65	0.054
523.10	0.053
523.55	0.053
524.01	0.056
524.46	0.054
524.92	0.052
525.37	0.056
525.83	0.053
526.28	0.053
526.73	0.053
527.19	0.054
527.64	0.055
528.10	0.055
528.55	0.056
529.01	0.056
529.46	0.056
529.91	0.054
530.37	0.054
530.82	0.055
531.28	0.056
531.73	0.055
532.18	0.059
532.64	0.056
533.09	0.059
533.54	0.055
534.00	0.060
534.45	0.058
534.91	0.059
535.36	0.058
535.81	0.058
536.27	0.059
536.72	0.060
537.17	0.061
537.63	0.058
538.08	0.062
538.54	0.062
538.99	0.062
539.44	0.059
539.90	0.064
540.35	0.063
540.80	0.062
541.26	0.063
541.71	0.066
542.16	0.064
542.62	0.069
543.07	0.067
543.52	0.066
543.98	0.065
544.43	0.065
544.88	0.067
545.34	0.069
545.79	0.068
546.24	0.071
546.69	0.068
547.15	0.070
547.60	0.072
548.05	0.072
548.51	0.072
548.96	0.073
549.41	0.073
549.86	0.074
550.32	0.076
550.77	0.075
551.22	0.075
551.68	0.076
552.13	0.078
552.58	0.078
553.03	0.079
553.49	0.078
553.94	0.079
554.39	0.081
554.84	0.081
555.30	0.082
555.75	0.084
556.20	0.084
556.65	0.086
557.11	0.086
557.56	0.087
558.01	0.090
558.46	0.087
558.92	0.089
559.37	0.090
559.82	0.091
560.27	0.094
560.72	0.092
561.18	0.093
561.63	0.094
562.08	0.095
562.53	0.094
562.99	0.097
563.44	0.098
563.89	0.099
564.34	0.100
564.79	0.103
565.25	0.102
565.70	0.103
566.15	0.105
566.60	0.106
567.05	0.108
567.50	0.108
567.96	0.108
568.41	0.110
568.86	0.112
569.31	0.113
569.76	0.111
570.21	0.115
570.67	0.114
571.12	0.118
571.57	0.116
572.02	0.120
572.47	0.120
572.92	0.121
573.37	0.125
573.83	0.124
574.28	0.127
574.73	0.125
575.18	0.127
575.63	0.126
576.08	0.129
576.53	0.129
576.98	0.133
577.44	0.135
577.89	0.134
578.34	0.139
578.79	0.137
579.24	0.139
579.69	0.140
580.14	0.143
580.59	0.147
581.04	0.145
581.49	0.147
581.95	0.150
582.40	0.152
582.85	0.155
583.30	0.157
583.75	0.160
584.20	0.161
584.65	0.163
585.10	0.165
585.55	0.165
586.00	0.168
586.45	0.171
586.90	0.175
587.35	0.176
587.80	0.178
588.25	0.181
588.71	0.184
589.16	0.187
589.61	0.188
590.06	0.192
590.51	0.194
590.96	0.198
591.41	0.198
591.86	0.202
592.31	0.207
592.76	0.209
593.21	0.210
593.66	0.216
594.11	0.215
594.56	0.220
595.01	0.222
595.46	0.225
595.91	0.229
596.36	0.232
596.81	0.237
597.26	0.238
597.71	0.242
598.16	0.245
598.61	0.248
599.06	0.251
599.51	0.253
599.96	0.257
600.41	0.258
600.86	0.263
601.31	0.264
601.76	0.269
602.21	0.273
602.65	0.275
603.10	0.279
603.55	0.281
604.00	0.287
604.45	0.287
604.90	0.291
605.35	0.295
605.80	0.294
606.25	0.296
606.70	0.301
607.15	0.304
607.60	0.306
608.05	0.309
608.50	0.311
608.95	0.312
609.39	0.315
609.84	0.319
610.29	0.320
610.74	0.321
611.19	0.322
611.64	0.324
612.09	0.327
612.54	0.330
612.99	0.328
613.44	0.329
613.88	0.332
614.33	0.332
614.78	0.337
615.23	0.337
615.68	0.337
616.13	0.337
616.58	0.339
617.03	0.340
617.47	0.341
617.92	0.342
618.37	0.344
618.82	0.343
619.27	0.344
619.72	0.344
620.17	0.347
620.61	0.345
621.06	0.346
621.51	0.345
621.96	0.348
622.41	0.349
622.86	0.350
623.30	0.350
623.75	0.351
624.20	0.352
624.65	0.352
625.10	0.353
625.54	0.352
625.99	0.354
626.44	0.356
626.89	0.357
627.34	0.360
627.78	0.362
628.23	0.362
628.68	0.362
629.13	0.363
629.58	0.366
630.02	0.368
630.47	0.372
630.92	0.371
631.37	0.375
631.81	0.379
632.26	0.378
632.71	0.384
633.16	0.385
633.61	0.386
634.05	0.389
634.50	0.392
634.95	0.396
635.40	0.399
635.84	0.402
636.29	0.406
636.74	0.407
637.18	0.413
637.63	0.417
638.08	0.421
638.53	0.422
638.97	0.427
639.42	0.432
639.87	0.437
640.32	0.442
640.76	0.444
641.21	0.450
641.66	0.452
642.10	0.459
642.55	0.462
643.00	0.470
643.44	0.470
643.89	0.480
644.34	0.483
644.79	0.487
645.23	0.493
645.68	0.498
646.13	0.505
646.57	0.509
647.02	0.514
647.47	0.521
647.91	0.523
648.36	0.530
648.81	0.534
649.25	0.539
649.70	0.546
650.15	0.554
650.59	0.558
651.04	0.563
651.48	0.567
651.93	0.571
652.38	0.578
652.82	0.582
653.27	0.587
653.72	0.591
654.16	0.595
654.61	0.600
655.06	0.601
655.50	0.610
655.95	0.613
656.39	0.614
656.84	0.620
657.29	0.624
657.73	0.627
658.18	0.632
658.62	0.640
659.07	0.647
659.52	0.648
659.96	0.649
660.41	0.654
660.85	0.657
661.30	0.662
661.74	0.662
662.19	0.665
662.64	0.668
663.08	0.669
663.53	0.674
663.97	0.674
664.42	0.671
664.86	0.675
665.31	0.676
665.75	0.683
666.20	0.679
666.65	0.681
667.09	0.682
667.54	0.676
667.98	0.677
668.43	0.674
668.87	0.670
669.32	0.663
669.76	0.662
670.21	0.657
670.65	0.654
671.10	0.646
671.54	0.646
671.99	0.639
672.43	0.629
672.88	0.622
673.32	0.615
673.77	0.606
674.21	0.595
674.66	0.587
675.10	0.577
675.55	0.566
675.99	0.556
676.44	0.545
676.88	0.534
677.33	0.519
677.77	0.506
678.22	0.498
678.66	0.485
679.11	0.472
679.55	0.458
679.99	0.445
680.44	0.431
680.88	0.419
681.33	0.408
681.77	0.393
682.22	0.380
682.66	0.370
683.11	0.356
683.55	0.344
683.99	0.333
684.44	0.323
684.88	0.312
685.33	0.299
685.77	0.285
686.21	0.277
686.66	0.265
687.10	0.255
687.55	0.245
687.99	0.235
688.44	0.227
688.88	0.217
689.32	0.209
689.77	0.201
690.21	0.194
690.65	0.183
691.10	0.176
691.54	0.170
691.99	0.163
692.43	0.155
692.87	0.150
693.32	0.143
693.76	0.139
694.20	0.133
694.65	0.128
695.09	0.122
695.53	0.116
695.98	0.112
696.42	0.112
696.86	0.105
697.31	0.102
697.75	0.096
698.19	0.095
698.64	0.090
699.08	0.088
699.52	0.086
699.97	0.081
700.41	0.079
700.85	0.075
701.30	0.073
701.74	0.070
702.18	0.067
702.63	0.066
703.07	0.062
703.51	0.062
703.96	0.061
704.40	0.059
704.84	0.055
705.28	0.054
705.73	0.054
706.17	0.051
706.61	0.054
707.06	0.049
707.50	0.048
707.94	0.050
708.38	0.045
708.83	0.046
709.27	0.046
709.71	0.045
710.15	0.042
710.60	0.043
711.04	0.041
711.48	0.041
711.92	0.040
712.37	0.038
712.81	0.040
713.25	0.040
713.69	0.037
714.13	0.038
714.58	0.038
715.02	0.034
715.46	0.035
715.90	0.034
716.35	0.033
716.79	0.036
717.23	0.035
717.67	0.034
718.11	0.033
718.56	0.036
719.00	0.035
719.44	0.032
719.88	0.035
720.32	0.034
720.76	0.031
721.21	0.035
721.65	0.031
722.09	0.031
722.53	0.033
722.97	0.033
723.41	0.031
723.86	0.032
724.30	0.031
724.74	0.034
725.18	0.030
725.62	0.030
726.06	0.032
726.50	0.032
726.95	0.032
727.39	0.032
727.83	0.031
728.27	0.032
728.71	0.033
729.15	0.030
729.59	0.030
730.03	0.033
730.48	0.032
730.92	0.032
731.36	0.031
731.80	0.033
732.24	0.035
732.68	0.032
733.12	0.032
733.56	0.030
734.00	0.034
734.44	0.032
734.89	0.035
735.33	0.032
735.77	0.036
736.21	0.034
736.65	0.033
737.09	0.036
737.53	0.035
737.97	0.034
738.41	0.032
738.85	0.035
739.29	0.033
739.73	0.033
740.17	0.033
740.61	0.031
741.05	0.035
741.49	0.034
741.93	0.033
742.37	0.034
742.81	0.035
743.26	0.035
743.70	0.035
744.14	0.034
744.58	0.035
745.02	0.033
745.46	0.034
745.90	0.033
746.34	0.032
746.78	0.036
747.22	0.035
747.66	0.032
748.10	0.034
748.54	0.032
748.98	0.034
749.42	0.036
749.86	0.033
750.29	0.034
750.73	0.034
751.17	0.034
751.61	0.036
752.05	0.032
752.49	0.033
752.93	0.032
753.37	0.035
753.81	0.033
754.25	0.033
754.69	0.036
755.13	0.035
755.57	0.032
756.01	0.030
756.45	0.031
756.89	0.032
757.33	0.031
757.77	0.033
758.21	0.035
758.64	0.031
759.08	0.030
759.52	0.032
759.96	0.034
760.40	0.033
760.84	0.030
761.28	0.031
761.72	0.034
762.16	0.031
762.60	0.034
763.03	0.034
763.47	0.033
763.91	0.032
764.35	0.030
764.79	0.033
765.23	0.030
765.67	0.029
766.11	0.034
766.54	0.031
766.98	0.030
767.42	0.031
767.86	0.035
768.30	0.031
768.74	0.033
769.17	0.032
769.61	0.033
770.05	0.034
770.49	0.036
770.93	0.031
771.37	0.032
771.80	0.033
772.24	0.027
772.68	0.033
773.12	0.031
773.56	0.033
774.00	0.032
774.43	0.033
774.87	0.030
775.31	0.032
775.75	0.031
776.19	0.031
776.62	0.031
777.06	0.031
777.50	0.035
777.94	0.031
778.37	0.033
778.81	0.033
779.25	0.028
779.69	0.030
780.13	0.031
780.56	0.027
781.00	0.032
781.44	0.030
781.88	0.031
782.31	0.027
782.75	0.028
783.19	0.030
783.63	0.032
784.06	0.030
784.50	0.029
784.94	0.031
785.37	0.029
785.81	0.029
786.25	0.028
786.69	0.031
787.12	0.031
787.56	0.031
788.00	0.033
788.43	0.030
788.87	0.033
789.31	0.031
789.75	0.029
790.18	0.030
790.62	0.030
791.06	0.029
791.49	0.032
791.93	0.029
792.37	0.028
792.80	0.030
793.24	0.028
793.68	0.032
794.11	0.033
794.55	0.030
794.99	0.026
795.42	0.032
795.86	0.030
796.30	0.029
796.73	0.030
797.17	0.027
797.61	0.031
798.04	0.031
798.48	0.030
798.91	0.031
799.35	0.032
799.79	0.029
800.22	0.030
800.66	0.027
801.10	0.033
801.53	0.035
801.97	0.030
802.40	0.027
802.84	0.029
803.28	0.030
803.71	0.029
804.15	0.031
804.58	0.035
805.02	0.033
805.46	0.029
805.89	0.032
806.33	0.031
806.76	0.029
807.20	0.032
807.63	0.032
808.07	0.030
808.51	0.032
808.94	0.033
809.38	0.031
809.81	0.031
810.25	0.028
810.68	0.030
811.12	0.030
811.55	0.030
811.99	0.034
812.42	0.032
812.86	0.030
813.29	0.031
813.73	0.030
814.17	0.022
814.60	0.029
815.04	0.026
815.47	0.028
815.91	0.028
816.34	0.028
816.78	0.034
817.21	0.030
817.65	0.029
