SpectraSuite Data File
++++++++++++++++++++++++++++++++++++
Date: Wed May 04 16:51:23 CEST 2016
User: spectrasuite
Dark Spectrum Present: Yes
Reference Spectrum Present: Yes
Number of Sampled Component Spectra: 1
Spectrometers: HR+C0708
Integration Time (usec): 1000 (HR+C0708)
Spectra Averaged: 10 (HR+C0708)
Boxcar Smoothing: 0 (HR+C0708)
Correct for Electrical Dark: No (HR+C0708)
Strobe/Lamp Enabled: No (HR+C0708)
Correct for Detector Non-linearity: No (HR+C0708)
Correct for Stray Light: No (HR+C0708)
Number of Pixels in Processed Spectrum: 2048
>>>>>Begin Processed Spectral Data<<<<<
188.76	-0.000
189.23	-0.000
189.70	-0.000
190.17	-0.000
190.64	-0.000
191.12	-0.000
191.59	-0.000
192.06	-0.000
192.53	-0.000
193.01	-0.000
193.48	-0.000
193.95	-0.000
194.42	-0.000
194.90	-0.000
195.37	-0.000
195.84	-0.000
196.31	-0.000
196.78	-0.000
197.26	-0.000
197.73	-0.000
198.20	-0.000
198.67	-0.000
199.14	-0.000
199.62	-0.000
200.09	-0.000
200.56	-0.000
201.03	-0.000
201.50	-0.000
201.97	-0.000
202.45	-0.000
202.92	-0.000
203.39	-0.000
203.86	-0.000
204.33	-0.000
204.80	-0.000
205.28	-0.000
205.75	2.017
206.22	-0.000
206.69	-0.000
207.16	-0.000
207.63	-0.000
208.11	-0.000
208.58	-0.000
209.05	-0.000
209.52	-0.000
209.99	-0.000
210.46	-0.000
210.93	-0.000
211.41	-0.000
211.88	-0.000
212.35	-0.000
212.82	-0.000
213.29	-0.000
213.76	-0.000
214.23	-0.000
214.70	-0.000
215.18	-0.000
215.65	0.938
216.12	-0.000
216.59	-0.000
217.06	1.751
217.53	-0.000
218.00	-0.000
218.47	1.795
218.94	-0.000
219.41	2.173
219.89	1.593
220.36	-0.000
220.83	-0.000
221.30	-0.000
221.77	-0.000
222.24	1.756
222.71	-0.000
223.18	-0.000
223.65	0.991
224.12	-0.000
224.59	-0.000
225.06	-0.000
225.54	-0.000
226.01	-0.000
226.48	-0.000
226.95	-0.000
227.42	-0.000
227.89	-0.000
228.36	-0.000
228.83	-0.000
229.30	-0.000
229.77	-0.000
230.24	2.865
230.71	-0.000
231.18	-0.000
231.65	-0.000
232.12	-0.000
232.59	-0.000
233.06	-0.000
233.53	-0.000
234.00	3.177
234.47	-0.000
234.94	-0.000
235.41	2.280
235.88	-0.000
236.35	-0.000
236.82	-0.000
237.29	-0.000
237.76	2.516
238.23	-0.000
238.70	-0.000
239.17	3.472
239.64	-0.000
240.11	-0.000
240.58	3.091
241.05	3.023
241.52	-0.000
241.99	2.657
242.46	2.908
242.93	2.638
243.40	-0.000
243.87	-0.000
244.34	2.537
244.81	-0.000
245.28	-0.000
245.75	3.492
246.22	-0.000
246.69	-0.000
247.16	2.821
247.63	3.445
248.10	-0.000
248.57	-0.000
249.04	-0.000
249.51	2.708
249.98	-0.000
250.45	-0.000
250.92	2.852
251.39	2.553
251.85	2.529
252.32	2.244
252.79	2.100
253.26	1.976
253.73	1.864
254.20	1.708
254.67	1.587
255.14	1.554
255.61	1.473
256.08	1.390
256.55	1.334
257.02	1.271
257.49	1.232
257.95	1.179
258.42	1.145
258.89	1.112
259.36	1.078
259.83	1.046
260.30	1.021
260.77	0.998
261.24	0.968
261.71	0.952
262.17	0.929
262.64	0.908
263.11	0.891
263.58	0.882
264.05	0.859
264.52	0.843
264.99	0.828
265.46	0.818
265.92	0.800
266.39	0.791
266.86	0.781
267.33	0.765
267.80	0.756
268.27	0.747
268.74	0.741
269.20	0.727
269.67	0.718
270.14	0.712
270.61	0.701
271.08	0.696
271.55	0.685
272.01	0.680
272.48	0.671
272.95	0.662
273.42	0.658
273.89	0.650
274.36	0.641
274.82	0.636
275.29	0.636
275.76	0.626
276.23	0.625
276.70	0.619
277.16	0.614
277.63	0.613
278.10	0.606
278.57	0.602
279.04	0.601
279.50	0.598
279.97	0.592
280.44	0.589
280.91	0.588
281.38	0.581
281.84	0.582
282.31	0.577
282.78	0.575
283.25	0.571
283.72	0.572
284.18	0.570
284.65	0.570
285.12	0.570
285.59	0.566
286.05	0.568
286.52	0.564
286.99	0.567
287.46	0.567
287.92	0.565
288.39	0.561
288.86	0.562
289.33	0.563
289.79	0.561
290.26	0.559
290.73	0.554
291.20	0.554
291.66	0.551
292.13	0.549
292.60	0.548
293.07	0.540
293.53	0.537
294.00	0.531
294.47	0.527
294.93	0.524
295.40	0.516
295.87	0.513
296.34	0.506
296.80	0.496
297.27	0.488
297.74	0.484
298.20	0.475
298.67	0.470
299.14	0.461
299.60	0.452
300.07	0.441
300.54	0.438
301.01	0.434
301.47	0.426
301.94	0.419
302.41	0.411
302.87	0.403
303.34	0.397
303.81	0.393
304.27	0.386
304.74	0.377
305.21	0.370
305.67	0.364
306.14	0.361
306.61	0.357
307.07	0.348
307.54	0.348
308.01	0.341
308.47	0.332
308.94	0.331
309.40	0.327
309.87	0.323
310.34	0.321
310.80	0.317
311.27	0.315
311.74	0.311
312.20	0.308
312.67	0.306
313.13	0.302
313.60	0.297
314.07	0.294
314.53	0.292
315.00	0.287
315.47	0.291
315.93	0.290
316.40	0.284
316.86	0.283
317.33	0.279
317.80	0.286
318.26	0.279
318.73	0.280
319.19	0.277
319.66	0.274
320.13	0.273
320.59	0.272
321.06	0.271
321.52	0.269
321.99	0.268
322.45	0.265
322.92	0.265
323.39	0.262
323.85	0.263
324.32	0.261
324.78	0.260
325.25	0.255
325.71	0.258
326.18	0.252
326.64	0.253
327.11	0.250
327.58	0.246
328.04	0.251
328.51	0.249
328.97	0.246
329.44	0.244
329.90	0.241
330.37	0.236
330.83	0.240
331.30	0.237
331.76	0.233
332.23	0.236
332.69	0.233
333.16	0.230
333.62	0.229
334.09	0.225
334.56	0.225
335.02	0.221
335.49	0.221
335.95	0.217
336.42	0.216
336.88	0.213
337.35	0.213
337.81	0.212
338.28	0.212
338.74	0.211
339.20	0.213
339.67	0.211
340.13	0.210
340.60	0.207
341.06	0.205
341.53	0.202
341.99	0.200
342.46	0.200
342.92	0.197
343.39	0.197
343.85	0.194
344.32	0.194
344.78	0.194
345.25	0.197
345.71	0.195
346.17	0.199
346.64	0.198
347.10	0.193
347.57	0.193
348.03	0.187
348.50	0.187
348.96	0.189
349.43	0.184
349.89	0.190
350.35	0.188
350.82	0.185
351.28	0.189
351.75	0.185
352.21	0.190
352.67	0.182
353.14	0.182
353.60	0.183
354.07	0.178
354.53	0.183
355.00	0.178
355.46	0.175
355.92	0.172
356.39	0.174
356.85	0.169
357.31	0.167
357.78	0.166
358.24	0.171
358.71	0.170
359.17	0.170
359.63	0.165
360.10	0.165
360.56	0.166
361.03	0.165
361.49	0.164
361.95	0.163
362.42	0.162
362.88	0.165
363.34	0.165
363.81	0.161
364.27	0.164
364.73	0.165
365.20	0.162
365.66	0.162
366.12	0.162
366.59	0.162
367.05	0.162
367.51	0.165
367.98	0.161
368.44	0.162
368.90	0.160
369.37	0.162
369.83	0.159
370.29	0.159
370.76	0.160
371.22	0.157
371.68	0.157
372.15	0.158
372.61	0.154
373.07	0.157
373.54	0.157
374.00	0.153
374.46	0.155
374.92	0.156
375.39	0.156
375.85	0.156
376.31	0.154
376.78	0.152
377.24	0.152
377.70	0.152
378.16	0.153
378.63	0.152
379.09	0.154
379.55	0.153
380.01	0.152
380.48	0.152
380.94	0.155
381.40	0.150
381.87	0.155
382.33	0.151
382.79	0.149
383.25	0.149
383.72	0.153
384.18	0.151
384.64	0.152
385.10	0.150
385.56	0.149
386.03	0.151
386.49	0.150
386.95	0.149
387.41	0.147
387.88	0.146
388.34	0.146
388.80	0.150
389.26	0.149
389.72	0.148
390.19	0.145
390.65	0.142
391.11	0.148
391.57	0.147
392.04	0.144
392.50	0.146
392.96	0.145
393.42	0.144
393.88	0.148
394.34	0.145
394.81	0.144
395.27	0.142
395.73	0.140
396.19	0.144
396.65	0.143
397.12	0.139
397.58	0.142
398.04	0.140
398.50	0.141
398.96	0.143
399.42	0.142
399.89	0.145
400.35	0.142
400.81	0.140
401.27	0.145
401.73	0.142
402.19	0.142
402.65	0.137
403.12	0.140
403.58	0.137
404.04	0.137
404.50	0.137
404.96	0.136
405.42	0.141
405.88	0.138
406.34	0.140
406.81	0.140
407.27	0.137
407.73	0.134
408.19	0.133
408.65	0.134
409.11	0.134
409.57	0.133
410.03	0.137
410.49	0.135
410.96	0.133
411.42	0.135
411.88	0.131
412.34	0.128
412.80	0.132
413.26	0.133
413.72	0.131
414.18	0.129
414.64	0.134
415.10	0.133
415.56	0.133
416.02	0.130
416.48	0.130
416.95	0.131
417.41	0.130
417.87	0.129
418.33	0.130
418.79	0.127
419.25	0.132
419.71	0.131
420.17	0.128
420.63	0.125
421.09	0.124
421.55	0.127
422.01	0.129
422.47	0.132
422.93	0.131
423.39	0.129
423.85	0.128
424.31	0.129
424.77	0.130
425.23	0.128
425.69	0.133
426.15	0.131
426.61	0.132
427.07	0.123
427.53	0.125
427.99	0.125
428.45	0.131
428.91	0.125
429.37	0.125
429.83	0.124
430.29	0.127
430.75	0.130
431.21	0.129
431.67	0.132
432.13	0.131
432.59	0.124
433.05	0.126
433.51	0.123
433.97	0.122
434.43	0.130
434.89	0.132
435.35	0.128
435.81	0.127
436.27	0.128
436.73	0.124
437.19	0.129
437.65	0.125
438.11	0.125
438.57	0.125
439.03	0.128
439.48	0.127
439.94	0.128
440.40	0.125
440.86	0.123
441.32	0.122
441.78	0.123
442.24	0.125
442.70	0.124
443.16	0.122
443.62	0.124
444.08	0.123
444.54	0.126
444.99	0.123
445.45	0.120
445.91	0.122
446.37	0.124
446.83	0.122
447.29	0.123
447.75	0.121
448.21	0.127
448.67	0.126
449.12	0.122
449.58	0.123
450.04	0.124
450.50	0.124
450.96	0.121
451.42	0.124
451.88	0.125
452.34	0.120
452.79	0.122
453.25	0.123
453.71	0.120
454.17	0.119
454.63	0.125
455.09	0.121
455.55	0.121
456.00	0.119
456.46	0.121
456.92	0.120
457.38	0.122
457.84	0.122
458.30	0.121
458.75	0.119
459.21	0.121
459.67	0.120
460.13	0.118
460.59	0.119
461.04	0.117
461.50	0.118
461.96	0.119
462.42	0.118
462.88	0.118
463.33	0.117
463.79	0.119
464.25	0.118
464.71	0.120
465.17	0.118
465.62	0.117
466.08	0.120
466.54	0.122
467.00	0.119
467.46	0.121
467.91	0.123
468.37	0.119
468.83	0.120
469.29	0.120
469.74	0.121
470.20	0.121
470.66	0.120
471.12	0.122
471.57	0.120
472.03	0.120
472.49	0.121
472.95	0.121
473.40	0.121
473.86	0.121
474.32	0.119
474.78	0.119
475.23	0.121
475.69	0.119
476.15	0.123
476.60	0.122
477.06	0.121
477.52	0.119
477.98	0.120
478.43	0.122
478.89	0.118
479.35	0.123
479.80	0.122
480.26	0.119
480.72	0.119
481.18	0.119
481.63	0.120
482.09	0.120
482.55	0.118
483.00	0.115
483.46	0.119
483.92	0.117
484.37	0.117
484.83	0.117
485.29	0.118
485.74	0.117
486.20	0.118
486.66	0.120
487.11	0.118
487.57	0.118
488.03	0.117
488.48	0.118
488.94	0.116
489.40	0.117
489.85	0.118
490.31	0.117
490.77	0.118
491.22	0.119
491.68	0.120
492.13	0.120
492.59	0.120
493.05	0.116
493.50	0.120
493.96	0.117
494.42	0.120
494.87	0.121
495.33	0.116
495.78	0.117
496.24	0.116
496.70	0.120
497.15	0.118
497.61	0.120
498.06	0.118
498.52	0.118
498.98	0.117
499.43	0.117
499.89	0.118
500.34	0.115
500.80	0.116
501.25	0.116
501.71	0.115
502.17	0.116
502.62	0.116
503.08	0.112
503.53	0.116
503.99	0.115
504.44	0.117
504.90	0.114
505.36	0.115
505.81	0.117
506.27	0.115
506.72	0.115
507.18	0.115
507.63	0.114
508.09	0.116
508.54	0.114
509.00	0.115
509.45	0.116
509.91	0.113
510.36	0.116
510.82	0.115
511.27	0.114
511.73	0.114
512.19	0.115
512.64	0.113
513.10	0.117
513.55	0.117
514.01	0.115
514.46	0.116
514.92	0.116
515.37	0.116
515.83	0.113
516.28	0.116
516.73	0.114
517.19	0.115
517.64	0.113
518.10	0.116
518.55	0.116
519.01	0.114
519.46	0.112
519.92	0.114
520.37	0.111
520.83	0.115
521.28	0.114
521.74	0.116
522.19	0.114
522.65	0.112
523.10	0.112
523.55	0.114
524.01	0.112
524.46	0.114
524.92	0.111
525.37	0.115
525.83	0.113
526.28	0.113
526.73	0.114
527.19	0.112
527.64	0.113
528.10	0.115
528.55	0.116
529.01	0.114
529.46	0.116
529.91	0.115
530.37	0.113
530.82	0.115
531.28	0.115
531.73	0.114
532.18	0.115
532.64	0.113
533.09	0.114
533.54	0.114
534.00	0.115
534.45	0.116
534.91	0.113
535.36	0.114
535.81	0.113
536.27	0.113
536.72	0.114
537.17	0.115
537.63	0.115
538.08	0.116
538.54	0.116
538.99	0.116
539.44	0.117
539.90	0.116
540.35	0.115
540.80	0.114
541.26	0.117
541.71	0.118
542.16	0.120
542.62	0.120
543.07	0.119
543.52	0.116
543.98	0.116
544.43	0.117
544.88	0.116
545.34	0.119
545.79	0.119
546.24	0.117
546.69	0.117
547.15	0.120
547.60	0.120
548.05	0.119
548.51	0.121
548.96	0.120
549.41	0.121
549.86	0.122
550.32	0.119
550.77	0.121
551.22	0.121
551.68	0.123
552.13	0.123
552.58	0.123
553.03	0.123
553.49	0.123
553.94	0.123
554.39	0.126
554.84	0.128
555.30	0.125
555.75	0.124
556.20	0.126
556.65	0.126
557.11	0.127
557.56	0.129
558.01	0.130
558.46	0.127
558.92	0.129
559.37	0.131
559.82	0.130
560.27	0.130
560.72	0.130
561.18	0.131
561.63	0.131
562.08	0.131
562.53	0.130
562.99	0.131
563.44	0.132
563.89	0.134
564.34	0.132
564.79	0.134
565.25	0.136
565.70	0.134
566.15	0.136
566.60	0.135
567.05	0.136
567.50	0.138
567.96	0.137
568.41	0.138
568.86	0.138
569.31	0.142
569.76	0.140
570.21	0.142
570.67	0.139
571.12	0.141
571.57	0.141
572.02	0.143
572.47	0.143
572.92	0.144
573.37	0.146
573.83	0.145
574.28	0.147
574.73	0.146
575.18	0.149
575.63	0.147
576.08	0.147
576.53	0.147
576.98	0.150
577.44	0.152
577.89	0.150
578.34	0.154
578.79	0.153
579.24	0.154
579.69	0.154
580.14	0.156
580.59	0.157
581.04	0.157
581.49	0.158
581.95	0.160
582.40	0.161
582.85	0.163
583.30	0.163
583.75	0.165
584.20	0.166
584.65	0.167
585.10	0.170
585.55	0.170
586.00	0.171
586.45	0.174
586.90	0.173
587.35	0.175
587.80	0.175
588.25	0.177
588.71	0.180
589.16	0.180
589.61	0.180
590.06	0.182
590.51	0.184
590.96	0.186
591.41	0.189
591.86	0.191
592.31	0.190
592.76	0.192
593.21	0.192
593.66	0.194
594.11	0.197
594.56	0.198
595.01	0.200
595.46	0.201
595.91	0.204
596.36	0.204
596.81	0.207
597.26	0.209
597.71	0.207
598.16	0.210
598.61	0.215
599.06	0.214
599.51	0.214
599.96	0.218
600.41	0.218
600.86	0.222
601.31	0.222
601.76	0.226
602.21	0.229
602.65	0.229
603.10	0.228
603.55	0.229
604.00	0.232
604.45	0.234
604.90	0.233
605.35	0.236
605.80	0.238
606.25	0.238
606.70	0.241
607.15	0.240
607.60	0.241
608.05	0.244
608.50	0.245
608.95	0.245
609.39	0.248
609.84	0.249
610.29	0.252
610.74	0.250
611.19	0.250
611.64	0.254
612.09	0.252
612.54	0.255
612.99	0.255
613.44	0.255
613.88	0.256
614.33	0.256
614.78	0.260
615.23	0.260
615.68	0.258
616.13	0.259
616.58	0.261
617.03	0.261
617.47	0.263
617.92	0.263
618.37	0.265
618.82	0.265
619.27	0.263
619.72	0.265
620.17	0.264
620.61	0.267
621.06	0.266
621.51	0.266
621.96	0.267
622.41	0.267
622.86	0.269
623.30	0.269
623.75	0.271
624.20	0.270
624.65	0.273
625.10	0.273
625.54	0.270
625.99	0.272
626.44	0.274
626.89	0.274
627.34	0.275
627.78	0.277
628.23	0.279
628.68	0.279
629.13	0.279
629.58	0.280
630.02	0.281
630.47	0.282
630.92	0.284
631.37	0.287
631.81	0.288
632.26	0.289
632.71	0.292
633.16	0.294
633.61	0.294
634.05	0.296
634.50	0.296
634.95	0.298
635.40	0.300
635.84	0.305
636.29	0.305
636.74	0.306
637.18	0.310
637.63	0.310
638.08	0.312
638.53	0.312
638.97	0.316
639.42	0.320
639.87	0.320
640.32	0.326
640.76	0.326
641.21	0.330
641.66	0.329
642.10	0.335
642.55	0.334
643.00	0.337
643.44	0.343
643.89	0.344
644.34	0.347
644.79	0.349
645.23	0.353
645.68	0.354
646.13	0.358
646.57	0.361
647.02	0.363
647.47	0.366
647.91	0.367
648.36	0.371
648.81	0.372
649.25	0.376
649.70	0.376
650.15	0.381
650.59	0.383
651.04	0.389
651.48	0.386
651.93	0.389
652.38	0.392
652.82	0.395
653.27	0.395
653.72	0.399
654.16	0.402
654.61	0.401
655.06	0.405
655.50	0.406
655.95	0.401
656.39	0.403
656.84	0.413
657.29	0.418
657.73	0.415
658.18	0.415
658.62	0.417
659.07	0.420
659.52	0.418
659.96	0.421
660.41	0.425
660.85	0.425
661.30	0.426
661.74	0.429
662.19	0.429
662.64	0.426
663.08	0.424
663.53	0.425
663.97	0.426
664.42	0.425
664.86	0.427
665.31	0.428
665.75	0.427
666.20	0.424
666.65	0.427
667.09	0.422
667.54	0.422
667.98	0.418
668.43	0.420
668.87	0.416
669.32	0.415
669.76	0.410
670.21	0.412
670.65	0.406
671.10	0.402
671.54	0.401
671.99	0.395
672.43	0.394
672.88	0.386
673.32	0.384
673.77	0.380
674.21	0.374
674.66	0.367
675.10	0.363
675.55	0.356
675.99	0.350
676.44	0.346
676.88	0.340
677.33	0.334
677.77	0.327
678.22	0.320
678.66	0.314
679.11	0.307
679.55	0.301
679.99	0.294
680.44	0.286
680.88	0.281
681.33	0.275
681.77	0.267
682.22	0.259
682.66	0.256
683.11	0.248
683.55	0.243
683.99	0.235
684.44	0.232
684.88	0.225
685.33	0.216
685.77	0.212
686.21	0.206
686.66	0.200
687.10	0.194
687.55	0.191
687.99	0.185
688.44	0.179
688.88	0.173
689.32	0.171
689.77	0.167
690.21	0.164
690.65	0.159
691.10	0.155
691.54	0.152
691.99	0.148
692.43	0.145
692.87	0.143
693.32	0.139
693.76	0.135
694.20	0.134
694.65	0.131
695.09	0.127
695.53	0.126
695.98	0.124
696.42	0.119
696.86	0.119
697.31	0.120
697.75	0.115
698.19	0.115
698.64	0.111
699.08	0.110
699.52	0.109
699.97	0.107
700.41	0.105
700.85	0.105
701.30	0.102
701.74	0.101
702.18	0.098
702.63	0.099
703.07	0.096
703.51	0.098
703.96	0.095
704.40	0.095
704.84	0.094
705.28	0.092
705.73	0.092
706.17	0.090
706.61	0.095
707.06	0.090
707.50	0.091
707.94	0.090
708.38	0.088
708.83	0.089
709.27	0.088
709.71	0.089
710.15	0.089
710.60	0.087
711.04	0.082
711.48	0.086
711.92	0.084
712.37	0.084
712.81	0.085
713.25	0.085
713.69	0.083
714.13	0.083
714.58	0.084
715.02	0.082
715.46	0.082
715.90	0.081
716.35	0.080
716.79	0.082
717.23	0.084
717.67	0.085
718.11	0.081
718.56	0.082
719.00	0.080
719.44	0.082
719.88	0.084
720.32	0.083
720.76	0.082
721.21	0.082
721.65	0.082
722.09	0.082
722.53	0.082
722.97	0.082
723.41	0.081
723.86	0.083
724.30	0.081
724.74	0.083
725.18	0.082
725.62	0.083
726.06	0.083
726.50	0.082
726.95	0.085
727.39	0.082
727.83	0.082
728.27	0.083
728.71	0.084
729.15	0.082
729.59	0.080
730.03	0.082
730.48	0.081
730.92	0.082
731.36	0.082
731.80	0.083
732.24	0.086
732.68	0.082
733.12	0.085
733.56	0.085
734.00	0.083
734.44	0.083
734.89	0.084
735.33	0.083
735.77	0.086
736.21	0.084
736.65	0.084
737.09	0.087
737.53	0.087
737.97	0.086
738.41	0.085
738.85	0.086
739.29	0.085
739.73	0.086
740.17	0.083
740.61	0.084
741.05	0.086
741.49	0.086
741.93	0.086
742.37	0.083
742.81	0.086
743.26	0.086
743.70	0.084
744.14	0.085
744.58	0.084
745.02	0.083
745.46	0.085
745.90	0.084
746.34	0.085
746.78	0.088
747.22	0.085
747.66	0.083
748.10	0.085
748.54	0.085
748.98	0.084
749.42	0.085
749.86	0.086
750.29	0.084
750.73	0.086
751.17	0.085
751.61	0.087
752.05	0.083
752.49	0.083
752.93	0.083
753.37	0.086
753.81	0.082
754.25	0.084
754.69	0.087
755.13	0.086
755.57	0.082
756.01	0.083
756.45	0.084
756.89	0.085
757.33	0.083
757.77	0.082
758.21	0.087
758.64	0.082
759.08	0.083
759.52	0.081
759.96	0.082
760.40	0.081
760.84	0.081
761.28	0.080
761.72	0.083
762.16	0.081
762.60	0.085
763.03	0.084
763.47	0.086
763.91	0.082
764.35	0.083
764.79	0.084
765.23	0.086
765.67	0.080
766.11	0.082
766.54	0.081
766.98	0.081
767.42	0.084
767.86	0.085
768.30	0.083
768.74	0.082
769.17	0.086
769.61	0.082
770.05	0.085
770.49	0.085
770.93	0.078
771.37	0.087
771.80	0.081
772.24	0.079
772.68	0.082
773.12	0.081
773.56	0.082
774.00	0.084
774.43	0.083
774.87	0.083
775.31	0.083
775.75	0.081
776.19	0.080
776.62	0.084
777.06	0.081
777.50	0.084
777.94	0.081
778.37	0.086
778.81	0.083
779.25	0.081
779.69	0.080
780.13	0.080
780.56	0.080
781.00	0.083
781.44	0.085
781.88	0.081
782.31	0.081
782.75	0.079
783.19	0.082
783.63	0.083
784.06	0.082
784.50	0.084
784.94	0.086
785.37	0.081
785.81	0.082
786.25	0.080
786.69	0.085
787.12	0.085
787.56	0.082
788.00	0.083
788.43	0.083
788.87	0.084
789.31	0.086
789.75	0.083
790.18	0.084
790.62	0.081
791.06	0.082
791.49	0.084
791.93	0.080
792.37	0.081
792.80	0.084
793.24	0.078
793.68	0.082
794.11	0.083
794.55	0.084
794.99	0.081
795.42	0.084
795.86	0.085
796.30	0.083
796.73	0.082
797.17	0.083
797.61	0.082
798.04	0.082
798.48	0.079
798.91	0.083
799.35	0.080
799.79	0.080
800.22	0.082
800.66	0.081
801.10	0.085
801.53	0.087
801.97	0.084
802.40	0.080
802.84	0.080
803.28	0.080
803.71	0.084
804.15	0.085
804.58	0.082
805.02	0.083
805.46	0.081
805.89	0.083
806.33	0.085
806.76	0.082
807.20	0.082
807.63	0.084
808.07	0.083
808.51	0.084
808.94	0.085
809.38	0.082
809.81	0.087
810.25	0.080
810.68	0.084
811.12	0.082
811.55	0.083
811.99	0.083
812.42	0.082
812.86	0.082
813.29	0.084
813.73	0.084
814.17	0.077
814.60	0.079
