SpectraSuite Data File
++++++++++++++++++++++++++++++++++++
Date: Wed May 04 17:00:27 CEST 2016
User: spectrasuite
Dark Spectrum Present: Yes
Reference Spectrum Present: Yes
Number of Sampled Component Spectra: 1
Spectrometers: HR+C0708
Integration Time (usec): 1000 (HR+C0708)
Spectra Averaged: 10 (HR+C0708)
Boxcar Smoothing: 0 (HR+C0708)
Correct for Electrical Dark: No (HR+C0708)
Strobe/Lamp Enabled: No (HR+C0708)
Correct for Detector Non-linearity: No (HR+C0708)
Correct for Stray Light: No (HR+C0708)
Number of Pixels in Processed Spectrum: 2048
>>>>>Begin Processed Spectral Data<<<<<
188.76	-0.000
189.23	-0.000
189.70	-0.000
190.17	-0.000
190.64	-0.000
191.12	-0.000
191.59	-0.000
192.06	-0.000
192.53	-0.000
193.01	-0.000
193.48	-0.000
193.95	-0.000
194.42	-0.000
194.90	-0.000
195.37	-0.000
195.84	-0.000
196.31	-0.000
196.78	-0.000
197.26	-0.000
197.73	-0.000
198.20	-0.000
198.67	-0.000
199.14	-0.000
199.62	-0.000
200.09	-0.000
200.56	-0.000
201.03	-0.000
201.50	-0.000
201.97	-0.000
202.45	-0.000
202.92	-0.000
203.39	-0.000
203.86	-0.000
204.33	-0.000
204.80	-0.000
205.28	-0.000
205.75	-0.000
206.22	-0.000
206.69	-0.000
207.16	-0.000
207.63	-0.000
208.11	-0.000
208.58	-0.000
209.05	-0.000
209.52	-0.000
209.99	-0.000
210.46	-0.000
210.93	-0.000
211.41	-0.000
211.88	-0.000
212.35	-0.000
212.82	-0.000
213.29	1.840
213.76	-0.000
214.23	-0.000
214.70	-0.000
215.18	-0.000
215.65	-0.000
216.12	-0.000
216.59	-0.000
217.06	1.339
217.53	-0.000
218.00	-0.000
218.47	-0.000
218.94	-0.000
219.41	1.496
219.89	-0.000
220.36	-0.000
220.83	-0.000
221.30	-0.000
221.77	-0.000
222.24	1.455
222.71	-0.000
223.18	-0.000
223.65	-0.000
224.12	-0.000
224.59	-0.000
225.06	-0.000
225.54	1.638
226.01	-0.000
226.48	-0.000
226.95	-0.000
227.42	-0.000
227.89	-0.000
228.36	-0.000
228.83	-0.000
229.30	-0.000
229.77	-0.000
230.24	-0.000
230.71	-0.000
231.18	-0.000
231.65	-0.000
232.12	-0.000
232.59	-0.000
233.06	-0.000
233.53	-0.000
234.00	2.876
234.47	-0.000
234.94	-0.000
235.41	-0.000
235.88	-0.000
236.35	-0.000
236.82	-0.000
237.29	-0.000
237.76	-0.000
238.23	-0.000
238.70	-0.000
239.17	3.087
239.64	-0.000
240.11	-0.000
240.58	3.635
241.05	-0.000
241.52	-0.000
241.99	2.773
242.46	-0.000
242.93	2.702
243.40	-0.000
243.87	-0.000
244.34	2.631
244.81	2.965
245.28	-0.000
245.75	-0.000
246.22	2.825
246.69	-0.000
247.16	3.292
247.63	3.157
248.10	3.424
248.57	-0.000
249.04	-0.000
249.51	4.097
249.98	-0.000
250.45	-0.000
250.92	-0.000
251.39	2.718
251.85	2.805
252.32	2.372
252.79	2.151
253.26	1.978
253.73	1.857
254.20	1.725
254.67	1.621
255.14	1.557
255.61	1.450
256.08	1.412
256.55	1.322
257.02	1.273
257.49	1.230
257.95	1.182
258.42	1.143
258.89	1.111
259.36	1.081
259.83	1.043
260.30	1.026
260.77	0.998
261.24	0.977
261.71	0.954
262.17	0.931
262.64	0.916
263.11	0.894
263.58	0.880
264.05	0.864
264.52	0.848
264.99	0.830
265.46	0.818
265.92	0.804
266.39	0.792
266.86	0.779
267.33	0.768
267.80	0.762
268.27	0.748
268.74	0.739
269.20	0.730
269.67	0.716
270.14	0.710
270.61	0.707
271.08	0.696
271.55	0.686
272.01	0.683
272.48	0.671
272.95	0.663
273.42	0.658
273.89	0.654
274.36	0.646
274.82	0.638
275.29	0.634
275.76	0.629
276.23	0.623
276.70	0.615
277.16	0.617
277.63	0.612
278.10	0.603
278.57	0.600
279.04	0.601
279.50	0.598
279.97	0.589
280.44	0.588
280.91	0.588
281.38	0.580
281.84	0.576
282.31	0.577
282.78	0.577
283.25	0.575
283.72	0.571
284.18	0.571
284.65	0.571
285.12	0.570
285.59	0.565
286.05	0.569
286.52	0.566
286.99	0.564
287.46	0.566
287.92	0.563
288.39	0.564
288.86	0.563
289.33	0.560
289.79	0.556
290.26	0.554
290.73	0.553
291.20	0.552
291.66	0.547
292.13	0.548
292.60	0.542
293.07	0.538
293.53	0.536
294.00	0.530
294.47	0.522
294.93	0.520
295.40	0.511
295.87	0.511
296.34	0.503
296.80	0.494
297.27	0.482
297.74	0.482
298.20	0.472
298.67	0.465
299.14	0.460
299.60	0.452
300.07	0.445
300.54	0.436
301.01	0.433
301.47	0.427
301.94	0.416
302.41	0.406
302.87	0.405
303.34	0.394
303.81	0.391
304.27	0.386
304.74	0.380
305.21	0.368
305.67	0.364
306.14	0.360
306.61	0.355
307.07	0.347
307.54	0.345
308.01	0.339
308.47	0.333
308.94	0.328
309.40	0.328
309.87	0.323
310.34	0.319
310.80	0.316
311.27	0.314
311.74	0.310
312.20	0.306
312.67	0.306
313.13	0.299
313.60	0.298
314.07	0.294
314.53	0.292
315.00	0.290
315.47	0.289
315.93	0.288
316.40	0.285
316.86	0.282
317.33	0.281
317.80	0.283
318.26	0.278
318.73	0.280
319.19	0.276
319.66	0.273
320.13	0.271
320.59	0.269
321.06	0.274
321.52	0.267
321.99	0.267
322.45	0.263
322.92	0.266
323.39	0.264
323.85	0.263
324.32	0.263
324.78	0.261
325.25	0.252
325.71	0.254
326.18	0.255
326.64	0.250
327.11	0.248
327.58	0.250
328.04	0.249
328.51	0.244
328.97	0.247
329.44	0.244
329.90	0.242
330.37	0.238
330.83	0.238
331.30	0.235
331.76	0.234
332.23	0.233
332.69	0.229
333.16	0.231
333.62	0.227
334.09	0.227
334.56	0.223
335.02	0.223
335.49	0.221
335.95	0.215
336.42	0.217
336.88	0.213
337.35	0.211
337.81	0.209
338.28	0.213
338.74	0.209
339.20	0.211
339.67	0.209
340.13	0.210
340.60	0.207
341.06	0.200
341.53	0.199
341.99	0.198
342.46	0.200
342.92	0.198
343.39	0.193
343.85	0.192
344.32	0.193
344.78	0.192
345.25	0.196
345.71	0.194
346.17	0.195
346.64	0.195
347.10	0.191
347.57	0.190
348.03	0.184
348.50	0.186
348.96	0.189
349.43	0.188
349.89	0.188
350.35	0.187
350.82	0.187
351.28	0.186
351.75	0.185
352.21	0.189
352.67	0.183
353.14	0.182
353.60	0.181
354.07	0.177
354.53	0.178
355.00	0.174
355.46	0.174
355.92	0.170
356.39	0.175
356.85	0.168
357.31	0.166
357.78	0.170
358.24	0.168
358.71	0.170
359.17	0.169
359.63	0.165
360.10	0.164
360.56	0.164
361.03	0.165
361.49	0.166
361.95	0.162
362.42	0.164
362.88	0.163
363.34	0.164
363.81	0.162
364.27	0.164
364.73	0.164
365.20	0.162
365.66	0.162
366.12	0.163
366.59	0.161
367.05	0.161
367.51	0.161
367.98	0.162
368.44	0.159
368.90	0.157
369.37	0.160
369.83	0.159
370.29	0.156
370.76	0.158
371.22	0.156
371.68	0.156
372.15	0.155
372.61	0.151
373.07	0.154
373.54	0.154
374.00	0.153
374.46	0.154
374.92	0.154
375.39	0.154
375.85	0.154
376.31	0.154
376.78	0.153
377.24	0.150
377.70	0.151
378.16	0.151
378.63	0.151
379.09	0.152
379.55	0.152
380.01	0.153
380.48	0.154
380.94	0.151
381.40	0.151
381.87	0.154
382.33	0.151
382.79	0.149
383.25	0.150
383.72	0.151
384.18	0.149
384.64	0.149
385.10	0.148
385.56	0.147
386.03	0.147
386.49	0.148
386.95	0.147
387.41	0.146
387.88	0.145
388.34	0.145
388.80	0.146
389.26	0.147
389.72	0.149
390.19	0.145
390.65	0.143
391.11	0.144
391.57	0.144
392.04	0.142
392.50	0.143
392.96	0.145
393.42	0.145
393.88	0.146
394.34	0.144
394.81	0.144
395.27	0.146
395.73	0.138
396.19	0.141
396.65	0.140
397.12	0.141
397.58	0.140
398.04	0.137
398.50	0.139
398.96	0.141
399.42	0.143
399.89	0.144
400.35	0.142
400.81	0.138
401.27	0.141
401.73	0.139
402.19	0.140
402.65	0.137
403.12	0.139
403.58	0.140
404.04	0.136
404.50	0.135
404.96	0.134
405.42	0.136
405.88	0.137
406.34	0.140
406.81	0.138
407.27	0.136
407.73	0.134
408.19	0.132
408.65	0.132
409.11	0.134
409.57	0.132
410.03	0.136
410.49	0.133
410.96	0.134
411.42	0.134
411.88	0.130
412.34	0.126
412.80	0.131
413.26	0.130
413.72	0.129
414.18	0.129
414.64	0.131
415.10	0.132
415.56	0.132
416.02	0.129
416.48	0.129
416.95	0.135
417.41	0.132
417.87	0.129
418.33	0.130
418.79	0.128
419.25	0.131
419.71	0.127
420.17	0.127
420.63	0.123
421.09	0.124
421.55	0.126
422.01	0.128
422.47	0.133
422.93	0.134
423.39	0.130
423.85	0.124
424.31	0.128
424.77	0.127
425.23	0.126
425.69	0.132
426.15	0.131
426.61	0.130
427.07	0.125
427.53	0.126
427.99	0.125
428.45	0.127
428.91	0.123
429.37	0.124
429.83	0.122
430.29	0.124
430.75	0.128
431.21	0.129
431.67	0.132
432.13	0.128
432.59	0.124
433.05	0.125
433.51	0.122
433.97	0.120
434.43	0.130
434.89	0.132
435.35	0.125
435.81	0.127
436.27	0.126
436.73	0.123
437.19	0.129
437.65	0.123
438.11	0.127
438.57	0.127
439.03	0.129
439.48	0.127
439.94	0.124
440.40	0.125
440.86	0.125
441.32	0.124
441.78	0.123
442.24	0.127
442.70	0.124
443.16	0.122
443.62	0.123
444.08	0.119
444.54	0.120
444.99	0.123
445.45	0.119
445.91	0.121
446.37	0.122
446.83	0.123
447.29	0.124
447.75	0.122
448.21	0.128
448.67	0.120
449.12	0.121
449.58	0.120
450.04	0.125
450.50	0.122
450.96	0.120
451.42	0.121
451.88	0.125
452.34	0.120
452.79	0.120
453.25	0.122
453.71	0.121
454.17	0.121
454.63	0.121
455.09	0.121
455.55	0.120
456.00	0.115
456.46	0.121
456.92	0.122
457.38	0.120
457.84	0.119
458.30	0.119
458.75	0.119
459.21	0.118
459.67	0.116
460.13	0.118
460.59	0.120
461.04	0.118
461.50	0.117
461.96	0.120
462.42	0.116
462.88	0.116
463.33	0.118
463.79	0.118
464.25	0.117
464.71	0.118
465.17	0.117
465.62	0.117
466.08	0.120
466.54	0.122
467.00	0.118
467.46	0.120
467.91	0.117
468.37	0.121
468.83	0.120
469.29	0.122
469.74	0.120
470.20	0.121
470.66	0.120
471.12	0.118
471.57	0.119
472.03	0.117
472.49	0.119
472.95	0.120
473.40	0.119
473.86	0.118
474.32	0.117
474.78	0.120
475.23	0.119
475.69	0.119
476.15	0.121
476.60	0.120
477.06	0.120
477.52	0.119
477.98	0.119
478.43	0.120
478.89	0.120
479.35	0.120
479.80	0.118
480.26	0.115
480.72	0.115
481.18	0.117
481.63	0.120
482.09	0.119
482.55	0.116
483.00	0.116
483.46	0.119
483.92	0.115
484.37	0.117
484.83	0.114
485.29	0.117
485.74	0.115
486.20	0.117
486.66	0.119
487.11	0.117
487.57	0.117
488.03	0.117
488.48	0.118
488.94	0.116
489.40	0.119
489.85	0.118
490.31	0.116
490.77	0.116
491.22	0.117
491.68	0.115
492.13	0.117
492.59	0.118
493.05	0.115
493.50	0.115
493.96	0.117
494.42	0.118
494.87	0.117
495.33	0.114
495.78	0.116
496.24	0.117
496.70	0.116
497.15	0.115
497.61	0.119
498.06	0.117
498.52	0.117
498.98	0.116
499.43	0.115
499.89	0.117
500.34	0.114
500.80	0.117
501.25	0.115
501.71	0.113
502.17	0.112
502.62	0.114
503.08	0.114
503.53	0.115
503.99	0.114
504.44	0.114
504.90	0.114
505.36	0.114
505.81	0.116
506.27	0.115
506.72	0.113
507.18	0.113
507.63	0.115
508.09	0.113
508.54	0.112
509.00	0.115
509.45	0.113
509.91	0.115
510.36	0.114
510.82	0.116
511.27	0.113
511.73	0.114
512.19	0.113
512.64	0.112
513.10	0.116
513.55	0.113
514.01	0.115
514.46	0.114
514.92	0.115
515.37	0.116
515.83	0.113
516.28	0.113
516.73	0.113
517.19	0.114
517.64	0.114
518.10	0.113
518.55	0.114
519.01	0.113
519.46	0.110
519.92	0.112
520.37	0.110
520.83	0.114
521.28	0.110
521.74	0.110
522.19	0.112
522.65	0.112
523.10	0.111
523.55	0.113
524.01	0.114
524.46	0.113
524.92	0.111
525.37	0.113
525.83	0.114
526.28	0.112
526.73	0.113
527.19	0.112
527.64	0.111
528.10	0.113
528.55	0.115
529.01	0.115
529.46	0.113
529.91	0.112
530.37	0.112
530.82	0.114
531.28	0.113
531.73	0.112
532.18	0.115
532.64	0.112
533.09	0.113
533.54	0.112
534.00	0.113
534.45	0.114
534.91	0.112
535.36	0.113
535.81	0.111
536.27	0.112
536.72	0.113
537.17	0.113
537.63	0.114
538.08	0.114
538.54	0.112
538.99	0.116
539.44	0.113
539.90	0.115
540.35	0.113
540.80	0.114
541.26	0.114
541.71	0.118
542.16	0.117
542.62	0.118
543.07	0.117
543.52	0.115
543.98	0.115
544.43	0.116
544.88	0.116
545.34	0.118
545.79	0.117
546.24	0.116
546.69	0.115
547.15	0.118
547.60	0.117
548.05	0.119
548.51	0.118
548.96	0.119
549.41	0.118
549.86	0.119
550.32	0.121
550.77	0.119
551.22	0.119
551.68	0.121
552.13	0.121
552.58	0.121
553.03	0.123
553.49	0.121
553.94	0.121
554.39	0.122
554.84	0.122
555.30	0.125
555.75	0.123
556.20	0.124
556.65	0.124
557.11	0.125
557.56	0.125
558.01	0.127
558.46	0.125
558.92	0.127
559.37	0.128
559.82	0.127
560.27	0.129
560.72	0.127
561.18	0.129
561.63	0.129
562.08	0.129
562.53	0.129
562.99	0.130
563.44	0.131
563.89	0.131
564.34	0.133
564.79	0.132
565.25	0.135
565.70	0.134
566.15	0.133
566.60	0.136
567.05	0.134
567.50	0.136
567.96	0.138
568.41	0.137
568.86	0.137
569.31	0.138
569.76	0.139
570.21	0.139
570.67	0.138
571.12	0.140
571.57	0.140
572.02	0.141
572.47	0.142
572.92	0.142
573.37	0.145
573.83	0.144
574.28	0.144
574.73	0.143
575.18	0.145
575.63	0.145
576.08	0.147
576.53	0.148
576.98	0.147
577.44	0.151
577.89	0.150
578.34	0.151
578.79	0.150
579.24	0.152
579.69	0.154
580.14	0.154
580.59	0.156
581.04	0.157
581.49	0.157
581.95	0.158
582.40	0.158
582.85	0.162
583.30	0.162
583.75	0.164
584.20	0.163
584.65	0.165
585.10	0.166
585.55	0.167
586.00	0.166
586.45	0.169
586.90	0.171
587.35	0.172
587.80	0.176
588.25	0.175
588.71	0.178
589.16	0.181
589.61	0.178
590.06	0.180
590.51	0.181
590.96	0.184
591.41	0.187
591.86	0.187
592.31	0.188
592.76	0.190
593.21	0.189
593.66	0.193
594.11	0.195
594.56	0.197
595.01	0.198
595.46	0.200
595.91	0.200
596.36	0.203
596.81	0.205
597.26	0.207
597.71	0.206
598.16	0.209
598.61	0.212
599.06	0.211
599.51	0.212
599.96	0.214
600.41	0.216
600.86	0.220
601.31	0.219
601.76	0.222
602.21	0.225
602.65	0.225
603.10	0.226
603.55	0.228
604.00	0.231
604.45	0.231
604.90	0.230
605.35	0.236
605.80	0.232
606.25	0.235
606.70	0.239
607.15	0.237
607.60	0.238
608.05	0.240
608.50	0.242
608.95	0.241
609.39	0.244
609.84	0.246
610.29	0.246
610.74	0.247
611.19	0.248
611.64	0.252
612.09	0.250
612.54	0.254
612.99	0.252
613.44	0.253
613.88	0.253
614.33	0.254
614.78	0.255
615.23	0.255
615.68	0.257
616.13	0.255
616.58	0.258
617.03	0.259
617.47	0.259
617.92	0.260
618.37	0.260
618.82	0.259
619.27	0.260
619.72	0.260
620.17	0.263
620.61	0.262
621.06	0.262
621.51	0.261
621.96	0.264
622.41	0.264
622.86	0.265
623.30	0.266
623.75	0.266
624.20	0.269
624.65	0.269
625.10	0.269
625.54	0.267
625.99	0.269
626.44	0.273
626.89	0.273
627.34	0.272
627.78	0.274
628.23	0.274
628.68	0.274
629.13	0.275
629.58	0.277
630.02	0.280
630.47	0.281
630.92	0.282
631.37	0.284
631.81	0.283
632.26	0.285
632.71	0.286
633.16	0.291
633.61	0.289
634.05	0.292
634.50	0.294
634.95	0.296
635.40	0.298
635.84	0.299
636.29	0.302
636.74	0.303
637.18	0.305
637.63	0.308
638.08	0.308
638.53	0.310
638.97	0.313
639.42	0.315
639.87	0.316
640.32	0.319
640.76	0.323
641.21	0.325
641.66	0.327
642.10	0.331
642.55	0.334
643.00	0.334
643.44	0.335
643.89	0.342
644.34	0.342
644.79	0.347
645.23	0.349
645.68	0.350
646.13	0.355
646.57	0.358
647.02	0.359
647.47	0.362
647.91	0.366
648.36	0.366
648.81	0.369
649.25	0.372
649.70	0.373
650.15	0.375
650.59	0.380
651.04	0.380
651.48	0.384
651.93	0.386
652.38	0.389
652.82	0.390
653.27	0.389
653.72	0.394
654.16	0.396
654.61	0.397
655.06	0.400
655.50	0.399
655.95	0.398
656.39	0.399
656.84	0.410
657.29	0.412
657.73	0.411
658.18	0.409
658.62	0.412
659.07	0.415
659.52	0.414
659.96	0.417
660.41	0.418
660.85	0.418
661.30	0.421
661.74	0.420
662.19	0.422
662.64	0.423
663.08	0.423
663.53	0.421
663.97	0.424
664.42	0.419
664.86	0.419
665.31	0.424
665.75	0.421
666.20	0.422
666.65	0.419
667.09	0.419
667.54	0.416
667.98	0.415
668.43	0.411
668.87	0.413
669.32	0.409
669.76	0.408
670.21	0.403
670.65	0.403
671.10	0.399
671.54	0.393
671.99	0.391
672.43	0.383
672.88	0.382
673.32	0.381
673.77	0.374
674.21	0.369
674.66	0.361
675.10	0.358
675.55	0.353
675.99	0.346
676.44	0.342
676.88	0.335
677.33	0.329
677.77	0.321
678.22	0.316
678.66	0.310
679.11	0.304
679.55	0.297
679.99	0.290
680.44	0.284
680.88	0.277
681.33	0.270
681.77	0.263
682.22	0.256
682.66	0.250
683.11	0.242
683.55	0.239
683.99	0.232
684.44	0.225
684.88	0.221
685.33	0.215
685.77	0.209
686.21	0.204
686.66	0.198
687.10	0.192
687.55	0.189
687.99	0.181
688.44	0.178
688.88	0.171
689.32	0.170
689.77	0.167
690.21	0.161
690.65	0.157
691.10	0.155
691.54	0.150
691.99	0.148
692.43	0.144
692.87	0.141
693.32	0.138
693.76	0.134
694.20	0.131
694.65	0.129
695.09	0.125
695.53	0.122
695.98	0.122
696.42	0.119
696.86	0.120
697.31	0.117
697.75	0.113
698.19	0.114
698.64	0.108
699.08	0.109
699.52	0.108
699.97	0.105
700.41	0.103
700.85	0.104
701.30	0.098
701.74	0.101
702.18	0.097
702.63	0.098
703.07	0.094
703.51	0.096
703.96	0.095
704.40	0.095
704.84	0.092
705.28	0.092
705.73	0.092
706.17	0.089
706.61	0.092
707.06	0.090
707.50	0.090
707.94	0.089
708.38	0.086
708.83	0.089
709.27	0.088
709.71	0.088
710.15	0.086
710.60	0.088
711.04	0.083
711.48	0.083
711.92	0.086
712.37	0.083
712.81	0.082
713.25	0.085
713.69	0.084
714.13	0.082
714.58	0.082
715.02	0.080
715.46	0.081
715.90	0.080
716.35	0.082
716.79	0.082
717.23	0.083
717.67	0.080
718.11	0.082
718.56	0.082
719.00	0.082
719.44	0.081
719.88	0.081
720.32	0.082
720.76	0.080
721.21	0.082
721.65	0.082
722.09	0.079
722.53	0.080
722.97	0.082
723.41	0.080
723.86	0.081
724.30	0.081
724.74	0.083
725.18	0.080
725.62	0.081
726.06	0.082
726.50	0.083
726.95	0.083
727.39	0.082
727.83	0.080
728.27	0.083
728.71	0.082
729.15	0.080
729.59	0.080
730.03	0.081
730.48	0.081
730.92	0.083
731.36	0.081
731.80	0.082
732.24	0.083
732.68	0.084
733.12	0.085
733.56	0.082
734.00	0.084
734.44	0.082
734.89	0.085
735.33	0.083
735.77	0.087
736.21	0.084
736.65	0.083
737.09	0.085
737.53	0.085
737.97	0.086
738.41	0.084
738.85	0.086
739.29	0.083
739.73	0.085
740.17	0.084
740.61	0.084
741.05	0.085
741.49	0.084
741.93	0.084
742.37	0.085
742.81	0.084
743.26	0.084
743.70	0.083
744.14	0.086
744.58	0.084
745.02	0.084
745.46	0.085
745.90	0.083
746.34	0.084
746.78	0.087
747.22	0.085
747.66	0.083
748.10	0.084
748.54	0.083
748.98	0.084
749.42	0.085
749.86	0.086
750.29	0.087
750.73	0.087
751.17	0.085
751.61	0.086
752.05	0.084
752.49	0.086
752.93	0.082
753.37	0.087
753.81	0.084
754.25	0.085
754.69	0.085
755.13	0.084
755.57	0.083
756.01	0.082
756.45	0.082
756.89	0.083
757.33	0.082
757.77	0.083
758.21	0.085
758.64	0.080
759.08	0.083
759.52	0.082
759.96	0.084
760.40	0.081
760.84	0.081
761.28	0.082
761.72	0.083
762.16	0.079
762.60	0.084
763.03	0.083
763.47	0.082
763.91	0.081
764.35	0.083
764.79	0.082
765.23	0.083
765.67	0.081
766.11	0.082
766.54	0.083
766.98	0.083
767.42	0.083
767.86	0.085
768.30	0.081
768.74	0.080
769.17	0.084
769.61	0.082
770.05	0.081
770.49	0.084
770.93	0.083
771.37	0.083
771.80	0.082
772.24	0.079
772.68	0.083
773.12	0.082
773.56	0.083
774.00	0.084
774.43	0.083
774.87	0.079
775.31	0.083
775.75	0.081
776.19	0.080
776.62	0.082
777.06	0.082
777.50	0.083
777.94	0.081
778.37	0.083
778.81	0.079
779.25	0.077
779.69	0.081
780.13	0.080
780.56	0.078
781.00	0.081
781.44	0.083
781.88	0.080
782.31	0.080
782.75	0.080
783.19	0.081
783.63	0.082
784.06	0.083
784.50	0.082
784.94	0.083
785.37	0.081
785.81	0.080
786.25	0.079
786.69	0.083
787.12	0.085
787.56	0.083
788.00	0.082
788.43	0.082
788.87	0.084
789.31	0.085
789.75	0.081
790.18	0.080
790.62	0.082
791.06	0.082
791.49	0.085
791.93	0.081
792.37	0.077
792.80	0.085
793.24	0.079
793.68	0.082
794.11	0.084
794.55	0.082
794.99	0.080
795.42	0.083
795.86	0.085
796.30	0.083
796.73	0.079
797.17	0.079
797.61	0.081
798.04	0.082
798.48	0.082
798.91	0.082
799.35	0.083
799.79	0.078
800.22	0.082
800.66	0.082
801.10	0.084
801.53	0.084
801.97	0.083
802.40	0.078
802.84	0.082
803.28	0.080
803.71	0.079
804.15	0.083
804.58	0.086
805.02	0.080
805.46	0.080
805.89	0.082
806.33	0.083
806.76	0.082
807.20	0.085
807.63	0.083
808.07	0.080
808.51	0.081
808.94	0.080
809.38	0.081
809.81	0.084
810.25	0.080
810.68	0.085
811.12	0.084
811.55	0.083
811.99	0.080
812.42	0.081
812.86	0.085
813.29	0.081
813.73	0.083
814.17	0.075
