SpectraSuite Data File
++++++++++++++++++++++++++++++++++++
Date: Wed May 04 16:02:00 CEST 2016
User: spectrasuite
Dark Spectrum Present: Yes
Reference Spectrum Present: Yes
Number of Sampled Component Spectra: 1
Spectrometers: HR+C0708
Integration Time (usec): 1000 (HR+C0708)
Spectra Averaged: 10 (HR+C0708)
Boxcar Smoothing: 0 (HR+C0708)
Correct for Electrical Dark: No (HR+C0708)
Strobe/Lamp Enabled: No (HR+C0708)
Correct for Detector Non-linearity: No (HR+C0708)
Correct for Stray Light: No (HR+C0708)
Number of Pixels in Processed Spectrum: 2048
>>>>>Begin Processed Spectral Data<<<<<
188.76	-0.000
189.23	-0.000
189.70	-0.000
190.17	-0.000
190.64	-0.000
191.12	-0.000
191.59	-0.000
192.06	-0.000
192.53	-0.000
193.01	-0.000
193.48	-0.000
193.95	-0.000
194.42	-0.000
194.90	-0.000
195.37	-0.000
195.84	-0.000
196.31	-0.000
196.78	-0.000
197.26	-0.000
197.73	-0.000
198.20	-0.000
198.67	-0.000
199.14	-0.000
199.62	-0.000
200.09	-0.000
200.56	-0.000
201.03	-0.000
201.50	-0.000
201.97	-0.000
202.45	-0.000
202.92	-0.000
203.39	-0.000
203.86	-0.000
204.33	-0.000
204.80	-0.000
205.28	-0.000
205.75	-0.000
206.22	-0.000
206.69	-0.000
207.16	-0.000
207.63	-0.000
208.11	-0.000
208.58	-0.000
209.05	-0.000
209.52	-0.000
209.99	-0.000
210.46	0.925
210.93	-0.000
211.41	-0.000
211.88	-0.000
212.35	-0.000
212.82	-0.000
213.29	-0.000
213.76	-0.000
214.23	-0.000
214.70	-0.000
215.18	-0.000
215.65	1.952
216.12	-0.000
216.59	-0.000
217.06	1.177
217.53	-0.000
218.00	-0.000
218.47	-0.000
218.94	-0.000
219.41	2.775
219.89	-0.000
220.36	1.379
220.83	1.326
221.30	-0.000
221.77	-0.000
222.24	1.025
222.71	-0.000
223.18	-0.000
223.65	0.958
224.12	0.990
224.59	-0.000
225.06	-0.000
225.54	1.823
226.01	-0.000
226.48	-0.000
226.95	-0.000
227.42	1.519
227.89	-0.000
228.36	-0.000
228.83	-0.000
229.30	1.950
229.77	-0.000
230.24	-0.000
230.71	1.984
231.18	2.795
231.65	-0.000
232.12	-0.000
232.59	2.479
233.06	-0.000
233.53	-0.000
234.00	2.307
234.47	-0.000
234.94	-0.000
235.41	2.757
235.88	2.674
236.35	-0.000
236.82	-0.000
237.29	2.537
237.76	3.010
238.23	-0.000
238.70	-0.000
239.17	2.585
239.64	-0.000
240.11	-0.000
240.58	2.614
241.05	-0.000
241.52	-0.000
241.99	2.773
242.46	2.658
242.93	3.049
243.40	-0.000
243.87	-0.000
244.34	2.472
244.81	3.353
245.28	4.152
245.75	3.036
246.22	-0.000
246.69	-0.000
247.16	3.059
247.63	2.659
248.10	-0.000
248.57	-0.000
249.04	3.617
249.51	2.713
249.98	-0.000
250.45	-0.000
250.92	2.834
251.39	2.774
251.85	2.594
252.32	2.337
252.79	2.096
253.26	2.002
253.73	1.875
254.20	1.718
254.67	1.613
255.14	1.560
255.61	1.456
256.08	1.374
256.55	1.324
257.02	1.273
257.49	1.226
257.95	1.180
258.42	1.145
258.89	1.101
259.36	1.074
259.83	1.044
260.30	1.016
260.77	0.994
261.24	0.967
261.71	0.942
262.17	0.931
262.64	0.908
263.11	0.890
263.58	0.869
264.05	0.859
264.52	0.842
264.99	0.829
265.46	0.815
265.92	0.802
266.39	0.790
266.86	0.778
267.33	0.770
267.80	0.753
268.27	0.749
268.74	0.743
269.20	0.730
269.67	0.722
270.14	0.710
270.61	0.703
271.08	0.692
271.55	0.688
272.01	0.684
272.48	0.671
272.95	0.666
273.42	0.660
273.89	0.654
274.36	0.647
274.82	0.644
275.29	0.637
275.76	0.633
276.23	0.628
276.70	0.622
277.16	0.619
277.63	0.617
278.10	0.610
278.57	0.607
279.04	0.607
279.50	0.601
279.97	0.597
280.44	0.596
280.91	0.593
281.38	0.588
281.84	0.586
282.31	0.586
282.78	0.586
283.25	0.588
283.72	0.585
284.18	0.581
284.65	0.580
285.12	0.580
285.59	0.578
286.05	0.578
286.52	0.579
286.99	0.580
287.46	0.579
287.92	0.575
288.39	0.578
288.86	0.578
289.33	0.579
289.79	0.576
290.26	0.575
290.73	0.567
291.20	0.566
291.66	0.565
292.13	0.564
292.60	0.558
293.07	0.554
293.53	0.549
294.00	0.546
294.47	0.540
294.93	0.538
295.40	0.530
295.87	0.524
296.34	0.517
296.80	0.509
297.27	0.500
297.74	0.494
298.20	0.489
298.67	0.479
299.14	0.475
299.60	0.466
300.07	0.457
300.54	0.450
301.01	0.444
301.47	0.435
301.94	0.429
302.41	0.422
302.87	0.415
303.34	0.407
303.81	0.403
304.27	0.395
304.74	0.389
305.21	0.382
305.67	0.377
306.14	0.369
306.61	0.365
307.07	0.359
307.54	0.355
308.01	0.346
308.47	0.343
308.94	0.336
309.40	0.335
309.87	0.331
310.34	0.328
310.80	0.325
311.27	0.318
311.74	0.318
312.20	0.317
312.67	0.312
313.13	0.308
313.60	0.302
314.07	0.303
314.53	0.300
315.00	0.294
315.47	0.297
315.93	0.296
316.40	0.291
316.86	0.290
317.33	0.286
317.80	0.287
318.26	0.284
318.73	0.283
319.19	0.285
319.66	0.279
320.13	0.278
320.59	0.279
321.06	0.279
321.52	0.277
321.99	0.276
322.45	0.273
322.92	0.272
323.39	0.272
323.85	0.269
324.32	0.270
324.78	0.263
325.25	0.261
325.71	0.265
326.18	0.261
326.64	0.261
327.11	0.258
327.58	0.257
328.04	0.258
328.51	0.254
328.97	0.255
329.44	0.254
329.90	0.248
330.37	0.247
330.83	0.250
331.30	0.248
331.76	0.242
332.23	0.245
332.69	0.240
333.16	0.239
333.62	0.236
334.09	0.235
334.56	0.232
335.02	0.231
335.49	0.229
335.95	0.225
336.42	0.222
336.88	0.220
337.35	0.220
337.81	0.217
338.28	0.219
338.74	0.218
339.20	0.219
339.67	0.218
340.13	0.221
340.60	0.215
341.06	0.212
341.53	0.209
341.99	0.209
342.46	0.206
342.92	0.205
343.39	0.203
343.85	0.200
344.32	0.202
344.78	0.201
345.25	0.205
345.71	0.202
346.17	0.203
346.64	0.204
347.10	0.201
347.57	0.198
348.03	0.194
348.50	0.195
348.96	0.196
349.43	0.196
349.89	0.197
350.35	0.196
350.82	0.196
351.28	0.196
351.75	0.194
352.21	0.196
352.67	0.191
353.14	0.191
353.60	0.188
354.07	0.187
354.53	0.189
355.00	0.185
355.46	0.184
355.92	0.180
356.39	0.183
356.85	0.178
357.31	0.177
357.78	0.177
358.24	0.177
358.71	0.178
359.17	0.177
359.63	0.173
360.10	0.174
360.56	0.174
361.03	0.173
361.49	0.172
361.95	0.171
362.42	0.171
362.88	0.173
363.34	0.175
363.81	0.173
364.27	0.171
364.73	0.173
365.20	0.171
365.66	0.169
366.12	0.170
366.59	0.171
367.05	0.168
367.51	0.171
367.98	0.168
368.44	0.168
368.90	0.168
369.37	0.169
369.83	0.169
370.29	0.164
370.76	0.165
371.22	0.161
371.68	0.165
372.15	0.165
372.61	0.164
373.07	0.164
373.54	0.163
374.00	0.161
374.46	0.163
374.92	0.162
375.39	0.165
375.85	0.164
376.31	0.164
376.78	0.162
377.24	0.162
377.70	0.160
378.16	0.162
378.63	0.162
379.09	0.162
379.55	0.162
380.01	0.163
380.48	0.162
380.94	0.160
381.40	0.158
381.87	0.161
382.33	0.159
382.79	0.156
383.25	0.158
383.72	0.160
384.18	0.160
384.64	0.159
385.10	0.157
385.56	0.157
386.03	0.159
386.49	0.157
386.95	0.157
387.41	0.158
387.88	0.155
388.34	0.153
388.80	0.158
389.26	0.157
389.72	0.158
390.19	0.152
390.65	0.153
391.11	0.152
391.57	0.155
392.04	0.155
392.50	0.152
392.96	0.153
393.42	0.153
393.88	0.156
394.34	0.153
394.81	0.154
395.27	0.153
395.73	0.149
396.19	0.152
396.65	0.154
397.12	0.149
397.58	0.149
398.04	0.148
398.50	0.152
398.96	0.153
399.42	0.151
399.89	0.152
400.35	0.154
400.81	0.148
401.27	0.153
401.73	0.148
402.19	0.149
402.65	0.146
403.12	0.148
403.58	0.150
404.04	0.146
404.50	0.143
404.96	0.143
405.42	0.147
405.88	0.143
406.34	0.147
406.81	0.146
407.27	0.144
407.73	0.140
408.19	0.141
408.65	0.140
409.11	0.141
409.57	0.140
410.03	0.145
410.49	0.144
410.96	0.141
411.42	0.145
411.88	0.139
412.34	0.136
412.80	0.140
413.26	0.142
413.72	0.139
414.18	0.140
414.64	0.141
415.10	0.140
415.56	0.141
416.02	0.137
416.48	0.137
416.95	0.140
417.41	0.137
417.87	0.140
418.33	0.137
418.79	0.136
419.25	0.139
419.71	0.136
420.17	0.135
420.63	0.134
421.09	0.132
421.55	0.135
422.01	0.135
422.47	0.138
422.93	0.140
423.39	0.135
423.85	0.134
424.31	0.135
424.77	0.136
425.23	0.135
425.69	0.138
426.15	0.138
426.61	0.136
427.07	0.132
427.53	0.134
427.99	0.133
428.45	0.135
428.91	0.133
429.37	0.132
429.83	0.133
430.29	0.134
430.75	0.136
431.21	0.139
431.67	0.139
432.13	0.137
432.59	0.132
433.05	0.134
433.51	0.130
433.97	0.129
434.43	0.139
434.89	0.137
435.35	0.133
435.81	0.137
436.27	0.137
436.73	0.132
437.19	0.137
437.65	0.134
438.11	0.133
438.57	0.133
439.03	0.134
439.48	0.136
439.94	0.132
440.40	0.131
440.86	0.130
441.32	0.131
441.78	0.131
442.24	0.131
442.70	0.134
443.16	0.131
443.62	0.131
444.08	0.131
444.54	0.131
444.99	0.132
445.45	0.129
445.91	0.126
446.37	0.128
446.83	0.129
447.29	0.128
447.75	0.129
448.21	0.132
448.67	0.130
449.12	0.128
449.58	0.128
450.04	0.130
450.50	0.129
450.96	0.128
451.42	0.129
451.88	0.131
452.34	0.127
452.79	0.130
453.25	0.134
453.71	0.130
454.17	0.127
454.63	0.130
455.09	0.126
455.55	0.129
456.00	0.127
456.46	0.127
456.92	0.127
457.38	0.128
457.84	0.128
458.30	0.128
458.75	0.126
459.21	0.127
459.67	0.125
460.13	0.128
460.59	0.126
461.04	0.127
461.50	0.127
461.96	0.128
462.42	0.126
462.88	0.125
463.33	0.127
463.79	0.127
464.25	0.125
464.71	0.128
465.17	0.126
465.62	0.126
466.08	0.128
466.54	0.128
467.00	0.127
467.46	0.131
467.91	0.129
468.37	0.127
468.83	0.130
469.29	0.127
469.74	0.125
470.20	0.127
470.66	0.128
471.12	0.127
471.57	0.126
472.03	0.127
472.49	0.127
472.95	0.128
473.40	0.128
473.86	0.129
474.32	0.126
474.78	0.127
475.23	0.130
475.69	0.128
476.15	0.131
476.60	0.127
477.06	0.129
477.52	0.128
477.98	0.126
478.43	0.129
478.89	0.125
479.35	0.131
479.80	0.128
480.26	0.125
480.72	0.126
481.18	0.127
481.63	0.127
482.09	0.127
482.55	0.123
483.00	0.124
483.46	0.127
483.92	0.127
484.37	0.124
484.83	0.126
485.29	0.127
485.74	0.124
486.20	0.126
486.66	0.128
487.11	0.126
487.57	0.125
488.03	0.125
488.48	0.127
488.94	0.126
489.40	0.125
489.85	0.125
490.31	0.127
490.77	0.124
491.22	0.126
491.68	0.126
492.13	0.126
492.59	0.127
493.05	0.125
493.50	0.124
493.96	0.125
494.42	0.126
494.87	0.125
495.33	0.123
495.78	0.124
496.24	0.126
496.70	0.126
497.15	0.126
497.61	0.127
498.06	0.124
498.52	0.124
498.98	0.123
499.43	0.124
499.89	0.126
500.34	0.122
500.80	0.125
501.25	0.122
501.71	0.124
502.17	0.122
502.62	0.122
503.08	0.120
503.53	0.122
503.99	0.125
504.44	0.123
504.90	0.121
505.36	0.121
505.81	0.124
506.27	0.121
506.72	0.122
507.18	0.124
507.63	0.122
508.09	0.124
508.54	0.121
509.00	0.123
509.45	0.123
509.91	0.121
510.36	0.122
510.82	0.125
511.27	0.122
511.73	0.124
512.19	0.125
512.64	0.120
513.10	0.125
513.55	0.122
514.01	0.122
514.46	0.123
514.92	0.123
515.37	0.124
515.83	0.123
516.28	0.121
516.73	0.122
517.19	0.122
517.64	0.123
518.10	0.123
518.55	0.122
519.01	0.123
519.46	0.121
519.92	0.120
520.37	0.120
520.83	0.123
521.28	0.118
521.74	0.119
522.19	0.121
522.65	0.120
523.10	0.120
523.55	0.122
524.01	0.121
524.46	0.122
524.92	0.119
525.37	0.122
525.83	0.121
526.28	0.120
526.73	0.122
527.19	0.121
527.64	0.121
528.10	0.121
528.55	0.121
529.01	0.123
529.46	0.121
529.91	0.121
530.37	0.121
530.82	0.122
531.28	0.120
531.73	0.121
532.18	0.121
532.64	0.121
533.09	0.123
533.54	0.122
534.00	0.124
534.45	0.123
534.91	0.120
535.36	0.121
535.81	0.120
536.27	0.120
536.72	0.122
537.17	0.123
537.63	0.122
538.08	0.121
538.54	0.124
538.99	0.125
539.44	0.121
539.90	0.123
540.35	0.122
540.80	0.121
541.26	0.125
541.71	0.126
542.16	0.126
542.62	0.127
543.07	0.127
543.52	0.125
543.98	0.124
544.43	0.125
544.88	0.125
545.34	0.126
545.79	0.125
546.24	0.126
546.69	0.124
547.15	0.127
547.60	0.128
548.05	0.129
548.51	0.129
548.96	0.128
549.41	0.127
549.86	0.127
550.32	0.128
550.77	0.129
551.22	0.130
551.68	0.129
552.13	0.129
552.58	0.129
553.03	0.132
553.49	0.130
553.94	0.131
554.39	0.132
554.84	0.134
555.30	0.132
555.75	0.134
556.20	0.133
556.65	0.134
557.11	0.135
557.56	0.135
558.01	0.138
558.46	0.134
558.92	0.136
559.37	0.139
559.82	0.138
560.27	0.136
560.72	0.138
561.18	0.139
561.63	0.139
562.08	0.140
562.53	0.139
562.99	0.140
563.44	0.143
563.89	0.141
564.34	0.143
564.79	0.143
565.25	0.144
565.70	0.144
566.15	0.143
566.60	0.146
567.05	0.146
567.50	0.146
567.96	0.147
568.41	0.148
568.86	0.148
569.31	0.149
569.76	0.150
570.21	0.151
570.67	0.148
571.12	0.150
571.57	0.151
572.02	0.152
572.47	0.153
572.92	0.153
573.37	0.158
573.83	0.155
574.28	0.158
574.73	0.156
575.18	0.157
575.63	0.157
576.08	0.158
576.53	0.158
576.98	0.160
577.44	0.162
577.89	0.162
578.34	0.164
578.79	0.162
579.24	0.163
579.69	0.164
580.14	0.167
580.59	0.167
581.04	0.168
581.49	0.169
581.95	0.171
582.40	0.172
582.85	0.174
583.30	0.175
583.75	0.178
584.20	0.177
584.65	0.179
585.10	0.182
585.55	0.182
586.00	0.182
586.45	0.184
586.90	0.185
587.35	0.186
587.80	0.189
588.25	0.189
588.71	0.190
589.16	0.195
589.61	0.194
590.06	0.196
590.51	0.198
590.96	0.198
591.41	0.200
591.86	0.202
592.31	0.206
592.76	0.205
593.21	0.206
593.66	0.208
594.11	0.210
594.56	0.211
595.01	0.214
595.46	0.214
595.91	0.218
596.36	0.218
596.81	0.223
597.26	0.222
597.71	0.226
598.16	0.226
598.61	0.229
599.06	0.228
599.51	0.229
599.96	0.233
600.41	0.235
600.86	0.237
601.31	0.238
601.76	0.240
602.21	0.242
602.65	0.246
603.10	0.246
603.55	0.247
604.00	0.251
604.45	0.250
604.90	0.249
605.35	0.253
605.80	0.252
606.25	0.255
606.70	0.259
607.15	0.260
607.60	0.262
608.05	0.263
608.50	0.263
608.95	0.264
609.39	0.267
609.84	0.266
610.29	0.270
610.74	0.269
611.19	0.271
611.64	0.271
612.09	0.272
612.54	0.273
612.99	0.275
613.44	0.273
613.88	0.277
614.33	0.275
614.78	0.279
615.23	0.280
615.68	0.280
616.13	0.278
616.58	0.277
617.03	0.281
617.47	0.282
617.92	0.283
618.37	0.284
618.82	0.282
619.27	0.283
619.72	0.286
620.17	0.286
620.61	0.285
621.06	0.287
621.51	0.283
621.96	0.285
622.41	0.289
622.86	0.286
623.30	0.290
623.75	0.290
624.20	0.292
624.65	0.290
625.10	0.291
625.54	0.290
625.99	0.291
626.44	0.295
626.89	0.295
627.34	0.296
627.78	0.297
628.23	0.299
628.68	0.300
629.13	0.301
629.58	0.301
630.02	0.303
630.47	0.303
630.92	0.305
631.37	0.308
631.81	0.309
632.26	0.311
632.71	0.311
633.16	0.314
633.61	0.313
634.05	0.317
634.50	0.317
634.95	0.322
635.40	0.324
635.84	0.326
636.29	0.325
636.74	0.328
637.18	0.330
637.63	0.331
638.08	0.334
638.53	0.338
638.97	0.339
639.42	0.342
639.87	0.345
640.32	0.347
640.76	0.349
641.21	0.354
641.66	0.355
642.10	0.358
642.55	0.359
643.00	0.364
643.44	0.366
643.89	0.368
644.34	0.373
644.79	0.376
645.23	0.378
645.68	0.379
646.13	0.383
646.57	0.389
647.02	0.389
647.47	0.391
647.91	0.392
648.36	0.399
648.81	0.399
649.25	0.403
649.70	0.406
650.15	0.408
650.59	0.412
651.04	0.415
651.48	0.416
651.93	0.420
652.38	0.423
652.82	0.425
653.27	0.424
653.72	0.427
654.16	0.429
654.61	0.432
655.06	0.432
655.50	0.435
655.95	0.433
656.39	0.436
656.84	0.445
657.29	0.452
657.73	0.448
658.18	0.445
658.62	0.450
659.07	0.451
659.52	0.452
659.96	0.455
660.41	0.456
660.85	0.456
661.30	0.460
661.74	0.458
662.19	0.458
662.64	0.461
663.08	0.459
663.53	0.462
663.97	0.461
664.42	0.458
664.86	0.459
665.31	0.462
665.75	0.460
666.20	0.459
666.65	0.459
667.09	0.458
667.54	0.458
667.98	0.454
668.43	0.453
668.87	0.452
669.32	0.450
669.76	0.445
670.21	0.444
670.65	0.439
671.10	0.433
671.54	0.433
671.99	0.430
672.43	0.423
672.88	0.417
673.32	0.413
673.77	0.410
674.21	0.405
674.66	0.396
675.10	0.390
675.55	0.384
675.99	0.381
676.44	0.372
676.88	0.368
677.33	0.360
677.77	0.353
678.22	0.345
678.66	0.339
679.11	0.331
679.55	0.326
679.99	0.316
680.44	0.310
680.88	0.304
681.33	0.297
681.77	0.289
682.22	0.281
682.66	0.276
683.11	0.265
683.55	0.262
683.99	0.255
684.44	0.249
684.88	0.243
685.33	0.236
685.77	0.227
686.21	0.223
686.66	0.215
687.10	0.209
687.55	0.205
687.99	0.202
688.44	0.196
688.88	0.186
689.32	0.185
689.77	0.180
690.21	0.176
690.65	0.171
691.10	0.167
691.54	0.165
691.99	0.159
692.43	0.156
692.87	0.154
693.32	0.149
693.76	0.144
694.20	0.143
694.65	0.141
695.09	0.134
695.53	0.133
695.98	0.131
696.42	0.130
696.86	0.129
697.31	0.125
697.75	0.121
698.19	0.123
698.64	0.119
699.08	0.118
699.52	0.115
699.97	0.112
700.41	0.113
700.85	0.112
701.30	0.109
701.74	0.108
702.18	0.105
702.63	0.103
703.07	0.103
703.51	0.102
703.96	0.101
704.40	0.102
704.84	0.099
705.28	0.099
705.73	0.097
706.17	0.097
706.61	0.097
707.06	0.095
707.50	0.096
707.94	0.097
708.38	0.093
708.83	0.095
709.27	0.093
709.71	0.094
710.15	0.092
710.60	0.092
711.04	0.089
711.48	0.092
711.92	0.091
712.37	0.089
712.81	0.089
713.25	0.090
713.69	0.090
714.13	0.086
714.58	0.087
715.02	0.088
715.46	0.087
715.90	0.087
716.35	0.087
716.79	0.089
717.23	0.087
717.67	0.087
718.11	0.085
718.56	0.086
719.00	0.086
719.44	0.087
719.88	0.086
720.32	0.087
720.76	0.084
721.21	0.087
721.65	0.086
722.09	0.086
722.53	0.088
722.97	0.086
723.41	0.085
723.86	0.084
724.30	0.087
724.74	0.088
725.18	0.085
725.62	0.085
726.06	0.086
726.50	0.088
726.95	0.088
727.39	0.087
727.83	0.090
728.27	0.088
728.71	0.088
729.15	0.086
729.59	0.087
730.03	0.088
730.48	0.087
730.92	0.088
731.36	0.086
731.80	0.085
732.24	0.090
732.68	0.088
733.12	0.088
733.56	0.089
734.00	0.090
734.44	0.088
734.89	0.088
735.33	0.085
735.77	0.088
736.21	0.090
736.65	0.089
737.09	0.092
737.53	0.089
737.97	0.090
738.41	0.088
738.85	0.091
739.29	0.089
739.73	0.091
740.17	0.088
740.61	0.087
741.05	0.090
741.49	0.092
741.93	0.088
742.37	0.090
742.81	0.091
743.26	0.089
743.70	0.090
744.14	0.089
744.58	0.088
745.02	0.086
745.46	0.090
745.90	0.088
746.34	0.089
746.78	0.090
747.22	0.089
747.66	0.089
748.10	0.089
748.54	0.089
748.98	0.088
749.42	0.090
749.86	0.090
750.29	0.089
750.73	0.090
751.17	0.088
751.61	0.091
752.05	0.085
752.49	0.088
752.93	0.087
753.37	0.088
753.81	0.089
754.25	0.088
754.69	0.091
755.13	0.089
755.57	0.088
756.01	0.087
756.45	0.086
756.89	0.088
757.33	0.088
757.77	0.088
758.21	0.089
758.64	0.086
759.08	0.088
759.52	0.089
759.96	0.088
760.40	0.088
760.84	0.086
761.28	0.086
761.72	0.086
762.16	0.085
762.60	0.088
763.03	0.086
763.47	0.085
763.91	0.085
764.35	0.086
764.79	0.087
765.23	0.087
765.67	0.088
766.11	0.088
766.54	0.086
766.98	0.085
767.42	0.086
767.86	0.090
768.30	0.085
768.74	0.086
769.17	0.087
769.61	0.086
770.05	0.088
770.49	0.090
770.93	0.085
771.37	0.087
771.80	0.086
772.24	0.083
772.68	0.086
773.12	0.086
773.56	0.086
774.00	0.086
774.43	0.086
774.87	0.085
775.31	0.087
775.75	0.084
776.19	0.086
776.62	0.087
777.06	0.088
777.50	0.088
777.94	0.084
778.37	0.088
778.81	0.087
779.25	0.082
779.69	0.086
780.13	0.084
780.56	0.083
781.00	0.087
781.44	0.086
781.88	0.085
782.31	0.084
782.75	0.084
783.19	0.085
783.63	0.086
784.06	0.085
784.50	0.085
784.94	0.088
785.37	0.084
785.81	0.084
786.25	0.086
786.69	0.086
787.12	0.088
787.56	0.088
788.00	0.085
788.43	0.087
788.87	0.085
789.31	0.088
789.75	0.086
790.18	0.085
790.62	0.083
791.06	0.086
791.49	0.087
791.93	0.084
792.37	0.086
792.80	0.089
793.24	0.083
793.68	0.086
794.11	0.086
794.55	0.087
794.99	0.083
795.42	0.087
795.86	0.088
796.30	0.087
796.73	0.083
797.17	0.084
797.61	0.088
798.04	0.086
798.48	0.089
798.91	0.085
799.35	0.085
799.79	0.085
800.22	0.084
800.66	0.082
801.10	0.090
801.53	0.087
801.97	0.085
802.40	0.083
802.84	0.084
803.28	0.083
803.71	0.083
804.15	0.086
804.58	0.087
805.02	0.088
805.46	0.083
805.89	0.085
806.33	0.087
806.76	0.086
807.20	0.086
807.63	0.085
808.07	0.086
808.51	0.087
808.94	0.086
809.38	0.087
809.81	0.083
810.25	0.087
810.68	0.087
811.12	0.085
811.55	0.088
811.99	0.085
812.42	0.090
812.86	0.087
813.29	0.089
813.73	0.087
814.17	0.082
814.60	0.086
