SpectraSuite Data File
++++++++++++++++++++++++++++++++++++
Date: Wed May 04 16:33:14 CEST 2016
User: spectrasuite
Dark Spectrum Present: Yes
Reference Spectrum Present: Yes
Number of Sampled Component Spectra: 1
Spectrometers: HR+C0708
Integration Time (usec): 1000 (HR+C0708)
Spectra Averaged: 10 (HR+C0708)
Boxcar Smoothing: 0 (HR+C0708)
Correct for Electrical Dark: No (HR+C0708)
Strobe/Lamp Enabled: No (HR+C0708)
Correct for Detector Non-linearity: No (HR+C0708)
Correct for Stray Light: No (HR+C0708)
Number of Pixels in Processed Spectrum: 2048
>>>>>Begin Processed Spectral Data<<<<<
188.76	-0.000
189.23	-0.000
189.70	-0.000
190.17	-0.000
190.64	-0.000
191.12	-0.000
191.59	-0.000
192.06	-0.000
192.53	-0.000
193.01	-0.000
193.48	-0.000
193.95	-0.000
194.42	-0.000
194.90	-0.000
195.37	-0.000
195.84	-0.000
196.31	-0.000
196.78	-0.000
197.26	-0.000
197.73	-0.000
198.20	-0.000
198.67	-0.000
199.14	-0.000
199.62	-0.000
200.09	-0.000
200.56	-0.000
201.03	-0.000
201.50	-0.000
201.97	-0.000
202.45	-0.000
202.92	-0.000
203.39	-0.000
203.86	-0.000
204.33	-0.000
204.80	-0.000
205.28	-0.000
205.75	-0.000
206.22	-0.000
206.69	-0.000
207.16	-0.000
207.63	-0.000
208.11	-0.000
208.58	-0.000
209.05	-0.000
209.52	-0.000
209.99	-0.000
210.46	-0.000
210.93	-0.000
211.41	-0.000
211.88	-0.000
212.35	-0.000
212.82	-0.000
213.29	-0.000
213.76	-0.000
214.23	-0.000
214.70	-0.000
215.18	-0.000
215.65	1.689
216.12	-0.000
216.59	-0.000
217.06	1.312
217.53	-0.000
218.00	-0.000
218.47	-0.000
218.94	-0.000
219.41	-0.000
219.89	-0.000
220.36	-0.000
220.83	-0.000
221.30	-0.000
221.77	-0.000
222.24	-0.000
222.71	-0.000
223.18	-0.000
223.65	1.259
224.12	2.569
224.59	-0.000
225.06	-0.000
225.54	2.000
226.01	-0.000
226.48	-0.000
226.95	-0.000
227.42	1.539
227.89	-0.000
228.36	-0.000
228.83	-0.000
229.30	-0.000
229.77	-0.000
230.24	2.467
230.71	-0.000
231.18	-0.000
231.65	-0.000
232.12	-0.000
232.59	-0.000
233.06	-0.000
233.53	-0.000
234.00	-0.000
234.47	-0.000
234.94	-0.000
235.41	2.400
235.88	-0.000
236.35	-0.000
236.82	-0.000
237.29	2.801
237.76	-0.000
238.23	-0.000
238.70	-0.000
239.17	3.363
239.64	-0.000
240.11	-0.000
240.58	2.936
241.05	-0.000
241.52	-0.000
241.99	3.012
242.46	3.058
242.93	3.586
243.40	-0.000
243.87	-0.000
244.34	3.209
244.81	4.132
245.28	-0.000
245.75	4.036
246.22	3.806
246.69	-0.000
247.16	2.932
247.63	3.977
248.10	-0.000
248.57	-0.000
249.04	-0.000
249.51	-0.000
249.98	-0.000
250.45	4.707
250.92	3.031
251.39	3.118
251.85	2.667
252.32	2.305
252.79	2.141
253.26	1.952
253.73	1.850
254.20	1.699
254.67	1.602
255.14	1.564
255.61	1.470
256.08	1.386
256.55	1.345
257.02	1.284
257.49	1.225
257.95	1.184
258.42	1.153
258.89	1.117
259.36	1.079
259.83	1.052
260.30	1.030
260.77	0.995
261.24	0.967
261.71	0.949
262.17	0.930
262.64	0.912
263.11	0.894
263.58	0.877
264.05	0.859
264.52	0.845
264.99	0.829
265.46	0.825
265.92	0.803
266.39	0.796
266.86	0.781
267.33	0.772
267.80	0.760
268.27	0.753
268.74	0.738
269.20	0.727
269.67	0.721
270.14	0.712
270.61	0.706
271.08	0.693
271.55	0.683
272.01	0.685
272.48	0.670
272.95	0.668
273.42	0.659
273.89	0.655
274.36	0.643
274.82	0.641
275.29	0.635
275.76	0.626
276.23	0.623
276.70	0.616
277.16	0.615
277.63	0.610
278.10	0.609
278.57	0.605
279.04	0.601
279.50	0.598
279.97	0.594
280.44	0.592
280.91	0.590
281.38	0.584
281.84	0.583
282.31	0.582
282.78	0.580
283.25	0.578
283.72	0.576
284.18	0.576
284.65	0.577
285.12	0.573
285.59	0.573
286.05	0.573
286.52	0.573
286.99	0.572
287.46	0.573
287.92	0.567
288.39	0.568
288.86	0.566
289.33	0.562
289.79	0.566
290.26	0.564
290.73	0.563
291.20	0.561
291.66	0.555
292.13	0.556
292.60	0.553
293.07	0.543
293.53	0.542
294.00	0.538
294.47	0.528
294.93	0.527
295.40	0.523
295.87	0.519
296.34	0.505
296.80	0.502
297.27	0.494
297.74	0.488
298.20	0.478
298.67	0.474
299.14	0.465
299.60	0.456
300.07	0.452
300.54	0.444
301.01	0.438
301.47	0.430
301.94	0.420
302.41	0.412
302.87	0.405
303.34	0.401
303.81	0.393
304.27	0.388
304.74	0.382
305.21	0.375
305.67	0.372
306.14	0.364
306.61	0.360
307.07	0.349
307.54	0.349
308.01	0.341
308.47	0.337
308.94	0.331
309.40	0.331
309.87	0.327
310.34	0.325
310.80	0.319
311.27	0.314
311.74	0.314
312.20	0.308
312.67	0.306
313.13	0.302
313.60	0.302
314.07	0.300
314.53	0.296
315.00	0.291
315.47	0.292
315.93	0.292
316.40	0.288
316.86	0.284
317.33	0.282
317.80	0.285
318.26	0.282
318.73	0.281
319.19	0.279
319.66	0.277
320.13	0.274
320.59	0.275
321.06	0.276
321.52	0.272
321.99	0.272
322.45	0.267
322.92	0.266
323.39	0.267
323.85	0.265
324.32	0.264
324.78	0.263
325.25	0.258
325.71	0.260
326.18	0.256
326.64	0.254
327.11	0.251
327.58	0.254
328.04	0.253
328.51	0.250
328.97	0.250
329.44	0.248
329.90	0.245
330.37	0.242
330.83	0.242
331.30	0.238
331.76	0.239
332.23	0.238
332.69	0.234
333.16	0.236
333.62	0.232
334.09	0.228
334.56	0.227
335.02	0.224
335.49	0.223
335.95	0.218
336.42	0.221
336.88	0.216
337.35	0.214
337.81	0.215
338.28	0.215
338.74	0.212
339.20	0.214
339.67	0.216
340.13	0.213
340.60	0.211
341.06	0.208
341.53	0.206
341.99	0.204
342.46	0.201
342.92	0.199
343.39	0.198
343.85	0.197
344.32	0.194
344.78	0.196
345.25	0.196
345.71	0.199
346.17	0.202
346.64	0.199
347.10	0.195
347.57	0.194
348.03	0.190
348.50	0.191
348.96	0.192
349.43	0.189
349.89	0.189
350.35	0.192
350.82	0.190
351.28	0.191
351.75	0.191
352.21	0.192
352.67	0.187
353.14	0.187
353.60	0.184
354.07	0.184
354.53	0.182
355.00	0.180
355.46	0.179
355.92	0.179
356.39	0.180
356.85	0.175
357.31	0.172
357.78	0.171
358.24	0.172
358.71	0.176
359.17	0.172
359.63	0.170
360.10	0.169
360.56	0.171
361.03	0.168
361.49	0.168
361.95	0.168
362.42	0.167
362.88	0.167
363.34	0.170
363.81	0.167
364.27	0.166
364.73	0.166
365.20	0.167
365.66	0.165
366.12	0.166
366.59	0.167
367.05	0.165
367.51	0.165
367.98	0.164
368.44	0.163
368.90	0.163
369.37	0.163
369.83	0.164
370.29	0.161
370.76	0.161
371.22	0.162
371.68	0.163
372.15	0.160
372.61	0.157
373.07	0.157
373.54	0.156
374.00	0.156
374.46	0.157
374.92	0.158
375.39	0.157
375.85	0.157
376.31	0.159
376.78	0.156
377.24	0.154
377.70	0.156
378.16	0.156
378.63	0.157
379.09	0.155
379.55	0.157
380.01	0.157
380.48	0.157
380.94	0.158
381.40	0.155
381.87	0.157
382.33	0.155
382.79	0.152
383.25	0.157
383.72	0.155
384.18	0.152
384.64	0.155
385.10	0.153
385.56	0.153
386.03	0.152
386.49	0.151
386.95	0.152
387.41	0.151
387.88	0.150
388.34	0.151
388.80	0.152
389.26	0.151
389.72	0.153
390.19	0.147
390.65	0.145
391.11	0.148
391.57	0.149
392.04	0.148
392.50	0.149
392.96	0.148
393.42	0.148
393.88	0.152
394.34	0.148
394.81	0.147
395.27	0.147
395.73	0.145
396.19	0.145
396.65	0.146
397.12	0.144
397.58	0.144
398.04	0.144
398.50	0.145
398.96	0.146
399.42	0.146
399.89	0.149
400.35	0.149
400.81	0.144
401.27	0.148
401.73	0.142
402.19	0.143
402.65	0.139
403.12	0.142
403.58	0.141
404.04	0.140
404.50	0.142
404.96	0.137
405.42	0.141
405.88	0.141
406.34	0.144
406.81	0.139
407.27	0.139
407.73	0.137
408.19	0.140
408.65	0.137
409.11	0.137
409.57	0.136
410.03	0.140
410.49	0.138
410.96	0.135
411.42	0.139
411.88	0.135
412.34	0.130
412.80	0.134
413.26	0.135
413.72	0.134
414.18	0.133
414.64	0.136
415.10	0.134
415.56	0.134
416.02	0.134
416.48	0.134
416.95	0.135
417.41	0.133
417.87	0.133
418.33	0.133
418.79	0.131
419.25	0.133
419.71	0.133
420.17	0.131
420.63	0.129
421.09	0.127
421.55	0.129
422.01	0.130
422.47	0.135
422.93	0.135
423.39	0.131
423.85	0.130
424.31	0.132
424.77	0.133
425.23	0.129
425.69	0.135
426.15	0.133
426.61	0.132
427.07	0.126
427.53	0.128
427.99	0.129
428.45	0.131
428.91	0.128
429.37	0.128
429.83	0.128
430.29	0.131
430.75	0.130
431.21	0.136
431.67	0.135
432.13	0.133
432.59	0.130
433.05	0.128
433.51	0.125
433.97	0.123
434.43	0.132
434.89	0.133
435.35	0.130
435.81	0.131
436.27	0.130
436.73	0.128
437.19	0.132
437.65	0.127
438.11	0.130
438.57	0.132
439.03	0.129
439.48	0.129
439.94	0.131
440.40	0.127
440.86	0.126
441.32	0.124
441.78	0.124
442.24	0.130
442.70	0.129
443.16	0.128
443.62	0.126
444.08	0.125
444.54	0.128
444.99	0.127
445.45	0.124
445.91	0.127
446.37	0.127
446.83	0.124
447.29	0.126
447.75	0.125
448.21	0.130
448.67	0.127
449.12	0.125
449.58	0.126
450.04	0.127
450.50	0.126
450.96	0.123
451.42	0.127
451.88	0.127
452.34	0.122
452.79	0.126
453.25	0.128
453.71	0.125
454.17	0.125
454.63	0.126
455.09	0.123
455.55	0.125
456.00	0.121
456.46	0.127
456.92	0.124
457.38	0.122
457.84	0.122
458.30	0.126
458.75	0.123
459.21	0.122
459.67	0.123
460.13	0.122
460.59	0.121
461.04	0.121
461.50	0.121
461.96	0.123
462.42	0.122
462.88	0.121
463.33	0.122
463.79	0.120
464.25	0.122
464.71	0.123
465.17	0.123
465.62	0.120
466.08	0.123
466.54	0.125
467.00	0.122
467.46	0.125
467.91	0.125
468.37	0.123
468.83	0.123
469.29	0.123
469.74	0.124
470.20	0.122
470.66	0.124
471.12	0.125
471.57	0.122
472.03	0.123
472.49	0.125
472.95	0.126
473.40	0.123
473.86	0.123
474.32	0.121
474.78	0.124
475.23	0.123
475.69	0.124
476.15	0.125
476.60	0.124
477.06	0.125
477.52	0.125
477.98	0.123
478.43	0.126
478.89	0.124
479.35	0.127
479.80	0.124
480.26	0.119
480.72	0.122
481.18	0.122
481.63	0.123
482.09	0.122
482.55	0.121
483.00	0.121
483.46	0.122
483.92	0.118
484.37	0.119
484.83	0.122
485.29	0.123
485.74	0.121
486.20	0.122
486.66	0.123
487.11	0.122
487.57	0.121
488.03	0.120
488.48	0.123
488.94	0.120
489.40	0.122
489.85	0.120
490.31	0.122
490.77	0.120
491.22	0.123
491.68	0.121
492.13	0.121
492.59	0.122
493.05	0.121
493.50	0.119
493.96	0.121
494.42	0.123
494.87	0.124
495.33	0.119
495.78	0.120
496.24	0.122
496.70	0.123
497.15	0.120
497.61	0.121
498.06	0.121
498.52	0.122
498.98	0.121
499.43	0.119
499.89	0.120
500.34	0.118
500.80	0.120
501.25	0.117
501.71	0.117
502.17	0.119
502.62	0.119
503.08	0.118
503.53	0.118
503.99	0.118
504.44	0.120
504.90	0.116
505.36	0.117
505.81	0.120
506.27	0.117
506.72	0.119
507.18	0.118
507.63	0.117
508.09	0.119
508.54	0.117
509.00	0.119
509.45	0.119
509.91	0.116
510.36	0.119
510.82	0.121
511.27	0.119
511.73	0.118
512.19	0.118
512.64	0.115
513.10	0.120
513.55	0.119
514.01	0.118
514.46	0.118
514.92	0.119
515.37	0.119
515.83	0.117
516.28	0.118
516.73	0.117
517.19	0.118
517.64	0.117
518.10	0.119
518.55	0.116
519.01	0.116
519.46	0.117
519.92	0.117
520.37	0.116
520.83	0.117
521.28	0.116
521.74	0.115
522.19	0.117
522.65	0.115
523.10	0.116
523.55	0.117
524.01	0.117
524.46	0.115
524.92	0.116
525.37	0.118
525.83	0.117
526.28	0.118
526.73	0.115
527.19	0.115
527.64	0.117
528.10	0.117
528.55	0.116
529.01	0.117
529.46	0.117
529.91	0.117
530.37	0.118
530.82	0.117
531.28	0.117
531.73	0.117
532.18	0.118
532.64	0.117
533.09	0.118
533.54	0.116
534.00	0.120
534.45	0.118
534.91	0.117
535.36	0.118
535.81	0.117
536.27	0.116
536.72	0.118
537.17	0.118
537.63	0.117
538.08	0.118
538.54	0.117
538.99	0.117
539.44	0.117
539.90	0.120
540.35	0.120
540.80	0.118
541.26	0.120
541.71	0.121
542.16	0.120
542.62	0.121
543.07	0.121
543.52	0.121
543.98	0.120
544.43	0.120
544.88	0.121
545.34	0.121
545.79	0.122
546.24	0.121
546.69	0.122
547.15	0.123
547.60	0.121
548.05	0.122
548.51	0.122
548.96	0.124
549.41	0.122
549.86	0.123
550.32	0.126
550.77	0.124
551.22	0.124
551.68	0.124
552.13	0.125
552.58	0.124
553.03	0.127
553.49	0.128
553.94	0.126
554.39	0.126
554.84	0.128
555.30	0.127
555.75	0.128
556.20	0.128
556.65	0.129
557.11	0.130
557.56	0.129
558.01	0.132
558.46	0.130
558.92	0.132
559.37	0.133
559.82	0.133
560.27	0.132
560.72	0.133
561.18	0.133
561.63	0.136
562.08	0.134
562.53	0.134
562.99	0.136
563.44	0.137
563.89	0.136
564.34	0.137
564.79	0.137
565.25	0.138
565.70	0.139
566.15	0.138
566.60	0.139
567.05	0.142
567.50	0.140
567.96	0.143
568.41	0.142
568.86	0.142
569.31	0.143
569.76	0.142
570.21	0.145
570.67	0.144
571.12	0.144
571.57	0.145
572.02	0.147
572.47	0.146
572.92	0.146
573.37	0.152
573.83	0.150
574.28	0.150
574.73	0.150
575.18	0.151
575.63	0.151
576.08	0.152
576.53	0.153
576.98	0.155
577.44	0.156
577.89	0.156
578.34	0.157
578.79	0.158
579.24	0.158
579.69	0.158
580.14	0.160
580.59	0.160
581.04	0.163
581.49	0.162
581.95	0.163
582.40	0.164
582.85	0.168
583.30	0.168
583.75	0.169
584.20	0.169
584.65	0.170
585.10	0.173
585.55	0.173
586.00	0.174
586.45	0.176
586.90	0.178
587.35	0.178
587.80	0.181
588.25	0.182
588.71	0.184
589.16	0.186
589.61	0.184
590.06	0.190
590.51	0.190
590.96	0.191
591.41	0.193
591.86	0.193
592.31	0.197
592.76	0.199
593.21	0.196
593.66	0.202
594.11	0.202
594.56	0.202
595.01	0.204
595.46	0.205
595.91	0.208
596.36	0.210
596.81	0.212
597.26	0.212
597.71	0.216
598.16	0.217
598.61	0.219
599.06	0.220
599.51	0.222
599.96	0.222
600.41	0.223
600.86	0.228
601.31	0.229
601.76	0.231
602.21	0.235
602.65	0.233
603.10	0.234
603.55	0.237
604.00	0.240
604.45	0.238
604.90	0.239
605.35	0.243
605.80	0.243
606.25	0.245
606.70	0.248
607.15	0.247
607.60	0.248
608.05	0.250
608.50	0.252
608.95	0.253
609.39	0.253
609.84	0.255
610.29	0.258
610.74	0.258
611.19	0.257
611.64	0.261
612.09	0.258
612.54	0.263
612.99	0.263
613.44	0.261
613.88	0.264
614.33	0.263
614.78	0.266
615.23	0.268
615.68	0.266
616.13	0.264
616.58	0.268
617.03	0.269
617.47	0.268
617.92	0.269
618.37	0.271
618.82	0.270
619.27	0.272
619.72	0.273
620.17	0.275
620.61	0.272
621.06	0.273
621.51	0.271
621.96	0.275
622.41	0.274
622.86	0.273
623.30	0.279
623.75	0.278
624.20	0.279
624.65	0.277
625.10	0.280
625.54	0.280
625.99	0.279
626.44	0.283
626.89	0.283
627.34	0.280
627.78	0.286
628.23	0.285
628.68	0.286
629.13	0.287
629.58	0.289
630.02	0.289
630.47	0.292
630.92	0.294
631.37	0.298
631.81	0.295
632.26	0.295
632.71	0.299
633.16	0.300
633.61	0.302
634.05	0.304
634.50	0.303
634.95	0.307
635.40	0.309
635.84	0.311
636.29	0.313
636.74	0.313
637.18	0.317
637.63	0.321
638.08	0.322
638.53	0.320
638.97	0.326
639.42	0.329
639.87	0.329
640.32	0.334
640.76	0.336
641.21	0.338
641.66	0.340
642.10	0.341
642.55	0.344
643.00	0.347
643.44	0.350
643.89	0.354
644.34	0.357
644.79	0.361
645.23	0.362
645.68	0.366
646.13	0.366
646.57	0.370
647.02	0.371
647.47	0.375
647.91	0.376
648.36	0.379
648.81	0.384
649.25	0.383
649.70	0.388
650.15	0.391
650.59	0.393
651.04	0.398
651.48	0.396
651.93	0.402
652.38	0.402
652.82	0.404
653.27	0.402
653.72	0.411
654.16	0.410
654.61	0.413
655.06	0.414
655.50	0.416
655.95	0.413
656.39	0.415
656.84	0.428
657.29	0.428
657.73	0.426
658.18	0.425
658.62	0.428
659.07	0.431
659.52	0.432
659.96	0.432
660.41	0.435
660.85	0.435
661.30	0.435
661.74	0.437
662.19	0.440
662.64	0.440
663.08	0.438
663.53	0.438
663.97	0.440
664.42	0.437
664.86	0.437
665.31	0.439
665.75	0.438
666.20	0.435
666.65	0.436
667.09	0.435
667.54	0.434
667.98	0.430
668.43	0.430
668.87	0.429
669.32	0.427
669.76	0.424
670.21	0.425
670.65	0.419
671.10	0.415
671.54	0.411
671.99	0.407
672.43	0.403
672.88	0.398
673.32	0.396
673.77	0.390
674.21	0.383
674.66	0.378
675.10	0.373
675.55	0.364
675.99	0.361
676.44	0.355
676.88	0.348
677.33	0.343
677.77	0.335
678.22	0.329
678.66	0.322
679.11	0.316
679.55	0.310
679.99	0.302
680.44	0.295
680.88	0.289
681.33	0.282
681.77	0.274
682.22	0.266
682.66	0.262
683.11	0.254
683.55	0.250
683.99	0.241
684.44	0.235
684.88	0.232
685.33	0.223
685.77	0.218
686.21	0.213
686.66	0.206
687.10	0.200
687.55	0.198
687.99	0.190
688.44	0.187
688.88	0.181
689.32	0.177
689.77	0.172
690.21	0.168
690.65	0.165
691.10	0.158
691.54	0.155
691.99	0.152
692.43	0.150
692.87	0.147
693.32	0.142
693.76	0.140
694.20	0.137
694.65	0.134
695.09	0.131
695.53	0.128
695.98	0.127
696.42	0.124
696.86	0.123
697.31	0.121
697.75	0.117
698.19	0.116
698.64	0.115
699.08	0.113
699.52	0.111
699.97	0.109
700.41	0.108
700.85	0.106
701.30	0.103
701.74	0.103
702.18	0.101
702.63	0.101
703.07	0.099
703.51	0.099
703.96	0.099
704.40	0.097
704.84	0.097
705.28	0.096
705.73	0.096
706.17	0.094
706.61	0.097
707.06	0.091
707.50	0.092
707.94	0.092
708.38	0.090
708.83	0.092
709.27	0.090
709.71	0.089
710.15	0.089
710.60	0.090
711.04	0.084
711.48	0.090
711.92	0.087
712.37	0.086
712.81	0.086
713.25	0.088
713.69	0.087
714.13	0.085
714.58	0.085
715.02	0.085
715.46	0.084
715.90	0.085
716.35	0.083
716.79	0.086
717.23	0.087
717.67	0.087
718.11	0.083
718.56	0.084
719.00	0.084
719.44	0.086
719.88	0.085
720.32	0.084
720.76	0.082
721.21	0.085
721.65	0.084
722.09	0.084
722.53	0.084
722.97	0.081
723.41	0.084
723.86	0.084
724.30	0.086
724.74	0.084
725.18	0.082
725.62	0.083
726.06	0.085
726.50	0.085
726.95	0.084
727.39	0.085
727.83	0.085
728.27	0.084
728.71	0.086
729.15	0.086
729.59	0.083
730.03	0.085
730.48	0.083
730.92	0.085
731.36	0.084
731.80	0.085
732.24	0.087
732.68	0.086
733.12	0.084
733.56	0.085
734.00	0.088
734.44	0.085
734.89	0.088
735.33	0.083
735.77	0.087
736.21	0.086
736.65	0.087
737.09	0.088
737.53	0.088
737.97	0.088
738.41	0.088
738.85	0.086
739.29	0.086
739.73	0.086
740.17	0.086
740.61	0.085
741.05	0.091
741.49	0.087
741.93	0.086
742.37	0.086
742.81	0.089
743.26	0.087
743.70	0.086
744.14	0.089
744.58	0.088
745.02	0.087
745.46	0.087
745.90	0.085
746.34	0.086
746.78	0.090
747.22	0.087
747.66	0.085
748.10	0.085
748.54	0.087
748.98	0.087
749.42	0.087
749.86	0.087
750.29	0.087
750.73	0.087
751.17	0.087
751.61	0.087
752.05	0.088
752.49	0.086
752.93	0.087
753.37	0.088
753.81	0.086
754.25	0.085
754.69	0.088
755.13	0.088
755.57	0.086
756.01	0.087
756.45	0.084
756.89	0.087
757.33	0.085
757.77	0.088
758.21	0.085
758.64	0.085
759.08	0.085
759.52	0.085
759.96	0.084
760.40	0.087
760.84	0.083
761.28	0.083
761.72	0.087
762.16	0.086
762.60	0.084
763.03	0.086
763.47	0.085
763.91	0.083
764.35	0.084
764.79	0.084
765.23	0.086
765.67	0.082
766.11	0.086
766.54	0.083
766.98	0.082
767.42	0.085
767.86	0.088
768.30	0.083
768.74	0.086
769.17	0.088
769.61	0.085
770.05	0.088
770.49	0.089
770.93	0.084
771.37	0.086
771.80	0.083
772.24	0.082
772.68	0.085
773.12	0.085
773.56	0.086
774.00	0.083
774.43	0.085
774.87	0.082
775.31	0.086
775.75	0.086
776.19	0.083
776.62	0.085
777.06	0.085
777.50	0.085
777.94	0.084
778.37	0.085
778.81	0.085
779.25	0.081
779.69	0.083
780.13	0.083
780.56	0.079
781.00	0.082
781.44	0.084
781.88	0.081
782.31	0.084
782.75	0.081
783.19	0.085
783.63	0.085
784.06	0.086
784.50	0.083
784.94	0.084
785.37	0.083
785.81	0.083
786.25	0.083
786.69	0.086
787.12	0.083
787.56	0.085
788.00	0.084
788.43	0.084
788.87	0.084
789.31	0.084
789.75	0.085
790.18	0.086
790.62	0.085
791.06	0.084
791.49	0.088
791.93	0.082
792.37	0.083
792.80	0.085
793.24	0.084
793.68	0.083
794.11	0.086
794.55	0.087
794.99	0.082
795.42	0.087
795.86	0.089
796.30	0.088
796.73	0.081
797.17	0.085
797.61	0.084
798.04	0.084
798.48	0.082
798.91	0.086
799.35	0.086
799.79	0.082
800.22	0.084
800.66	0.079
801.10	0.086
801.53	0.087
801.97	0.085
802.40	0.079
802.84	0.083
803.28	0.084
803.71	0.085
804.15	0.086
804.58	0.088
805.02	0.086
805.46	0.083
805.89	0.084
806.33	0.086
806.76	0.082
807.20	0.085
807.63	0.086
808.07	0.083
808.51	0.087
808.94	0.087
809.38	0.083
809.81	0.086
810.25	0.082
810.68	0.086
811.12	0.081
811.55	0.084
811.99	0.086
812.42	0.086
812.86	0.083
813.29	0.086
813.73	0.085
814.17	0.078
814.60	0.083
