SpectraSuite Data File
++++++++++++++++++++++++++++++++++++
Date: Wed May 04 14:46:25 CEST 2016
User: spectrasuite
Dark Spectrum Present: Yes
Reference Spectrum Present: Yes
Number of Sampled Component Spectra: 1
Spectrometers: HR+C0708
Integration Time (usec): 1000 (HR+C0708)
Spectra Averaged: 10 (HR+C0708)
Boxcar Smoothing: 0 (HR+C0708)
Correct for Electrical Dark: No (HR+C0708)
Strobe/Lamp Enabled: No (HR+C0708)
Correct for Detector Non-linearity: No (HR+C0708)
Correct for Stray Light: No (HR+C0708)
Number of Pixels in Processed Spectrum: 2048
>>>>>Begin Processed Spectral Data<<<<<
188.76	-0.000
189.23	-0.000
189.70	-0.000
190.17	-0.000
190.64	-0.000
191.12	-0.000
191.59	-0.000
192.06	-0.000
192.53	-0.000
193.01	-0.000
193.48	-0.000
193.95	-0.000
194.42	-0.000
194.90	-0.000
195.37	-0.000
195.84	-0.000
196.31	1.487
196.78	-0.000
197.26	-0.000
197.73	-0.000
198.20	-0.000
198.67	-0.000
199.14	-0.000
199.62	-0.000
200.09	-0.000
200.56	2.559
201.03	1.695
201.50	1.016
201.97	1.008
202.45	1.234
202.92	0.789
203.39	1.021
203.86	-0.000
204.33	0.912
204.80	1.187
205.28	1.107
205.75	-0.000
206.22	0.834
206.69	0.782
207.16	0.677
207.63	1.003
208.11	-0.000
208.58	0.997
209.05	0.694
209.52	1.253
209.99	0.709
210.46	0.502
210.93	1.374
211.41	1.185
211.88	0.810
212.35	0.751
212.82	2.015
213.29	0.646
213.76	0.793
214.23	0.751
214.70	0.959
215.18	0.706
215.65	0.526
216.12	0.622
216.59	0.783
217.06	0.681
217.53	0.872
218.00	0.900
218.47	0.724
218.94	0.817
219.41	0.642
219.89	0.736
220.36	0.769
220.83	0.704
221.30	-0.000
221.77	1.163
222.24	0.733
222.71	1.039
223.18	-0.000
223.65	0.646
224.12	0.613
224.59	0.774
225.06	1.264
225.54	1.102
226.01	0.966
226.48	1.199
226.95	1.848
227.42	1.013
227.89	1.413
228.36	1.131
228.83	1.204
229.30	1.556
229.77	2.093
230.24	1.381
230.71	1.482
231.18	1.473
231.65	-0.000
232.12	1.746
232.59	1.693
233.06	2.036
233.53	2.136
234.00	1.730
234.47	2.143
234.94	2.132
235.41	2.058
235.88	2.001
236.35	2.215
236.82	2.307
237.29	2.084
237.76	2.041
238.23	2.926
238.70	2.443
239.17	2.168
239.64	2.478
240.11	2.458
240.58	2.139
241.05	2.344
241.52	2.334
241.99	2.359
242.46	2.266
242.93	2.404
243.40	3.257
243.87	2.717
244.34	2.220
244.81	2.567
245.28	2.680
245.75	2.498
246.22	2.411
246.69	2.657
247.16	2.493
247.63	2.951
248.10	2.439
248.57	3.608
249.04	2.492
249.51	2.249
249.98	3.175
250.45	2.809
250.92	2.415
251.39	2.406
251.85	2.341
252.32	2.103
252.79	2.016
253.26	1.894
253.73	1.801
254.20	1.662
254.67	1.565
255.14	1.532
255.61	1.470
256.08	1.386
256.55	1.323
257.02	1.295
257.49	1.227
257.95	1.186
258.42	1.151
258.89	1.118
259.36	1.091
259.83	1.063
260.30	1.043
260.77	1.021
261.24	0.987
261.71	0.969
262.17	0.953
262.64	0.936
263.11	0.909
263.58	0.902
264.05	0.887
264.52	0.869
264.99	0.855
265.46	0.846
265.92	0.831
266.39	0.814
266.86	0.804
267.33	0.795
267.80	0.785
268.27	0.777
268.74	0.767
269.20	0.757
269.67	0.745
270.14	0.737
270.61	0.730
271.08	0.721
271.55	0.714
272.01	0.709
272.48	0.703
272.95	0.692
273.42	0.684
273.89	0.689
274.36	0.677
274.82	0.674
275.29	0.670
275.76	0.665
276.23	0.660
276.70	0.649
277.16	0.653
277.63	0.647
278.10	0.642
278.57	0.642
279.04	0.640
279.50	0.639
279.97	0.632
280.44	0.631
280.91	0.630
281.38	0.625
281.84	0.624
282.31	0.625
282.78	0.626
283.25	0.624
283.72	0.621
284.18	0.619
284.65	0.621
285.12	0.623
285.59	0.617
286.05	0.620
286.52	0.619
286.99	0.624
287.46	0.623
287.92	0.619
288.39	0.617
288.86	0.620
289.33	0.623
289.79	0.619
290.26	0.619
290.73	0.617
291.20	0.612
291.66	0.610
292.13	0.611
292.60	0.607
293.07	0.602
293.53	0.598
294.00	0.592
294.47	0.590
294.93	0.584
295.40	0.578
295.87	0.572
296.34	0.563
296.80	0.556
297.27	0.547
297.74	0.545
298.20	0.535
298.67	0.523
299.14	0.518
299.60	0.508
300.07	0.500
300.54	0.495
301.01	0.486
301.47	0.478
301.94	0.470
302.41	0.462
302.87	0.453
303.34	0.444
303.81	0.439
304.27	0.433
304.74	0.424
305.21	0.416
305.67	0.413
306.14	0.404
306.61	0.398
307.07	0.393
307.54	0.388
308.01	0.378
308.47	0.373
308.94	0.371
309.40	0.367
309.87	0.363
310.34	0.359
310.80	0.355
311.27	0.354
311.74	0.348
312.20	0.347
312.67	0.346
313.13	0.340
313.60	0.337
314.07	0.335
314.53	0.331
315.00	0.325
315.47	0.329
315.93	0.326
316.40	0.324
316.86	0.320
317.33	0.318
317.80	0.320
318.26	0.317
318.73	0.315
319.19	0.314
319.66	0.312
320.13	0.309
320.59	0.310
321.06	0.311
321.52	0.306
321.99	0.308
322.45	0.303
322.92	0.303
323.39	0.302
323.85	0.301
324.32	0.300
324.78	0.299
325.25	0.293
325.71	0.296
326.18	0.292
326.64	0.288
327.11	0.287
327.58	0.290
328.04	0.287
328.51	0.285
328.97	0.286
329.44	0.285
329.90	0.280
330.37	0.279
330.83	0.279
331.30	0.278
331.76	0.272
332.23	0.273
332.69	0.272
333.16	0.269
333.62	0.265
334.09	0.267
334.56	0.262
335.02	0.261
335.49	0.258
335.95	0.255
336.42	0.254
336.88	0.250
337.35	0.249
337.81	0.247
338.28	0.247
338.74	0.247
339.20	0.247
339.67	0.247
340.13	0.247
340.60	0.245
341.06	0.241
341.53	0.237
341.99	0.235
342.46	0.235
342.92	0.233
343.39	0.232
343.85	0.230
344.32	0.228
344.78	0.230
345.25	0.232
345.71	0.229
346.17	0.235
346.64	0.231
347.10	0.229
347.57	0.228
348.03	0.222
348.50	0.222
348.96	0.224
349.43	0.222
349.89	0.223
350.35	0.222
350.82	0.222
351.28	0.225
351.75	0.217
352.21	0.223
352.67	0.213
353.14	0.218
353.60	0.219
354.07	0.214
354.53	0.215
355.00	0.212
355.46	0.212
355.92	0.208
356.39	0.208
356.85	0.205
357.31	0.202
357.78	0.205
358.24	0.202
358.71	0.202
359.17	0.202
359.63	0.198
360.10	0.196
360.56	0.194
361.03	0.194
361.49	0.196
361.95	0.191
362.42	0.194
362.88	0.193
363.34	0.191
363.81	0.189
364.27	0.192
364.73	0.190
365.20	0.187
365.66	0.186
366.12	0.190
366.59	0.185
367.05	0.184
367.51	0.184
367.98	0.184
368.44	0.182
368.90	0.182
369.37	0.184
369.83	0.181
370.29	0.177
370.76	0.179
371.22	0.177
371.68	0.179
372.15	0.179
372.61	0.176
373.07	0.178
373.54	0.175
374.00	0.175
374.46	0.176
374.92	0.174
375.39	0.176
375.85	0.177
376.31	0.175
376.78	0.176
377.24	0.174
377.70	0.174
378.16	0.173
378.63	0.175
379.09	0.174
379.55	0.172
380.01	0.174
380.48	0.173
380.94	0.173
381.40	0.174
381.87	0.172
382.33	0.171
382.79	0.170
383.25	0.172
383.72	0.171
384.18	0.171
384.64	0.173
385.10	0.170
385.56	0.170
386.03	0.170
386.49	0.171
386.95	0.171
387.41	0.171
387.88	0.165
388.34	0.165
388.80	0.169
389.26	0.168
389.72	0.172
390.19	0.165
390.65	0.165
391.11	0.168
391.57	0.166
392.04	0.168
392.50	0.166
392.96	0.167
393.42	0.164
393.88	0.167
394.34	0.166
394.81	0.165
395.27	0.163
395.73	0.161
396.19	0.164
396.65	0.163
397.12	0.163
397.58	0.164
398.04	0.163
398.50	0.162
398.96	0.163
399.42	0.162
399.89	0.165
400.35	0.162
400.81	0.159
401.27	0.163
401.73	0.159
402.19	0.160
402.65	0.158
403.12	0.159
403.58	0.159
404.04	0.157
404.50	0.157
404.96	0.156
405.42	0.157
405.88	0.157
406.34	0.159
406.81	0.156
407.27	0.155
407.73	0.152
408.19	0.152
408.65	0.153
409.11	0.153
409.57	0.152
410.03	0.157
410.49	0.152
410.96	0.151
411.42	0.153
411.88	0.150
412.34	0.148
412.80	0.149
413.26	0.151
413.72	0.150
414.18	0.150
414.64	0.151
415.10	0.151
415.56	0.151
416.02	0.148
416.48	0.150
416.95	0.151
417.41	0.149
417.87	0.146
418.33	0.149
418.79	0.146
419.25	0.149
419.71	0.148
420.17	0.146
420.63	0.145
421.09	0.145
421.55	0.147
422.01	0.147
422.47	0.147
422.93	0.149
423.39	0.146
423.85	0.146
424.31	0.146
424.77	0.146
425.23	0.145
425.69	0.148
426.15	0.148
426.61	0.147
427.07	0.143
427.53	0.144
427.99	0.143
428.45	0.146
428.91	0.142
429.37	0.143
429.83	0.145
430.29	0.147
430.75	0.148
431.21	0.145
431.67	0.148
432.13	0.145
432.59	0.143
433.05	0.144
433.51	0.140
433.97	0.140
434.43	0.145
434.89	0.146
435.35	0.142
435.81	0.144
436.27	0.145
436.73	0.143
437.19	0.145
437.65	0.141
438.11	0.141
438.57	0.145
439.03	0.141
439.48	0.145
439.94	0.145
440.40	0.143
440.86	0.141
441.32	0.145
441.78	0.142
442.24	0.141
442.70	0.142
443.16	0.141
443.62	0.144
444.08	0.141
444.54	0.141
444.99	0.140
445.45	0.139
445.91	0.139
446.37	0.141
446.83	0.139
447.29	0.141
447.75	0.138
448.21	0.140
448.67	0.140
449.12	0.140
449.58	0.139
450.04	0.142
450.50	0.138
450.96	0.137
451.42	0.139
451.88	0.142
452.34	0.137
452.79	0.140
453.25	0.140
453.71	0.140
454.17	0.138
454.63	0.137
455.09	0.137
455.55	0.137
456.00	0.136
456.46	0.138
456.92	0.137
457.38	0.138
457.84	0.136
458.30	0.140
458.75	0.137
459.21	0.137
459.67	0.135
460.13	0.137
460.59	0.138
461.04	0.138
461.50	0.136
461.96	0.137
462.42	0.136
462.88	0.135
463.33	0.137
463.79	0.137
464.25	0.136
464.71	0.136
465.17	0.136
465.62	0.135
466.08	0.139
466.54	0.138
467.00	0.138
467.46	0.139
467.91	0.140
468.37	0.136
468.83	0.137
469.29	0.137
469.74	0.139
470.20	0.138
470.66	0.137
471.12	0.137
471.57	0.135
472.03	0.138
472.49	0.138
472.95	0.139
473.40	0.139
473.86	0.137
474.32	0.136
474.78	0.136
475.23	0.138
475.69	0.136
476.15	0.140
476.60	0.138
477.06	0.139
477.52	0.138
477.98	0.138
478.43	0.138
478.89	0.137
479.35	0.140
479.80	0.138
480.26	0.134
480.72	0.138
481.18	0.136
481.63	0.138
482.09	0.138
482.55	0.135
483.00	0.136
483.46	0.138
483.92	0.135
484.37	0.133
484.83	0.134
485.29	0.136
485.74	0.135
486.20	0.135
486.66	0.137
487.11	0.137
487.57	0.136
488.03	0.135
488.48	0.137
488.94	0.135
489.40	0.136
489.85	0.137
490.31	0.135
490.77	0.135
491.22	0.137
491.68	0.135
492.13	0.135
492.59	0.137
493.05	0.134
493.50	0.135
493.96	0.132
494.42	0.136
494.87	0.137
495.33	0.134
495.78	0.135
496.24	0.134
496.70	0.136
497.15	0.133
497.61	0.134
498.06	0.134
498.52	0.134
498.98	0.136
499.43	0.137
499.89	0.136
500.34	0.136
500.80	0.134
501.25	0.134
501.71	0.132
502.17	0.132
502.62	0.133
503.08	0.131
503.53	0.135
503.99	0.133
504.44	0.132
504.90	0.132
505.36	0.135
505.81	0.133
506.27	0.133
506.72	0.133
507.18	0.133
507.63	0.133
508.09	0.132
508.54	0.129
509.00	0.133
509.45	0.131
509.91	0.132
510.36	0.131
510.82	0.135
511.27	0.132
511.73	0.132
512.19	0.135
512.64	0.132
513.10	0.133
513.55	0.133
514.01	0.132
514.46	0.132
514.92	0.133
515.37	0.133
515.83	0.132
516.28	0.131
516.73	0.131
517.19	0.129
517.64	0.131
518.10	0.133
518.55	0.132
519.01	0.133
519.46	0.132
519.92	0.130
520.37	0.130
520.83	0.130
521.28	0.129
521.74	0.131
522.19	0.130
522.65	0.129
523.10	0.130
523.55	0.130
524.01	0.131
524.46	0.131
524.92	0.129
525.37	0.130
525.83	0.129
526.28	0.131
526.73	0.131
527.19	0.130
527.64	0.131
528.10	0.130
528.55	0.130
529.01	0.131
529.46	0.131
529.91	0.130
530.37	0.131
530.82	0.129
531.28	0.132
531.73	0.132
532.18	0.133
532.64	0.131
533.09	0.132
533.54	0.129
534.00	0.132
534.45	0.134
534.91	0.129
535.36	0.130
535.81	0.129
536.27	0.131
536.72	0.133
537.17	0.131
537.63	0.132
538.08	0.135
538.54	0.134
538.99	0.134
539.44	0.133
539.90	0.132
540.35	0.134
540.80	0.133
541.26	0.132
541.71	0.135
542.16	0.135
542.62	0.137
543.07	0.136
543.52	0.135
543.98	0.134
544.43	0.136
544.88	0.135
545.34	0.140
545.79	0.139
546.24	0.137
546.69	0.136
547.15	0.137
547.60	0.139
548.05	0.138
548.51	0.139
548.96	0.139
549.41	0.140
549.86	0.140
550.32	0.142
550.77	0.140
551.22	0.141
551.68	0.141
552.13	0.141
552.58	0.141
553.03	0.143
553.49	0.141
553.94	0.143
554.39	0.144
554.84	0.144
555.30	0.143
555.75	0.145
556.20	0.144
556.65	0.145
557.11	0.146
557.56	0.146
558.01	0.149
558.46	0.147
558.92	0.148
559.37	0.150
559.82	0.150
560.27	0.149
560.72	0.151
561.18	0.152
561.63	0.151
562.08	0.152
562.53	0.153
562.99	0.153
563.44	0.154
563.89	0.155
564.34	0.154
564.79	0.156
565.25	0.158
565.70	0.157
566.15	0.158
566.60	0.159
567.05	0.159
567.50	0.160
567.96	0.160
568.41	0.160
568.86	0.162
569.31	0.163
569.76	0.164
570.21	0.165
570.67	0.161
571.12	0.166
571.57	0.165
572.02	0.168
572.47	0.167
572.92	0.167
573.37	0.170
573.83	0.169
574.28	0.169
574.73	0.171
575.18	0.173
575.63	0.173
576.08	0.174
576.53	0.174
576.98	0.177
577.44	0.177
577.89	0.175
578.34	0.179
578.79	0.178
579.24	0.180
579.69	0.182
580.14	0.183
580.59	0.184
581.04	0.184
581.49	0.185
581.95	0.189
582.40	0.190
582.85	0.190
583.30	0.192
583.75	0.193
584.20	0.196
584.65	0.196
585.10	0.198
585.55	0.199
586.00	0.198
586.45	0.202
586.90	0.204
587.35	0.203
587.80	0.205
588.25	0.208
588.71	0.209
589.16	0.212
589.61	0.211
590.06	0.214
590.51	0.216
590.96	0.217
591.41	0.221
591.86	0.223
592.31	0.223
592.76	0.225
593.21	0.225
593.66	0.230
594.11	0.231
594.56	0.233
595.01	0.235
595.46	0.237
595.91	0.240
596.36	0.241
596.81	0.245
597.26	0.245
597.71	0.247
598.16	0.251
598.61	0.250
599.06	0.253
599.51	0.254
599.96	0.257
600.41	0.259
600.86	0.261
601.31	0.263
601.76	0.267
602.21	0.267
602.65	0.270
603.10	0.271
603.55	0.273
604.00	0.278
604.45	0.276
604.90	0.277
605.35	0.282
605.80	0.281
606.25	0.284
606.70	0.285
607.15	0.286
607.60	0.288
608.05	0.287
608.50	0.292
608.95	0.293
609.39	0.296
609.84	0.296
610.29	0.298
610.74	0.298
611.19	0.298
611.64	0.300
612.09	0.303
612.54	0.304
612.99	0.304
613.44	0.305
613.88	0.306
614.33	0.305
614.78	0.309
615.23	0.309
615.68	0.309
616.13	0.308
616.58	0.311
617.03	0.313
617.47	0.312
617.92	0.313
618.37	0.313
618.82	0.316
619.27	0.314
619.72	0.314
620.17	0.316
620.61	0.316
621.06	0.317
621.51	0.316
621.96	0.319
622.41	0.319
622.86	0.318
623.30	0.320
623.75	0.320
624.20	0.321
624.65	0.322
625.10	0.323
625.54	0.323
625.99	0.323
626.44	0.327
626.89	0.324
627.34	0.324
627.78	0.327
628.23	0.330
628.68	0.330
629.13	0.332
629.58	0.333
630.02	0.334
630.47	0.335
630.92	0.336
631.37	0.340
631.81	0.341
632.26	0.340
632.71	0.344
633.16	0.347
633.61	0.348
634.05	0.349
634.50	0.350
634.95	0.354
635.40	0.357
635.84	0.357
636.29	0.362
636.74	0.365
637.18	0.366
637.63	0.368
638.08	0.372
638.53	0.370
638.97	0.374
639.42	0.377
639.87	0.379
640.32	0.382
640.76	0.386
641.21	0.389
641.66	0.389
642.10	0.394
642.55	0.396
643.00	0.401
643.44	0.404
643.89	0.405
644.34	0.409
644.79	0.415
645.23	0.418
645.68	0.420
646.13	0.422
646.57	0.427
647.02	0.428
647.47	0.433
647.91	0.436
648.36	0.438
648.81	0.442
649.25	0.444
649.70	0.449
650.15	0.449
650.59	0.455
651.04	0.457
651.48	0.461
651.93	0.465
652.38	0.468
652.82	0.471
653.27	0.471
653.72	0.474
654.16	0.478
654.61	0.479
655.06	0.481
655.50	0.488
655.95	0.483
656.39	0.487
656.84	0.493
657.29	0.496
657.73	0.495
658.18	0.495
658.62	0.501
659.07	0.507
659.52	0.504
659.96	0.508
660.41	0.509
660.85	0.510
661.30	0.511
661.74	0.514
662.19	0.514
662.64	0.514
663.08	0.514
663.53	0.515
663.97	0.516
664.42	0.514
664.86	0.515
665.31	0.517
665.75	0.515
666.20	0.512
666.65	0.516
667.09	0.512
667.54	0.511
667.98	0.507
668.43	0.507
668.87	0.506
669.32	0.504
669.76	0.498
670.21	0.497
670.65	0.494
671.10	0.488
671.54	0.485
671.99	0.483
672.43	0.473
672.88	0.470
673.32	0.468
673.77	0.463
674.21	0.454
674.66	0.445
675.10	0.439
675.55	0.432
675.99	0.426
676.44	0.419
676.88	0.412
677.33	0.404
677.77	0.395
678.22	0.388
678.66	0.378
679.11	0.369
679.55	0.364
679.99	0.356
680.44	0.347
680.88	0.338
681.33	0.330
681.77	0.321
682.22	0.314
682.66	0.306
683.11	0.298
683.55	0.291
683.99	0.284
684.44	0.277
684.88	0.272
685.33	0.263
685.77	0.253
686.21	0.248
686.66	0.239
687.10	0.232
687.55	0.226
687.99	0.222
688.44	0.215
688.88	0.208
689.32	0.206
689.77	0.198
690.21	0.193
690.65	0.187
691.10	0.183
691.54	0.179
691.99	0.174
692.43	0.170
692.87	0.166
693.32	0.163
693.76	0.160
694.20	0.154
694.65	0.153
695.09	0.147
695.53	0.145
695.98	0.143
696.42	0.140
696.86	0.139
697.31	0.136
697.75	0.132
698.19	0.130
698.64	0.129
699.08	0.127
699.52	0.125
699.97	0.123
700.41	0.119
700.85	0.120
701.30	0.116
701.74	0.114
702.18	0.113
702.63	0.111
703.07	0.108
703.51	0.109
703.96	0.108
704.40	0.107
704.84	0.106
705.28	0.104
705.73	0.104
706.17	0.103
706.61	0.104
707.06	0.102
707.50	0.102
707.94	0.102
708.38	0.099
708.83	0.100
709.27	0.097
709.71	0.099
710.15	0.097
710.60	0.099
711.04	0.094
711.48	0.096
711.92	0.096
712.37	0.095
712.81	0.094
713.25	0.095
713.69	0.095
714.13	0.093
714.58	0.094
715.02	0.093
715.46	0.092
715.90	0.090
716.35	0.091
716.79	0.091
717.23	0.091
717.67	0.092
718.11	0.089
718.56	0.090
719.00	0.092
719.44	0.091
719.88	0.093
720.32	0.091
720.76	0.087
721.21	0.090
721.65	0.092
722.09	0.089
722.53	0.090
722.97	0.090
723.41	0.088
723.86	0.090
724.30	0.090
724.74	0.091
725.18	0.088
725.62	0.088
726.06	0.091
726.50	0.092
726.95	0.091
727.39	0.090
727.83	0.089
728.27	0.091
728.71	0.090
729.15	0.090
729.59	0.086
730.03	0.089
730.48	0.090
730.92	0.092
731.36	0.090
731.80	0.091
732.24	0.093
732.68	0.091
733.12	0.091
733.56	0.090
734.00	0.095
734.44	0.091
734.89	0.092
735.33	0.091
735.77	0.093
736.21	0.091
736.65	0.090
737.09	0.093
737.53	0.092
737.97	0.093
738.41	0.092
738.85	0.092
739.29	0.093
739.73	0.092
740.17	0.090
740.61	0.091
741.05	0.094
741.49	0.092
741.93	0.090
742.37	0.091
742.81	0.094
743.26	0.093
743.70	0.093
744.14	0.092
744.58	0.094
745.02	0.091
745.46	0.094
745.90	0.092
746.34	0.091
746.78	0.094
747.22	0.092
747.66	0.090
748.10	0.091
748.54	0.091
748.98	0.091
749.42	0.091
749.86	0.094
750.29	0.092
750.73	0.092
751.17	0.093
751.61	0.094
752.05	0.094
752.49	0.089
752.93	0.089
753.37	0.092
753.81	0.092
754.25	0.089
754.69	0.090
755.13	0.093
755.57	0.090
756.01	0.089
756.45	0.091
756.89	0.092
757.33	0.089
757.77	0.091
758.21	0.093
758.64	0.089
759.08	0.088
759.52	0.087
759.96	0.091
760.40	0.088
760.84	0.087
761.28	0.089
761.72	0.088
762.16	0.089
762.60	0.089
763.03	0.091
763.47	0.089
763.91	0.089
764.35	0.088
764.79	0.088
765.23	0.089
765.67	0.086
766.11	0.090
766.54	0.087
766.98	0.087
767.42	0.090
767.86	0.090
768.30	0.088
768.74	0.087
769.17	0.090
769.61	0.088
770.05	0.089
770.49	0.092
770.93	0.089
771.37	0.089
771.80	0.090
772.24	0.085
772.68	0.089
773.12	0.086
773.56	0.090
774.00	0.088
774.43	0.087
774.87	0.083
775.31	0.088
775.75	0.087
776.19	0.087
776.62	0.088
777.06	0.087
777.50	0.089
777.94	0.088
778.37	0.090
778.81	0.087
779.25	0.082
779.69	0.088
780.13	0.085
780.56	0.086
781.00	0.087
781.44	0.087
781.88	0.087
782.31	0.087
782.75	0.086
783.19	0.087
783.63	0.087
784.06	0.085
784.50	0.085
784.94	0.090
785.37	0.086
785.81	0.085
786.25	0.086
786.69	0.088
787.12	0.088
787.56	0.088
788.00	0.091
788.43	0.087
788.87	0.088
789.31	0.089
789.75	0.087
790.18	0.086
790.62	0.084
791.06	0.088
791.49	0.088
791.93	0.084
792.37	0.083
792.80	0.089
793.24	0.085
793.68	0.088
794.11	0.090
794.55	0.090
794.99	0.089
795.42	0.090
795.86	0.093
796.30	0.087
796.73	0.087
797.17	0.085
797.61	0.086
798.04	0.089
798.48	0.085
798.91	0.087
799.35	0.085
799.79	0.086
800.22	0.089
800.66	0.088
801.10	0.088
801.53	0.087
801.97	0.089
802.40	0.083
802.84	0.084
803.28	0.087
803.71	0.085
804.15	0.089
804.58	0.089
805.02	0.089
805.46	0.085
805.89	0.084
806.33	0.086
806.76	0.086
807.20	0.088
807.63	0.087
808.07	0.084
808.51	0.087
808.94	0.087
809.38	0.087
809.81	0.088
810.25	0.086
810.68	0.088
811.12	0.085
811.55	0.086
811.99	0.084
812.42	0.086
812.86	0.085
813.29	0.089
813.73	0.088
814.17	0.081
814.60	0.083
815.04	0.086
815.47	0.088
815.91	0.081
816.34	0.088
816.78	0.088
