SpectraSuite Data File
++++++++++++++++++++++++++++++++++++
Date: Wed May 04 13:50:59 CEST 2016
User: spectrasuite
Dark Spectrum Present: Yes
Reference Spectrum Present: Yes
Number of Sampled Component Spectra: 1
Spectrometers: HR+C0708
Integration Time (usec): 1000 (HR+C0708)
Spectra Averaged: 10 (HR+C0708)
Boxcar Smoothing: 0 (HR+C0708)
Correct for Electrical Dark: No (HR+C0708)
Strobe/Lamp Enabled: No (HR+C0708)
Correct for Detector Non-linearity: No (HR+C0708)
Correct for Stray Light: No (HR+C0708)
Number of Pixels in Processed Spectrum: 2048
>>>>>Begin Processed Spectral Data<<<<<
188.76	0.845
189.23	-0.000
189.70	-0.000
190.17	-0.000
190.64	-0.000
191.12	-0.000
191.59	-0.000
192.06	1.585
192.53	-0.000
193.01	0.552
193.48	0.683
193.95	-0.000
194.42	-0.000
194.90	-0.000
195.37	-0.000
195.84	-0.000
196.31	-0.000
196.78	-0.000
197.26	-0.000
197.73	-0.000
198.20	0.354
198.67	-0.000
199.14	-0.000
199.62	-0.000
200.09	-0.000
200.56	0.656
201.03	0.774
201.50	0.640
201.97	0.634
202.45	0.545
202.92	0.721
203.39	0.639
203.86	0.482
204.33	0.878
204.80	0.724
205.28	0.688
205.75	0.762
206.22	0.611
206.69	0.793
207.16	0.814
207.63	0.599
208.11	0.621
208.58	0.765
209.05	0.729
209.52	1.253
209.99	0.516
210.46	0.382
210.93	1.596
211.41	0.624
211.88	0.646
212.35	0.516
212.82	0.564
213.29	0.774
213.76	0.626
214.23	0.718
214.70	1.820
215.18	0.553
215.65	0.410
216.12	0.803
216.59	0.544
217.06	0.566
217.53	0.490
218.00	0.519
218.47	0.646
218.94	0.743
219.41	0.515
219.89	0.724
220.36	0.503
220.83	0.546
221.30	-0.000
221.77	0.733
222.24	0.679
222.71	1.063
223.18	0.854
223.65	0.678
224.12	0.608
224.59	0.691
225.06	0.862
225.54	0.882
226.01	0.899
226.48	1.083
226.95	1.087
227.42	0.724
227.89	1.906
228.36	1.027
228.83	1.115
229.30	1.418
229.77	1.352
230.24	1.410
230.71	1.273
231.18	1.209
231.65	1.757
232.12	1.856
232.59	1.604
233.06	2.498
233.53	1.886
234.00	1.599
234.47	2.089
234.94	2.010
235.41	1.870
235.88	1.950
236.35	2.021
236.82	2.092
237.29	1.945
237.76	1.938
238.23	2.668
238.70	2.519
239.17	2.032
239.64	2.856
240.11	2.307
240.58	2.156
241.05	2.274
241.52	2.240
241.99	2.288
242.46	2.387
242.93	2.208
243.40	2.924
243.87	2.467
244.34	2.241
244.81	2.540
245.28	2.369
245.75	2.294
246.22	2.509
246.69	2.597
247.16	2.400
247.63	2.562
248.10	2.337
248.57	-0.000
249.04	2.348
249.51	2.321
249.98	3.083
250.45	2.573
250.92	2.343
251.39	2.461
251.85	2.253
252.32	2.137
252.79	2.125
253.26	1.946
253.73	1.924
254.20	1.816
254.67	1.688
255.14	1.701
255.61	1.592
256.08	1.540
256.55	1.485
257.02	1.440
257.49	1.385
257.95	1.347
258.42	1.294
258.89	1.287
259.36	1.254
259.83	1.216
260.30	1.198
260.77	1.163
261.24	1.145
261.71	1.130
262.17	1.103
262.64	1.084
263.11	1.061
263.58	1.046
264.05	1.037
264.52	1.019
264.99	0.992
265.46	0.994
265.92	0.974
266.39	0.963
266.86	0.956
267.33	0.946
267.80	0.929
268.27	0.926
268.74	0.913
269.20	0.899
269.67	0.891
270.14	0.882
270.61	0.881
271.08	0.867
271.55	0.858
272.01	0.858
272.48	0.843
272.95	0.841
273.42	0.833
273.89	0.826
274.36	0.820
274.82	0.814
275.29	0.807
275.76	0.805
276.23	0.801
276.70	0.791
277.16	0.796
277.63	0.786
278.10	0.779
278.57	0.779
279.04	0.783
279.50	0.778
279.97	0.775
280.44	0.763
280.91	0.769
281.38	0.767
281.84	0.761
282.31	0.766
282.78	0.765
283.25	0.757
283.72	0.766
284.18	0.760
284.65	0.763
285.12	0.758
285.59	0.760
286.05	0.760
286.52	0.758
286.99	0.757
287.46	0.763
287.92	0.762
288.39	0.758
288.86	0.764
289.33	0.757
289.79	0.757
290.26	0.756
290.73	0.755
291.20	0.754
291.66	0.755
292.13	0.752
292.60	0.751
293.07	0.742
293.53	0.732
294.00	0.735
294.47	0.733
294.93	0.720
295.40	0.715
295.87	0.712
296.34	0.701
296.80	0.691
297.27	0.677
297.74	0.672
298.20	0.665
298.67	0.657
299.14	0.652
299.60	0.641
300.07	0.629
300.54	0.625
301.01	0.615
301.47	0.605
301.94	0.594
302.41	0.587
302.87	0.581
303.34	0.571
303.81	0.564
304.27	0.554
304.74	0.545
305.21	0.536
305.67	0.531
306.14	0.525
306.61	0.517
307.07	0.514
307.54	0.504
308.01	0.499
308.47	0.491
308.94	0.485
309.40	0.482
309.87	0.479
310.34	0.469
310.80	0.473
311.27	0.466
311.74	0.462
312.20	0.458
312.67	0.455
313.13	0.450
313.60	0.448
314.07	0.444
314.53	0.443
315.00	0.436
315.47	0.439
315.93	0.438
316.40	0.433
316.86	0.431
317.33	0.427
317.80	0.424
318.26	0.424
318.73	0.421
319.19	0.423
319.66	0.417
320.13	0.414
320.59	0.416
321.06	0.417
321.52	0.410
321.99	0.410
322.45	0.406
322.92	0.407
323.39	0.404
323.85	0.403
324.32	0.399
324.78	0.395
325.25	0.395
325.71	0.391
326.18	0.390
326.64	0.390
327.11	0.385
327.58	0.386
328.04	0.387
328.51	0.384
328.97	0.382
329.44	0.380
329.90	0.377
330.37	0.375
330.83	0.371
331.30	0.369
331.76	0.366
332.23	0.367
332.69	0.362
333.16	0.360
333.62	0.358
334.09	0.354
334.56	0.352
335.02	0.350
335.49	0.347
335.95	0.342
336.42	0.344
336.88	0.339
337.35	0.335
337.81	0.337
338.28	0.335
338.74	0.335
339.20	0.337
339.67	0.336
340.13	0.337
340.60	0.331
341.06	0.328
341.53	0.324
341.99	0.323
342.46	0.322
342.92	0.319
343.39	0.317
343.85	0.314
344.32	0.316
344.78	0.315
345.25	0.319
345.71	0.318
346.17	0.318
346.64	0.317
347.10	0.314
347.57	0.309
348.03	0.304
348.50	0.301
348.96	0.302
349.43	0.302
349.89	0.304
350.35	0.300
350.82	0.297
351.28	0.294
351.75	0.295
352.21	0.301
352.67	0.285
353.14	0.287
353.60	0.283
354.07	0.281
354.53	0.281
355.00	0.279
355.46	0.271
355.92	0.269
356.39	0.269
356.85	0.263
357.31	0.258
357.78	0.256
358.24	0.254
358.71	0.252
359.17	0.245
359.63	0.241
360.10	0.239
360.56	0.229
361.03	0.226
361.49	0.223
361.95	0.218
362.42	0.215
362.88	0.211
363.34	0.209
363.81	0.201
364.27	0.198
364.73	0.197
365.20	0.192
365.66	0.188
366.12	0.188
366.59	0.187
367.05	0.183
367.51	0.183
367.98	0.180
368.44	0.178
368.90	0.174
369.37	0.175
369.83	0.175
370.29	0.170
370.76	0.172
371.22	0.171
371.68	0.169
372.15	0.171
372.61	0.165
373.07	0.166
373.54	0.166
374.00	0.167
374.46	0.167
374.92	0.166
375.39	0.166
375.85	0.163
376.31	0.163
376.78	0.161
377.24	0.164
377.70	0.165
378.16	0.163
378.63	0.162
379.09	0.163
379.55	0.161
380.01	0.163
380.48	0.162
380.94	0.160
381.40	0.160
381.87	0.162
382.33	0.159
382.79	0.157
383.25	0.161
383.72	0.159
384.18	0.158
384.64	0.160
385.10	0.157
385.56	0.155
386.03	0.156
386.49	0.158
386.95	0.156
387.41	0.155
387.88	0.153
388.34	0.151
388.80	0.157
389.26	0.155
389.72	0.156
390.19	0.153
390.65	0.153
391.11	0.154
391.57	0.154
392.04	0.154
392.50	0.152
392.96	0.153
393.42	0.154
393.88	0.152
394.34	0.151
394.81	0.149
395.27	0.151
395.73	0.147
396.19	0.151
396.65	0.152
397.12	0.149
397.58	0.147
398.04	0.148
398.50	0.149
398.96	0.147
399.42	0.148
399.89	0.150
400.35	0.147
400.81	0.146
401.27	0.147
401.73	0.144
402.19	0.147
402.65	0.141
403.12	0.146
403.58	0.144
404.04	0.140
404.50	0.141
404.96	0.140
405.42	0.142
405.88	0.142
406.34	0.142
406.81	0.140
407.27	0.138
407.73	0.134
408.19	0.138
408.65	0.135
409.11	0.137
409.57	0.137
410.03	0.140
410.49	0.137
410.96	0.138
411.42	0.137
411.88	0.134
412.34	0.132
412.80	0.135
413.26	0.135
413.72	0.135
414.18	0.131
414.64	0.133
415.10	0.134
415.56	0.134
416.02	0.134
416.48	0.132
416.95	0.132
417.41	0.133
417.87	0.132
418.33	0.131
418.79	0.131
419.25	0.131
419.71	0.132
420.17	0.131
420.63	0.127
421.09	0.129
421.55	0.132
422.01	0.130
422.47	0.134
422.93	0.131
423.39	0.131
423.85	0.132
424.31	0.129
424.77	0.130
425.23	0.129
425.69	0.131
426.15	0.132
426.61	0.128
427.07	0.125
427.53	0.127
427.99	0.129
428.45	0.129
428.91	0.125
429.37	0.126
429.83	0.127
430.29	0.127
430.75	0.128
431.21	0.130
431.67	0.128
432.13	0.128
432.59	0.124
433.05	0.124
433.51	0.123
433.97	0.125
434.43	0.131
434.89	0.128
435.35	0.123
435.81	0.126
436.27	0.126
436.73	0.126
437.19	0.126
437.65	0.123
438.11	0.125
438.57	0.123
439.03	0.125
439.48	0.127
439.94	0.122
440.40	0.122
440.86	0.123
441.32	0.124
441.78	0.122
442.24	0.123
442.70	0.124
443.16	0.123
443.62	0.125
444.08	0.121
444.54	0.123
444.99	0.125
445.45	0.122
445.91	0.122
446.37	0.120
446.83	0.124
447.29	0.122
447.75	0.121
448.21	0.124
448.67	0.121
449.12	0.121
449.58	0.122
450.04	0.123
450.50	0.121
450.96	0.121
451.42	0.121
451.88	0.123
452.34	0.120
452.79	0.119
453.25	0.122
453.71	0.121
454.17	0.122
454.63	0.121
455.09	0.118
455.55	0.123
456.00	0.118
456.46	0.121
456.92	0.123
457.38	0.122
457.84	0.121
458.30	0.121
458.75	0.117
459.21	0.121
459.67	0.118
460.13	0.120
460.59	0.121
461.04	0.121
461.50	0.120
461.96	0.122
462.42	0.118
462.88	0.119
463.33	0.118
463.79	0.119
464.25	0.116
464.71	0.120
465.17	0.120
465.62	0.120
466.08	0.120
466.54	0.120
467.00	0.118
467.46	0.120
467.91	0.121
468.37	0.118
468.83	0.121
469.29	0.120
469.74	0.120
470.20	0.119
470.66	0.119
471.12	0.119
471.57	0.118
472.03	0.118
472.49	0.119
472.95	0.121
473.40	0.119
473.86	0.119
474.32	0.118
474.78	0.119
475.23	0.121
475.69	0.119
476.15	0.122
476.60	0.120
477.06	0.122
477.52	0.117
477.98	0.119
478.43	0.121
478.89	0.119
479.35	0.121
479.80	0.120
480.26	0.118
480.72	0.119
481.18	0.119
481.63	0.120
482.09	0.120
482.55	0.115
483.00	0.116
483.46	0.119
483.92	0.117
484.37	0.118
484.83	0.117
485.29	0.119
485.74	0.118
486.20	0.116
486.66	0.119
487.11	0.119
487.57	0.117
488.03	0.116
488.48	0.120
488.94	0.115
489.40	0.119
489.85	0.121
490.31	0.118
490.77	0.117
491.22	0.118
491.68	0.116
492.13	0.117
492.59	0.120
493.05	0.118
493.50	0.117
493.96	0.117
494.42	0.119
494.87	0.119
495.33	0.115
495.78	0.116
496.24	0.119
496.70	0.117
497.15	0.118
497.61	0.118
498.06	0.117
498.52	0.117
498.98	0.117
499.43	0.117
499.89	0.118
500.34	0.117
500.80	0.117
501.25	0.117
501.71	0.114
502.17	0.116
502.62	0.116
503.08	0.113
503.53	0.116
503.99	0.117
504.44	0.116
504.90	0.115
505.36	0.116
505.81	0.117
506.27	0.116
506.72	0.115
507.18	0.115
507.63	0.114
508.09	0.115
508.54	0.113
509.00	0.115
509.45	0.116
509.91	0.114
510.36	0.113
510.82	0.115
511.27	0.114
511.73	0.115
512.19	0.114
512.64	0.113
513.10	0.115
513.55	0.113
514.01	0.115
514.46	0.114
514.92	0.114
515.37	0.114
515.83	0.112
516.28	0.115
516.73	0.112
517.19	0.115
517.64	0.113
518.10	0.111
518.55	0.113
519.01	0.116
519.46	0.112
519.92	0.114
520.37	0.111
520.83	0.114
521.28	0.111
521.74	0.114
522.19	0.114
522.65	0.113
523.10	0.112
523.55	0.114
524.01	0.112
524.46	0.113
524.92	0.111
525.37	0.113
525.83	0.113
526.28	0.113
526.73	0.114
527.19	0.112
527.64	0.111
528.10	0.114
528.55	0.112
529.01	0.113
529.46	0.114
529.91	0.113
530.37	0.111
530.82	0.112
531.28	0.114
531.73	0.112
532.18	0.115
532.64	0.114
533.09	0.114
533.54	0.111
534.00	0.116
534.45	0.114
534.91	0.113
535.36	0.114
535.81	0.112
536.27	0.113
536.72	0.114
537.17	0.115
537.63	0.114
538.08	0.113
538.54	0.116
538.99	0.117
539.44	0.115
539.90	0.118
540.35	0.116
540.80	0.116
541.26	0.117
541.71	0.119
542.16	0.116
542.62	0.120
543.07	0.119
543.52	0.116
543.98	0.116
544.43	0.117
544.88	0.118
545.34	0.122
545.79	0.119
546.24	0.120
546.69	0.120
547.15	0.120
547.60	0.121
548.05	0.121
548.51	0.120
548.96	0.123
549.41	0.122
549.86	0.122
550.32	0.123
550.77	0.124
551.22	0.123
551.68	0.124
552.13	0.126
552.58	0.125
553.03	0.126
553.49	0.126
553.94	0.127
554.39	0.127
554.84	0.129
555.30	0.128
555.75	0.128
556.20	0.130
556.65	0.129
557.11	0.132
557.56	0.131
558.01	0.133
558.46	0.131
558.92	0.134
559.37	0.134
559.82	0.134
560.27	0.134
560.72	0.135
561.18	0.136
561.63	0.138
562.08	0.136
562.53	0.138
562.99	0.138
563.44	0.140
563.89	0.141
564.34	0.142
564.79	0.141
565.25	0.144
565.70	0.144
566.15	0.144
566.60	0.144
567.05	0.144
567.50	0.147
567.96	0.146
568.41	0.146
568.86	0.145
569.31	0.149
569.76	0.148
570.21	0.151
570.67	0.149
571.12	0.151
571.57	0.152
572.02	0.154
572.47	0.154
572.92	0.154
573.37	0.158
573.83	0.157
574.28	0.158
574.73	0.157
575.18	0.160
575.63	0.159
576.08	0.160
576.53	0.162
576.98	0.162
577.44	0.166
577.89	0.164
578.34	0.167
578.79	0.167
579.24	0.168
579.69	0.170
580.14	0.169
580.59	0.171
581.04	0.172
581.49	0.173
581.95	0.174
582.40	0.177
582.85	0.179
583.30	0.179
583.75	0.182
584.20	0.184
584.65	0.185
585.10	0.187
585.55	0.189
586.00	0.189
586.45	0.193
586.90	0.193
587.35	0.194
587.80	0.196
588.25	0.197
588.71	0.199
589.16	0.203
589.61	0.202
590.06	0.206
590.51	0.207
590.96	0.207
591.41	0.212
591.86	0.215
592.31	0.217
592.76	0.218
593.21	0.218
593.66	0.222
594.11	0.226
594.56	0.227
595.01	0.229
595.46	0.229
595.91	0.233
596.36	0.233
596.81	0.237
597.26	0.239
597.71	0.241
598.16	0.243
598.61	0.247
599.06	0.247
599.51	0.249
599.96	0.252
600.41	0.254
600.86	0.258
601.31	0.258
601.76	0.261
602.21	0.263
602.65	0.266
603.10	0.268
603.55	0.269
604.00	0.274
604.45	0.273
604.90	0.274
605.35	0.282
605.80	0.278
606.25	0.282
606.70	0.286
607.15	0.286
607.60	0.287
608.05	0.286
608.50	0.291
608.95	0.294
609.39	0.293
609.84	0.294
610.29	0.298
610.74	0.297
611.19	0.297
611.64	0.300
612.09	0.303
612.54	0.301
612.99	0.304
613.44	0.302
613.88	0.306
614.33	0.304
614.78	0.311
615.23	0.310
615.68	0.309
616.13	0.309
616.58	0.309
617.03	0.312
617.47	0.313
617.92	0.313
618.37	0.312
618.82	0.315
619.27	0.314
619.72	0.316
620.17	0.318
620.61	0.317
621.06	0.316
621.51	0.317
621.96	0.318
622.41	0.318
622.86	0.319
623.30	0.320
623.75	0.321
624.20	0.320
624.65	0.322
625.10	0.323
625.54	0.323
625.99	0.323
626.44	0.325
626.89	0.326
627.34	0.328
627.78	0.329
628.23	0.329
628.68	0.332
629.13	0.333
629.58	0.334
630.02	0.335
630.47	0.338
630.92	0.337
631.37	0.342
631.81	0.343
632.26	0.343
632.71	0.345
633.16	0.349
633.61	0.351
634.05	0.352
634.50	0.352
634.95	0.358
635.40	0.358
635.84	0.361
636.29	0.365
636.74	0.366
637.18	0.369
637.63	0.371
638.08	0.374
638.53	0.378
638.97	0.379
639.42	0.382
639.87	0.384
640.32	0.388
640.76	0.391
641.21	0.397
641.66	0.397
642.10	0.402
642.55	0.405
643.00	0.408
643.44	0.412
643.89	0.415
644.34	0.417
644.79	0.424
645.23	0.426
645.68	0.429
646.13	0.435
646.57	0.437
647.02	0.437
647.47	0.446
647.91	0.447
648.36	0.451
648.81	0.455
649.25	0.457
649.70	0.463
650.15	0.465
650.59	0.470
651.04	0.472
651.48	0.476
651.93	0.478
652.38	0.485
652.82	0.485
653.27	0.486
653.72	0.493
654.16	0.497
654.61	0.499
655.06	0.501
655.50	0.500
655.95	0.505
656.39	0.508
656.84	0.511
657.29	0.518
657.73	0.517
658.18	0.520
658.62	0.520
659.07	0.522
659.52	0.525
659.96	0.530
660.41	0.530
660.85	0.532
661.30	0.535
661.74	0.537
662.19	0.544
662.64	0.536
663.08	0.539
663.53	0.542
663.97	0.541
664.42	0.541
664.86	0.541
665.31	0.539
665.75	0.541
666.20	0.541
666.65	0.541
667.09	0.538
667.54	0.538
667.98	0.534
668.43	0.535
668.87	0.533
669.32	0.530
669.76	0.528
670.21	0.520
670.65	0.517
671.10	0.514
671.54	0.513
671.99	0.507
672.43	0.498
672.88	0.492
673.32	0.489
673.77	0.481
674.21	0.476
674.66	0.468
675.10	0.462
675.55	0.452
675.99	0.444
676.44	0.435
676.88	0.427
677.33	0.420
677.77	0.412
678.22	0.403
678.66	0.392
679.11	0.385
679.55	0.375
679.99	0.365
680.44	0.355
680.88	0.349
681.33	0.339
681.77	0.330
682.22	0.320
682.66	0.312
683.11	0.302
683.55	0.296
683.99	0.286
684.44	0.281
684.88	0.269
685.33	0.263
685.77	0.253
686.21	0.245
686.66	0.238
687.10	0.228
687.55	0.223
687.99	0.216
688.44	0.209
688.88	0.202
689.32	0.197
689.77	0.191
690.21	0.185
690.65	0.180
691.10	0.173
691.54	0.169
691.99	0.164
692.43	0.160
692.87	0.157
693.32	0.151
693.76	0.146
694.20	0.145
694.65	0.138
695.09	0.134
695.53	0.131
695.98	0.128
696.42	0.125
696.86	0.123
697.31	0.121
697.75	0.117
698.19	0.114
698.64	0.114
699.08	0.111
699.52	0.107
699.97	0.104
700.41	0.105
700.85	0.103
701.30	0.098
701.74	0.098
702.18	0.094
702.63	0.094
703.07	0.092
703.51	0.092
703.96	0.091
704.40	0.092
704.84	0.090
705.28	0.088
705.73	0.088
706.17	0.085
706.61	0.087
707.06	0.083
707.50	0.084
707.94	0.083
708.38	0.079
708.83	0.082
709.27	0.080
709.71	0.081
710.15	0.078
710.60	0.079
711.04	0.074
711.48	0.078
711.92	0.076
712.37	0.075
712.81	0.077
713.25	0.076
713.69	0.073
714.13	0.073
714.58	0.074
715.02	0.073
715.46	0.073
715.90	0.072
716.35	0.072
716.79	0.074
717.23	0.072
717.67	0.075
718.11	0.071
718.56	0.073
719.00	0.070
719.44	0.072
719.88	0.075
720.32	0.072
720.76	0.069
721.21	0.071
721.65	0.071
722.09	0.070
722.53	0.072
722.97	0.069
723.41	0.071
723.86	0.072
724.30	0.069
724.74	0.074
725.18	0.070
725.62	0.069
726.06	0.070
726.50	0.073
726.95	0.072
727.39	0.071
727.83	0.071
728.27	0.071
728.71	0.069
729.15	0.071
729.59	0.070
730.03	0.070
730.48	0.070
730.92	0.070
731.36	0.068
731.80	0.072
732.24	0.075
732.68	0.073
733.12	0.072
733.56	0.072
734.00	0.071
734.44	0.071
734.89	0.072
735.33	0.069
735.77	0.074
736.21	0.071
736.65	0.072
737.09	0.076
737.53	0.073
737.97	0.075
738.41	0.072
738.85	0.071
739.29	0.071
739.73	0.074
740.17	0.069
740.61	0.070
741.05	0.074
741.49	0.072
741.93	0.072
742.37	0.072
742.81	0.073
743.26	0.072
743.70	0.071
744.14	0.074
744.58	0.071
745.02	0.071
745.46	0.072
745.90	0.073
746.34	0.073
746.78	0.075
747.22	0.070
747.66	0.070
748.10	0.071
748.54	0.070
748.98	0.073
749.42	0.072
749.86	0.072
750.29	0.074
750.73	0.073
751.17	0.072
751.61	0.072
752.05	0.072
752.49	0.072
752.93	0.070
753.37	0.074
753.81	0.071
754.25	0.070
754.69	0.072
755.13	0.074
755.57	0.069
756.01	0.070
756.45	0.069
756.89	0.070
757.33	0.069
757.77	0.071
758.21	0.070
758.64	0.068
759.08	0.069
759.52	0.070
759.96	0.073
760.40	0.068
760.84	0.068
761.28	0.070
761.72	0.071
762.16	0.068
762.60	0.069
763.03	0.069
763.47	0.070
763.91	0.071
764.35	0.069
764.79	0.072
765.23	0.070
765.67	0.070
766.11	0.071
766.54	0.069
766.98	0.066
767.42	0.070
767.86	0.071
768.30	0.069
768.74	0.070
769.17	0.069
769.61	0.068
770.05	0.068
770.49	0.073
770.93	0.070
771.37	0.072
771.80	0.067
772.24	0.067
772.68	0.068
773.12	0.067
773.56	0.070
774.00	0.070
774.43	0.066
774.87	0.065
775.31	0.069
775.75	0.066
776.19	0.067
776.62	0.067
777.06	0.066
777.50	0.065
777.94	0.066
778.37	0.070
778.81	0.069
779.25	0.067
779.69	0.066
780.13	0.066
780.56	0.065
781.00	0.067
781.44	0.066
781.88	0.070
782.31	0.066
782.75	0.068
783.19	0.068
783.63	0.066
784.06	0.069
784.50	0.068
784.94	0.069
785.37	0.066
785.81	0.066
786.25	0.067
786.69	0.067
787.12	0.068
787.56	0.065
788.00	0.070
788.43	0.067
788.87	0.068
789.31	0.067
789.75	0.065
790.18	0.067
790.62	0.066
791.06	0.065
791.49	0.068
791.93	0.067
792.37	0.062
792.80	0.072
793.24	0.065
793.68	0.069
794.11	0.067
794.55	0.069
794.99	0.068
795.42	0.068
795.86	0.068
796.30	0.067
796.73	0.066
797.17	0.067
797.61	0.066
798.04	0.069
798.48	0.067
798.91	0.070
799.35	0.064
799.79	0.065
800.22	0.070
800.66	0.066
801.10	0.067
801.53	0.069
801.97	0.065
802.40	0.064
802.84	0.065
803.28	0.065
803.71	0.067
804.15	0.066
804.58	0.071
805.02	0.070
805.46	0.064
805.89	0.066
806.33	0.069
806.76	0.065
807.20	0.067
807.63	0.066
808.07	0.067
808.51	0.069
808.94	0.069
809.38	0.065
809.81	0.069
810.25	0.064
810.68	0.066
811.12	0.065
811.55	0.068
811.99	0.066
812.42	0.067
812.86	0.066
813.29	0.067
813.73	0.070
814.17	0.063
814.60	0.063
815.04	0.065
815.47	0.067
815.91	0.061
816.34	0.065
816.78	0.069
817.21	0.070
