SpectraSuite Data File
++++++++++++++++++++++++++++++++++++
Date: Wed May 04 14:52:27 CEST 2016
User: spectrasuite
Dark Spectrum Present: Yes
Reference Spectrum Present: Yes
Number of Sampled Component Spectra: 1
Spectrometers: HR+C0708
Integration Time (usec): 1000 (HR+C0708)
Spectra Averaged: 10 (HR+C0708)
Boxcar Smoothing: 0 (HR+C0708)
Correct for Electrical Dark: No (HR+C0708)
Strobe/Lamp Enabled: No (HR+C0708)
Correct for Detector Non-linearity: No (HR+C0708)
Correct for Stray Light: No (HR+C0708)
Number of Pixels in Processed Spectrum: 2048
>>>>>Begin Processed Spectral Data<<<<<
188.76	-0.000
189.23	-0.000
189.70	-0.000
190.17	-0.000
190.64	-0.000
191.12	-0.000
191.59	-0.000
192.06	-0.000
192.53	-0.000
193.01	-0.000
193.48	-0.000
193.95	-0.000
194.42	-0.000
194.90	-0.000
195.37	-0.000
195.84	-0.000
196.31	-0.000
196.78	-0.000
197.26	-0.000
197.73	-0.000
198.20	-0.000
198.67	-0.000
199.14	-0.000
199.62	-0.000
200.09	-0.000
200.56	-0.000
201.03	1.093
201.50	0.876
201.97	0.759
202.45	1.251
202.92	-0.000
203.39	2.082
203.86	1.429
204.33	1.079
204.80	-0.000
205.28	1.041
205.75	-0.000
206.22	1.317
206.69	0.793
207.16	1.072
207.63	1.335
208.11	-0.000
208.58	0.771
209.05	0.883
209.52	-0.000
209.99	1.024
210.46	0.789
210.93	-0.000
211.41	0.656
211.88	0.890
212.35	1.246
212.82	-0.000
213.29	0.829
213.76	0.866
214.23	1.555
214.70	-0.000
215.18	1.120
215.65	0.630
216.12	0.863
216.59	1.013
217.06	0.694
217.53	1.089
218.00	1.948
218.47	0.777
218.94	1.053
219.41	0.771
219.89	0.732
220.36	0.795
220.83	0.717
221.30	-0.000
221.77	1.785
222.24	0.865
222.71	1.126
223.18	-0.000
223.65	0.869
224.12	0.795
224.59	0.825
225.06	1.963
225.54	0.906
226.01	1.315
226.48	1.324
226.95	1.362
227.42	1.253
227.89	3.162
228.36	1.582
228.83	1.359
229.30	1.348
229.77	2.032
230.24	1.674
230.71	1.495
231.18	1.524
231.65	2.188
232.12	2.052
232.59	1.689
233.06	2.233
233.53	-0.000
234.00	1.730
234.47	2.259
234.94	2.760
235.41	1.811
235.88	2.090
236.35	2.193
236.82	2.452
237.29	2.190
237.76	2.091
238.23	3.248
238.70	2.921
239.17	2.108
239.64	3.347
240.11	2.642
240.58	2.171
241.05	2.503
241.52	2.493
241.99	2.379
242.46	2.266
242.93	2.271
243.40	3.279
243.87	2.951
244.34	2.337
244.81	2.659
245.28	2.580
245.75	2.468
246.22	2.652
246.69	2.666
247.16	2.517
247.63	2.638
248.10	2.586
248.57	-0.000
249.04	3.053
249.51	2.308
249.98	3.083
250.45	2.809
250.92	2.364
251.39	2.351
251.85	2.352
252.32	2.152
252.79	2.037
253.26	1.898
253.73	1.840
254.20	1.687
254.67	1.588
255.14	1.546
255.61	1.452
256.08	1.383
256.55	1.335
257.02	1.277
257.49	1.230
257.95	1.197
258.42	1.149
258.89	1.123
259.36	1.085
259.83	1.060
260.30	1.036
260.77	1.010
261.24	0.982
261.71	0.965
262.17	0.950
262.64	0.933
263.11	0.910
263.58	0.898
264.05	0.883
264.52	0.868
264.99	0.852
265.46	0.839
265.92	0.822
266.39	0.811
266.86	0.808
267.33	0.795
267.80	0.782
268.27	0.775
268.74	0.766
269.20	0.753
269.67	0.748
270.14	0.740
270.61	0.732
271.08	0.722
271.55	0.713
272.01	0.710
272.48	0.702
272.95	0.691
273.42	0.684
273.89	0.683
274.36	0.673
274.82	0.669
275.29	0.668
275.76	0.657
276.23	0.654
276.70	0.651
277.16	0.650
277.63	0.645
278.10	0.639
278.57	0.639
279.04	0.634
279.50	0.630
279.97	0.630
280.44	0.631
280.91	0.627
281.38	0.622
281.84	0.622
282.31	0.623
282.78	0.619
283.25	0.621
283.72	0.620
284.18	0.618
284.65	0.620
285.12	0.617
285.59	0.619
286.05	0.616
286.52	0.620
286.99	0.617
287.46	0.617
287.92	0.615
288.39	0.616
288.86	0.615
289.33	0.613
289.79	0.612
290.26	0.612
290.73	0.615
291.20	0.612
291.66	0.608
292.13	0.607
292.60	0.604
293.07	0.597
293.53	0.592
294.00	0.590
294.47	0.587
294.93	0.581
295.40	0.571
295.87	0.570
296.34	0.559
296.80	0.552
297.27	0.543
297.74	0.537
298.20	0.534
298.67	0.518
299.14	0.513
299.60	0.504
300.07	0.497
300.54	0.489
301.01	0.484
301.47	0.474
301.94	0.468
302.41	0.457
302.87	0.447
303.34	0.441
303.81	0.434
304.27	0.433
304.74	0.422
305.21	0.410
305.67	0.409
306.14	0.404
306.61	0.397
307.07	0.391
307.54	0.385
308.01	0.380
308.47	0.373
308.94	0.369
309.40	0.366
309.87	0.363
310.34	0.358
310.80	0.354
311.27	0.348
311.74	0.349
312.20	0.347
312.67	0.342
313.13	0.338
313.60	0.333
314.07	0.332
314.53	0.328
315.00	0.325
315.47	0.326
315.93	0.324
316.40	0.321
316.86	0.319
317.33	0.318
317.80	0.315
318.26	0.314
318.73	0.312
319.19	0.313
319.66	0.309
320.13	0.308
320.59	0.307
321.06	0.309
321.52	0.302
321.99	0.304
322.45	0.298
322.92	0.302
323.39	0.299
323.85	0.299
324.32	0.296
324.78	0.292
325.25	0.292
325.71	0.294
326.18	0.293
326.64	0.288
327.11	0.287
327.58	0.286
328.04	0.286
328.51	0.283
328.97	0.282
329.44	0.281
329.90	0.277
330.37	0.276
330.83	0.279
331.30	0.275
331.76	0.271
332.23	0.273
332.69	0.268
333.16	0.267
333.62	0.263
334.09	0.262
334.56	0.258
335.02	0.258
335.49	0.255
335.95	0.253
336.42	0.253
336.88	0.248
337.35	0.246
337.81	0.243
338.28	0.247
338.74	0.246
339.20	0.248
339.67	0.246
340.13	0.244
340.60	0.240
341.06	0.238
341.53	0.236
341.99	0.235
342.46	0.231
342.92	0.231
343.39	0.229
343.85	0.228
344.32	0.227
344.78	0.228
345.25	0.231
345.71	0.229
346.17	0.231
346.64	0.232
347.10	0.229
347.57	0.224
348.03	0.220
348.50	0.219
348.96	0.220
349.43	0.220
349.89	0.220
350.35	0.219
350.82	0.217
351.28	0.220
351.75	0.215
352.21	0.220
352.67	0.212
353.14	0.218
353.60	0.212
354.07	0.213
354.53	0.212
355.00	0.209
355.46	0.206
355.92	0.205
356.39	0.210
356.85	0.205
357.31	0.200
357.78	0.202
358.24	0.201
358.71	0.201
359.17	0.200
359.63	0.197
360.10	0.198
360.56	0.196
361.03	0.197
361.49	0.196
361.95	0.192
362.42	0.193
362.88	0.192
363.34	0.193
363.81	0.190
364.27	0.190
364.73	0.192
365.20	0.187
365.66	0.187
366.12	0.188
366.59	0.187
367.05	0.186
367.51	0.185
367.98	0.184
368.44	0.186
368.90	0.183
369.37	0.180
369.83	0.185
370.29	0.181
370.76	0.179
371.22	0.180
371.68	0.179
372.15	0.178
372.61	0.176
373.07	0.179
373.54	0.177
374.00	0.176
374.46	0.178
374.92	0.177
375.39	0.177
375.85	0.177
376.31	0.175
376.78	0.175
377.24	0.176
377.70	0.175
378.16	0.175
378.63	0.176
379.09	0.176
379.55	0.174
380.01	0.176
380.48	0.174
380.94	0.175
381.40	0.173
381.87	0.174
382.33	0.173
382.79	0.171
383.25	0.171
383.72	0.174
384.18	0.173
384.64	0.172
385.10	0.170
385.56	0.169
386.03	0.171
386.49	0.169
386.95	0.172
387.41	0.170
387.88	0.168
388.34	0.166
388.80	0.170
389.26	0.172
389.72	0.170
390.19	0.167
390.65	0.168
391.11	0.168
391.57	0.167
392.04	0.167
392.50	0.167
392.96	0.166
393.42	0.166
393.88	0.170
394.34	0.164
394.81	0.168
395.27	0.167
395.73	0.164
396.19	0.165
396.65	0.163
397.12	0.162
397.58	0.163
398.04	0.162
398.50	0.164
398.96	0.163
399.42	0.163
399.89	0.166
400.35	0.165
400.81	0.160
401.27	0.162
401.73	0.160
402.19	0.159
402.65	0.160
403.12	0.160
403.58	0.160
404.04	0.156
404.50	0.159
404.96	0.156
405.42	0.159
405.88	0.155
406.34	0.161
406.81	0.158
407.27	0.156
407.73	0.151
408.19	0.153
408.65	0.151
409.11	0.153
409.57	0.153
410.03	0.156
410.49	0.154
410.96	0.153
411.42	0.155
411.88	0.150
412.34	0.149
412.80	0.153
413.26	0.152
413.72	0.151
414.18	0.150
414.64	0.150
415.10	0.152
415.56	0.153
416.02	0.149
416.48	0.148
416.95	0.150
417.41	0.149
417.87	0.150
418.33	0.146
418.79	0.146
419.25	0.147
419.71	0.147
420.17	0.148
420.63	0.146
421.09	0.145
421.55	0.148
422.01	0.148
422.47	0.151
422.93	0.149
423.39	0.147
423.85	0.144
424.31	0.145
424.77	0.146
425.23	0.145
425.69	0.151
426.15	0.149
426.61	0.147
427.07	0.141
427.53	0.146
427.99	0.147
428.45	0.146
428.91	0.145
429.37	0.143
429.83	0.143
430.29	0.147
430.75	0.147
431.21	0.147
431.67	0.149
432.13	0.147
432.59	0.146
433.05	0.146
433.51	0.142
433.97	0.139
434.43	0.148
434.89	0.147
435.35	0.145
435.81	0.145
436.27	0.145
436.73	0.144
437.19	0.144
437.65	0.144
438.11	0.142
438.57	0.144
439.03	0.141
439.48	0.144
439.94	0.142
440.40	0.144
440.86	0.139
441.32	0.142
441.78	0.139
442.24	0.143
442.70	0.144
443.16	0.139
443.62	0.143
444.08	0.137
444.54	0.140
444.99	0.141
445.45	0.139
445.91	0.139
446.37	0.139
446.83	0.139
447.29	0.139
447.75	0.139
448.21	0.142
448.67	0.141
449.12	0.139
449.58	0.141
450.04	0.140
450.50	0.141
450.96	0.138
451.42	0.139
451.88	0.140
452.34	0.139
452.79	0.139
453.25	0.141
453.71	0.140
454.17	0.141
454.63	0.141
455.09	0.141
455.55	0.137
456.00	0.134
456.46	0.138
456.92	0.137
457.38	0.139
457.84	0.139
458.30	0.141
458.75	0.139
459.21	0.137
459.67	0.138
460.13	0.136
460.59	0.137
461.04	0.138
461.50	0.137
461.96	0.138
462.42	0.138
462.88	0.137
463.33	0.136
463.79	0.138
464.25	0.136
464.71	0.140
465.17	0.136
465.62	0.137
466.08	0.138
466.54	0.141
467.00	0.137
467.46	0.140
467.91	0.139
468.37	0.137
468.83	0.139
469.29	0.138
469.74	0.140
470.20	0.140
470.66	0.138
471.12	0.138
471.57	0.138
472.03	0.138
472.49	0.139
472.95	0.141
473.40	0.139
473.86	0.140
474.32	0.137
474.78	0.138
475.23	0.136
475.69	0.138
476.15	0.140
476.60	0.139
477.06	0.139
477.52	0.136
477.98	0.138
478.43	0.139
478.89	0.139
479.35	0.139
479.80	0.137
480.26	0.136
480.72	0.138
481.18	0.136
481.63	0.139
482.09	0.138
482.55	0.137
483.00	0.136
483.46	0.138
483.92	0.135
484.37	0.136
484.83	0.134
485.29	0.137
485.74	0.135
486.20	0.136
486.66	0.138
487.11	0.135
487.57	0.136
488.03	0.135
488.48	0.138
488.94	0.136
489.40	0.135
489.85	0.137
490.31	0.137
490.77	0.135
491.22	0.138
491.68	0.136
492.13	0.137
492.59	0.137
493.05	0.136
493.50	0.134
493.96	0.135
494.42	0.137
494.87	0.138
495.33	0.134
495.78	0.135
496.24	0.135
496.70	0.138
497.15	0.135
497.61	0.137
498.06	0.135
498.52	0.134
498.98	0.133
499.43	0.135
499.89	0.136
500.34	0.135
500.80	0.135
501.25	0.135
501.71	0.133
502.17	0.134
502.62	0.133
503.08	0.131
503.53	0.133
503.99	0.133
504.44	0.134
504.90	0.133
505.36	0.135
505.81	0.134
506.27	0.133
506.72	0.133
507.18	0.134
507.63	0.132
508.09	0.134
508.54	0.132
509.00	0.134
509.45	0.133
509.91	0.132
510.36	0.132
510.82	0.134
511.27	0.132
511.73	0.135
512.19	0.133
512.64	0.132
513.10	0.135
513.55	0.132
514.01	0.134
514.46	0.136
514.92	0.132
515.37	0.134
515.83	0.132
516.28	0.132
516.73	0.133
517.19	0.133
517.64	0.131
518.10	0.131
518.55	0.132
519.01	0.132
519.46	0.130
519.92	0.131
520.37	0.130
520.83	0.132
521.28	0.130
521.74	0.130
522.19	0.132
522.65	0.130
523.10	0.130
523.55	0.131
524.01	0.132
524.46	0.132
524.92	0.131
525.37	0.133
525.83	0.132
526.28	0.132
526.73	0.131
527.19	0.131
527.64	0.131
528.10	0.131
528.55	0.133
529.01	0.133
529.46	0.132
529.91	0.131
530.37	0.130
530.82	0.131
531.28	0.132
531.73	0.131
532.18	0.132
532.64	0.131
533.09	0.133
533.54	0.130
534.00	0.133
534.45	0.134
534.91	0.130
535.36	0.131
535.81	0.131
536.27	0.131
536.72	0.132
537.17	0.132
537.63	0.132
538.08	0.135
538.54	0.133
538.99	0.136
539.44	0.133
539.90	0.134
540.35	0.134
540.80	0.132
541.26	0.132
541.71	0.138
542.16	0.137
542.62	0.137
543.07	0.136
543.52	0.134
543.98	0.135
544.43	0.136
544.88	0.134
545.34	0.137
545.79	0.137
546.24	0.136
546.69	0.137
547.15	0.138
547.60	0.139
548.05	0.140
548.51	0.140
548.96	0.139
549.41	0.140
549.86	0.139
550.32	0.144
550.77	0.140
551.22	0.140
551.68	0.141
552.13	0.144
552.58	0.142
553.03	0.143
553.49	0.141
553.94	0.144
554.39	0.143
554.84	0.145
555.30	0.145
555.75	0.145
556.20	0.145
556.65	0.148
557.11	0.147
557.56	0.149
558.01	0.151
558.46	0.148
558.92	0.149
559.37	0.151
559.82	0.150
560.27	0.148
560.72	0.149
561.18	0.151
561.63	0.152
562.08	0.152
562.53	0.153
562.99	0.154
563.44	0.156
563.89	0.157
564.34	0.155
564.79	0.155
565.25	0.158
565.70	0.157
566.15	0.156
566.60	0.160
567.05	0.161
567.50	0.160
567.96	0.162
568.41	0.162
568.86	0.163
569.31	0.164
569.76	0.162
570.21	0.164
570.67	0.164
571.12	0.165
571.57	0.166
572.02	0.167
572.47	0.169
572.92	0.167
573.37	0.170
573.83	0.170
574.28	0.168
574.73	0.171
575.18	0.171
575.63	0.171
576.08	0.172
576.53	0.173
576.98	0.174
577.44	0.177
577.89	0.175
578.34	0.180
578.79	0.179
579.24	0.180
579.69	0.180
580.14	0.182
580.59	0.185
581.04	0.185
581.49	0.187
581.95	0.188
582.40	0.190
582.85	0.191
583.30	0.191
583.75	0.193
584.20	0.195
584.65	0.196
585.10	0.198
585.55	0.199
586.00	0.199
586.45	0.201
586.90	0.202
587.35	0.203
587.80	0.206
588.25	0.209
588.71	0.210
589.16	0.213
589.61	0.211
590.06	0.215
590.51	0.216
590.96	0.217
591.41	0.223
591.86	0.224
592.31	0.224
592.76	0.226
593.21	0.224
593.66	0.231
594.11	0.233
594.56	0.235
595.01	0.233
595.46	0.235
595.91	0.239
596.36	0.241
596.81	0.243
597.26	0.244
597.71	0.246
598.16	0.249
598.61	0.252
599.06	0.252
599.51	0.253
599.96	0.256
600.41	0.261
600.86	0.260
601.31	0.262
601.76	0.265
602.21	0.268
602.65	0.270
603.10	0.270
603.55	0.273
604.00	0.275
604.45	0.277
604.90	0.276
605.35	0.281
605.80	0.280
606.25	0.283
606.70	0.286
607.15	0.286
607.60	0.288
608.05	0.287
608.50	0.289
608.95	0.291
609.39	0.293
609.84	0.295
610.29	0.297
610.74	0.296
611.19	0.300
611.64	0.297
612.09	0.301
612.54	0.301
612.99	0.302
613.44	0.302
613.88	0.305
614.33	0.304
614.78	0.305
615.23	0.307
615.68	0.307
616.13	0.307
616.58	0.309
617.03	0.310
617.47	0.311
617.92	0.311
618.37	0.314
618.82	0.312
619.27	0.311
619.72	0.315
620.17	0.313
620.61	0.315
621.06	0.313
621.51	0.314
621.96	0.316
622.41	0.317
622.86	0.317
623.30	0.319
623.75	0.319
624.20	0.320
624.65	0.319
625.10	0.322
625.54	0.322
625.99	0.322
626.44	0.323
626.89	0.325
627.34	0.324
627.78	0.328
628.23	0.328
628.68	0.328
629.13	0.330
629.58	0.332
630.02	0.333
630.47	0.336
630.92	0.335
631.37	0.340
631.81	0.339
632.26	0.339
632.71	0.342
633.16	0.346
633.61	0.346
634.05	0.348
634.50	0.349
634.95	0.352
635.40	0.353
635.84	0.356
636.29	0.360
636.74	0.363
637.18	0.362
637.63	0.366
638.08	0.369
638.53	0.369
638.97	0.375
639.42	0.377
639.87	0.379
640.32	0.381
640.76	0.384
641.21	0.389
641.66	0.389
642.10	0.393
642.55	0.396
643.00	0.401
643.44	0.400
643.89	0.406
644.34	0.408
644.79	0.414
645.23	0.414
645.68	0.419
646.13	0.424
646.57	0.422
647.02	0.426
647.47	0.432
647.91	0.431
648.36	0.435
648.81	0.443
649.25	0.445
649.70	0.445
650.15	0.449
650.59	0.454
651.04	0.456
651.48	0.457
651.93	0.463
652.38	0.466
652.82	0.468
653.27	0.465
653.72	0.471
654.16	0.477
654.61	0.478
655.06	0.479
655.50	0.481
655.95	0.481
656.39	0.484
656.84	0.489
657.29	0.493
657.73	0.496
658.18	0.492
658.62	0.498
659.07	0.502
659.52	0.502
659.96	0.505
660.41	0.506
660.85	0.508
661.30	0.508
661.74	0.510
662.19	0.512
662.64	0.508
663.08	0.512
663.53	0.513
663.97	0.512
664.42	0.510
664.86	0.515
665.31	0.513
665.75	0.511
666.20	0.510
666.65	0.512
667.09	0.509
667.54	0.508
667.98	0.508
668.43	0.503
668.87	0.504
669.32	0.499
669.76	0.497
670.21	0.495
670.65	0.488
671.10	0.486
671.54	0.483
671.99	0.479
672.43	0.472
672.88	0.466
673.32	0.462
673.77	0.458
674.21	0.450
674.66	0.442
675.10	0.437
675.55	0.429
675.99	0.427
676.44	0.416
676.88	0.410
677.33	0.401
677.77	0.394
678.22	0.386
678.66	0.377
679.11	0.370
679.55	0.360
679.99	0.352
680.44	0.344
680.88	0.336
681.33	0.330
681.77	0.320
682.22	0.313
682.66	0.305
683.11	0.296
683.55	0.289
683.99	0.282
684.44	0.275
684.88	0.270
685.33	0.263
685.77	0.253
686.21	0.246
686.66	0.239
687.10	0.232
687.55	0.227
687.99	0.219
688.44	0.215
688.88	0.210
689.32	0.204
689.77	0.199
690.21	0.192
690.65	0.188
691.10	0.182
691.54	0.179
691.99	0.175
692.43	0.170
692.87	0.166
693.32	0.162
693.76	0.158
694.20	0.155
694.65	0.150
695.09	0.147
695.53	0.144
695.98	0.141
696.42	0.142
696.86	0.138
697.31	0.136
697.75	0.132
698.19	0.131
698.64	0.128
699.08	0.125
699.52	0.125
699.97	0.122
700.41	0.122
700.85	0.121
701.30	0.116
701.74	0.116
702.18	0.113
702.63	0.114
703.07	0.109
703.51	0.111
703.96	0.109
704.40	0.108
704.84	0.108
705.28	0.105
705.73	0.106
706.17	0.104
706.61	0.104
707.06	0.103
707.50	0.103
707.94	0.103
708.38	0.099
708.83	0.100
709.27	0.101
709.71	0.099
710.15	0.097
710.60	0.100
711.04	0.096
711.48	0.097
711.92	0.097
712.37	0.094
712.81	0.095
713.25	0.097
713.69	0.095
714.13	0.091
714.58	0.093
715.02	0.091
715.46	0.092
715.90	0.093
716.35	0.093
716.79	0.095
717.23	0.094
717.67	0.094
718.11	0.092
718.56	0.091
719.00	0.093
719.44	0.093
719.88	0.094
720.32	0.094
720.76	0.089
721.21	0.092
721.65	0.092
722.09	0.091
722.53	0.090
722.97	0.090
723.41	0.091
723.86	0.092
724.30	0.091
724.74	0.092
725.18	0.091
725.62	0.091
726.06	0.091
726.50	0.091
726.95	0.092
727.39	0.091
727.83	0.090
728.27	0.093
728.71	0.092
729.15	0.092
729.59	0.090
730.03	0.092
730.48	0.091
730.92	0.093
731.36	0.092
731.80	0.091
732.24	0.091
732.68	0.094
733.12	0.092
733.56	0.093
734.00	0.094
734.44	0.093
734.89	0.093
735.33	0.091
735.77	0.094
736.21	0.092
736.65	0.094
737.09	0.096
737.53	0.097
737.97	0.094
738.41	0.092
738.85	0.095
739.29	0.094
739.73	0.093
740.17	0.093
740.61	0.091
741.05	0.097
741.49	0.095
741.93	0.093
742.37	0.094
742.81	0.094
743.26	0.093
743.70	0.094
744.14	0.092
744.58	0.093
745.02	0.092
745.46	0.093
745.90	0.092
746.34	0.093
746.78	0.095
747.22	0.091
747.66	0.092
748.10	0.095
748.54	0.093
748.98	0.092
749.42	0.096
749.86	0.095
750.29	0.092
750.73	0.093
751.17	0.093
751.61	0.093
752.05	0.091
752.49	0.092
752.93	0.092
753.37	0.095
753.81	0.092
754.25	0.090
754.69	0.092
755.13	0.093
755.57	0.091
756.01	0.091
756.45	0.088
756.89	0.090
757.33	0.090
757.77	0.091
758.21	0.093
758.64	0.090
759.08	0.089
759.52	0.091
759.96	0.091
760.40	0.093
760.84	0.087
761.28	0.088
761.72	0.092
762.16	0.092
762.60	0.092
763.03	0.089
763.47	0.091
763.91	0.090
764.35	0.088
764.79	0.092
765.23	0.092
765.67	0.089
766.11	0.092
766.54	0.090
766.98	0.089
767.42	0.091
767.86	0.095
768.30	0.089
768.74	0.086
769.17	0.090
769.61	0.087
770.05	0.088
770.49	0.092
770.93	0.088
771.37	0.092
771.80	0.088
772.24	0.086
772.68	0.090
773.12	0.087
773.56	0.090
774.00	0.092
774.43	0.089
774.87	0.087
775.31	0.089
775.75	0.089
776.19	0.088
776.62	0.091
777.06	0.088
777.50	0.088
777.94	0.086
778.37	0.092
778.81	0.089
779.25	0.087
779.69	0.091
780.13	0.089
780.56	0.087
781.00	0.091
781.44	0.089
781.88	0.089
782.31	0.089
782.75	0.086
783.19	0.088
783.63	0.088
784.06	0.087
784.50	0.087
784.94	0.091
785.37	0.088
785.81	0.086
786.25	0.087
786.69	0.088
787.12	0.088
787.56	0.088
788.00	0.091
788.43	0.089
788.87	0.089
789.31	0.091
789.75	0.087
790.18	0.088
790.62	0.085
791.06	0.090
791.49	0.090
791.93	0.086
792.37	0.087
792.80	0.091
793.24	0.089
793.68	0.090
794.11	0.090
794.55	0.090
794.99	0.088
795.42	0.092
795.86	0.093
796.30	0.088
796.73	0.088
797.17	0.087
797.61	0.093
798.04	0.090
798.48	0.089
798.91	0.087
799.35	0.089
799.79	0.090
800.22	0.090
800.66	0.086
801.10	0.092
801.53	0.092
801.97	0.091
802.40	0.086
802.84	0.087
803.28	0.086
803.71	0.088
804.15	0.090
804.58	0.093
805.02	0.091
805.46	0.089
805.89	0.089
806.33	0.091
806.76	0.086
807.20	0.089
807.63	0.088
808.07	0.090
808.51	0.090
808.94	0.085
809.38	0.086
809.81	0.091
810.25	0.085
810.68	0.091
811.12	0.087
811.55	0.090
811.99	0.088
812.42	0.088
812.86	0.087
813.29	0.088
813.73	0.087
814.17	0.082
814.60	0.085
815.04	0.088
815.47	0.086
815.91	0.087
816.34	0.088
816.78	0.092
