SpectraSuite Data File
++++++++++++++++++++++++++++++++++++
Date: Wed May 04 13:09:41 CEST 2016
User: spectrasuite
Dark Spectrum Present: Yes
Reference Spectrum Present: Yes
Number of Sampled Component Spectra: 1
Spectrometers: HR+C0708
Integration Time (usec): 1000 (HR+C0708)
Spectra Averaged: 10 (HR+C0708)
Boxcar Smoothing: 0 (HR+C0708)
Correct for Electrical Dark: No (HR+C0708)
Strobe/Lamp Enabled: No (HR+C0708)
Correct for Detector Non-linearity: No (HR+C0708)
Correct for Stray Light: No (HR+C0708)
Number of Pixels in Processed Spectrum: 2048
>>>>>Begin Processed Spectral Data<<<<<
188.76	0.357
189.23	-0.000
189.70	0.253
190.17	0.163
190.64	-0.000
191.12	-0.000
191.59	-0.000
192.06	1.074
192.53	-0.000
193.01	-0.000
193.48	0.196
193.95	-0.000
194.42	0.724
194.90	0.491
195.37	0.596
195.84	-0.000
196.31	0.746
196.78	0.530
197.26	-0.000
197.73	0.389
198.20	0.091
198.67	1.439
199.14	-0.000
199.62	-0.000
200.09	0.891
200.56	0.559
201.03	0.736
201.50	0.542
201.97	0.413
202.45	0.636
202.92	0.506
203.39	0.414
203.86	0.496
204.33	0.432
204.80	0.542
205.28	0.502
205.75	0.590
206.22	0.536
206.69	0.536
207.16	0.447
207.63	0.650
208.11	0.760
208.58	0.587
209.05	0.857
209.52	0.643
209.99	0.510
210.46	0.402
210.93	0.550
211.41	0.484
211.88	0.553
212.35	0.477
212.82	-0.000
213.29	0.600
213.76	0.685
214.23	0.450
214.70	0.487
215.18	0.451
215.65	0.447
216.12	0.759
216.59	0.518
217.06	0.534
217.53	0.331
218.00	0.654
218.47	0.538
218.94	0.771
219.41	0.623
219.89	0.588
220.36	0.481
220.83	0.550
221.30	1.157
221.77	0.747
222.24	0.711
222.71	0.536
223.18	0.674
223.65	0.550
224.12	0.542
224.59	0.724
225.06	0.846
225.54	0.686
226.01	0.929
226.48	0.959
226.95	0.914
227.42	0.916
227.89	1.207
228.36	1.137
228.83	1.039
229.30	0.977
229.77	1.490
230.24	1.193
230.71	1.183
231.18	1.406
231.65	1.896
232.12	1.511
232.59	1.434
233.06	1.586
233.53	2.127
234.00	1.595
234.47	1.760
234.94	2.083
235.41	1.707
235.88	1.811
236.35	2.021
236.82	1.885
237.29	1.882
237.76	1.886
238.23	2.532
238.70	2.203
239.17	2.034
239.64	2.916
240.11	2.276
240.58	2.089
241.05	2.103
241.52	2.363
241.99	2.227
242.46	2.192
242.93	2.187
243.40	2.513
243.87	2.317
244.34	2.162
244.81	2.291
245.28	2.474
245.75	2.314
246.22	2.396
246.69	2.855
247.16	2.239
247.63	2.517
248.10	2.383
248.57	2.902
249.04	2.482
249.51	2.334
249.98	3.364
250.45	2.669
250.92	2.422
251.39	2.442
251.85	2.429
252.32	2.368
252.79	2.280
253.26	2.268
253.73	2.237
254.20	2.063
254.67	2.037
255.14	2.121
255.61	2.052
256.08	1.932
256.55	1.898
257.02	1.889
257.49	1.810
257.95	1.787
258.42	1.733
258.89	1.732
259.36	1.714
259.83	1.662
260.30	1.663
260.77	1.624
261.24	1.574
261.71	1.568
262.17	1.573
262.64	1.549
263.11	1.512
263.58	1.506
264.05	1.478
264.52	1.453
264.99	1.440
265.46	1.429
265.92	1.409
266.39	1.400
266.86	1.392
267.33	1.372
267.80	1.369
268.27	1.344
268.74	1.351
269.20	1.321
269.67	1.325
270.14	1.308
270.61	1.295
271.08	1.289
271.55	1.271
272.01	1.279
272.48	1.256
272.95	1.240
273.42	1.247
273.89	1.234
274.36	1.223
274.82	1.213
275.29	1.213
275.76	1.213
276.23	1.202
276.70	1.185
277.16	1.188
277.63	1.179
278.10	1.163
278.57	1.172
279.04	1.169
279.50	1.168
279.97	1.159
280.44	1.160
280.91	1.151
281.38	1.145
281.84	1.143
282.31	1.139
282.78	1.138
283.25	1.137
283.72	1.142
284.18	1.132
284.65	1.139
285.12	1.130
285.59	1.128
286.05	1.127
286.52	1.122
286.99	1.127
287.46	1.135
287.92	1.122
288.39	1.119
288.86	1.123
289.33	1.126
289.79	1.112
290.26	1.124
290.73	1.122
291.20	1.118
291.66	1.110
292.13	1.107
292.60	1.101
293.07	1.100
293.53	1.092
294.00	1.089
294.47	1.078
294.93	1.068
295.40	1.067
295.87	1.057
296.34	1.045
296.80	1.033
297.27	1.029
297.74	1.024
298.20	1.008
298.67	1.005
299.14	0.990
299.60	0.983
300.07	0.969
300.54	0.966
301.01	0.953
301.47	0.940
301.94	0.931
302.41	0.922
302.87	0.916
303.34	0.902
303.81	0.892
304.27	0.885
304.74	0.872
305.21	0.864
305.67	0.862
306.14	0.847
306.61	0.845
307.07	0.831
307.54	0.829
308.01	0.823
308.47	0.811
308.94	0.806
309.40	0.803
309.87	0.795
310.34	0.788
310.80	0.788
311.27	0.778
311.74	0.771
312.20	0.768
312.67	0.772
313.13	0.757
313.60	0.754
314.07	0.752
314.53	0.746
315.00	0.744
315.47	0.744
315.93	0.748
316.40	0.736
316.86	0.726
317.33	0.727
317.80	0.730
318.26	0.721
318.73	0.719
319.19	0.717
319.66	0.711
320.13	0.705
320.59	0.700
321.06	0.701
321.52	0.699
321.99	0.693
322.45	0.693
322.92	0.689
323.39	0.682
323.85	0.679
324.32	0.677
324.78	0.670
325.25	0.670
325.71	0.668
326.18	0.661
326.64	0.662
327.11	0.653
327.58	0.651
328.04	0.647
328.51	0.645
328.97	0.647
329.44	0.640
329.90	0.634
330.37	0.627
330.83	0.629
331.30	0.625
331.76	0.619
332.23	0.620
332.69	0.617
333.16	0.611
333.62	0.608
334.09	0.605
334.56	0.605
335.02	0.597
335.49	0.598
335.95	0.594
336.42	0.594
336.88	0.590
337.35	0.586
337.81	0.586
338.28	0.586
338.74	0.582
339.20	0.579
339.67	0.581
340.13	0.582
340.60	0.578
341.06	0.573
341.53	0.573
341.99	0.572
342.46	0.570
342.92	0.566
343.39	0.563
343.85	0.561
344.32	0.562
344.78	0.557
345.25	0.560
345.71	0.556
346.17	0.554
346.64	0.555
347.10	0.548
347.57	0.540
348.03	0.535
348.50	0.533
348.96	0.525
349.43	0.524
349.89	0.517
350.35	0.513
350.82	0.501
351.28	0.499
351.75	0.495
352.21	0.488
352.67	0.480
353.14	0.475
353.60	0.465
354.07	0.453
354.53	0.450
355.00	0.437
355.46	0.426
355.92	0.418
356.39	0.411
356.85	0.395
357.31	0.378
357.78	0.369
358.24	0.358
358.71	0.342
359.17	0.328
359.63	0.310
360.10	0.297
360.56	0.281
361.03	0.268
361.49	0.251
361.95	0.233
362.42	0.221
362.88	0.208
363.34	0.195
363.81	0.179
364.27	0.172
364.73	0.161
365.20	0.150
365.66	0.141
366.12	0.136
366.59	0.129
367.05	0.125
367.51	0.119
367.98	0.114
368.44	0.111
368.90	0.107
369.37	0.106
369.83	0.103
370.29	0.099
370.76	0.098
371.22	0.095
371.68	0.097
372.15	0.095
372.61	0.092
373.07	0.092
373.54	0.092
374.00	0.091
374.46	0.090
374.92	0.090
375.39	0.090
375.85	0.089
376.31	0.089
376.78	0.088
377.24	0.084
377.70	0.085
378.16	0.086
378.63	0.086
379.09	0.086
379.55	0.084
380.01	0.086
380.48	0.085
380.94	0.084
381.40	0.081
381.87	0.086
382.33	0.082
382.79	0.081
383.25	0.081
383.72	0.083
384.18	0.082
384.64	0.080
385.10	0.080
385.56	0.080
386.03	0.081
386.49	0.080
386.95	0.079
387.41	0.080
387.88	0.076
388.34	0.077
388.80	0.077
389.26	0.078
389.72	0.079
390.19	0.077
390.65	0.078
391.11	0.078
391.57	0.076
392.04	0.076
392.50	0.077
392.96	0.077
393.42	0.074
393.88	0.076
394.34	0.075
394.81	0.076
395.27	0.076
395.73	0.071
396.19	0.075
396.65	0.074
397.12	0.072
397.58	0.073
398.04	0.073
398.50	0.073
398.96	0.071
399.42	0.070
399.89	0.069
400.35	0.071
400.81	0.070
401.27	0.072
401.73	0.069
402.19	0.071
402.65	0.068
403.12	0.070
403.58	0.069
404.04	0.067
404.50	0.067
404.96	0.065
405.42	0.066
405.88	0.067
406.34	0.067
406.81	0.067
407.27	0.065
407.73	0.063
408.19	0.065
408.65	0.065
409.11	0.065
409.57	0.064
410.03	0.067
410.49	0.065
410.96	0.062
411.42	0.065
411.88	0.062
412.34	0.060
412.80	0.064
413.26	0.064
413.72	0.062
414.18	0.059
414.64	0.062
415.10	0.062
415.56	0.064
416.02	0.063
416.48	0.061
416.95	0.064
417.41	0.061
417.87	0.062
418.33	0.061
418.79	0.058
419.25	0.062
419.71	0.059
420.17	0.057
420.63	0.058
421.09	0.059
421.55	0.061
422.01	0.058
422.47	0.060
422.93	0.059
423.39	0.059
423.85	0.057
424.31	0.058
424.77	0.059
425.23	0.056
425.69	0.058
426.15	0.062
426.61	0.060
427.07	0.055
427.53	0.055
427.99	0.058
428.45	0.058
428.91	0.056
429.37	0.059
429.83	0.058
430.29	0.058
430.75	0.058
431.21	0.057
431.67	0.058
432.13	0.058
432.59	0.056
433.05	0.060
433.51	0.058
433.97	0.056
434.43	0.057
434.89	0.062
435.35	0.058
435.81	0.060
436.27	0.060
436.73	0.057
437.19	0.060
437.65	0.055
438.11	0.058
438.57	0.059
439.03	0.058
439.48	0.059
439.94	0.057
440.40	0.056
440.86	0.056
441.32	0.059
441.78	0.057
442.24	0.060
442.70	0.057
443.16	0.056
443.62	0.060
444.08	0.056
444.54	0.059
444.99	0.057
445.45	0.054
445.91	0.058
446.37	0.058
446.83	0.058
447.29	0.058
447.75	0.057
448.21	0.061
448.67	0.059
449.12	0.057
449.58	0.058
450.04	0.060
450.50	0.057
450.96	0.056
451.42	0.057
451.88	0.059
452.34	0.054
452.79	0.057
453.25	0.059
453.71	0.058
454.17	0.056
454.63	0.057
455.09	0.059
455.55	0.059
456.00	0.055
456.46	0.059
456.92	0.058
457.38	0.059
457.84	0.059
458.30	0.059
458.75	0.056
459.21	0.056
459.67	0.058
460.13	0.060
460.59	0.059
461.04	0.060
461.50	0.057
461.96	0.060
462.42	0.058
462.88	0.059
463.33	0.061
463.79	0.060
464.25	0.058
464.71	0.058
465.17	0.057
465.62	0.058
466.08	0.059
466.54	0.060
467.00	0.057
467.46	0.058
467.91	0.058
468.37	0.057
468.83	0.058
469.29	0.057
469.74	0.059
470.20	0.060
470.66	0.056
471.12	0.057
471.57	0.058
472.03	0.057
472.49	0.059
472.95	0.061
473.40	0.059
473.86	0.061
474.32	0.058
474.78	0.058
475.23	0.061
475.69	0.059
476.15	0.060
476.60	0.060
477.06	0.060
477.52	0.057
477.98	0.059
478.43	0.062
478.89	0.060
479.35	0.060
479.80	0.061
480.26	0.059
480.72	0.059
481.18	0.060
481.63	0.062
482.09	0.062
482.55	0.059
483.00	0.059
483.46	0.063
483.92	0.060
484.37	0.061
484.83	0.058
485.29	0.062
485.74	0.059
486.20	0.060
486.66	0.060
487.11	0.060
487.57	0.059
488.03	0.060
488.48	0.061
488.94	0.058
489.40	0.059
489.85	0.061
490.31	0.060
490.77	0.061
491.22	0.063
491.68	0.059
492.13	0.061
492.59	0.063
493.05	0.060
493.50	0.059
493.96	0.060
494.42	0.060
494.87	0.062
495.33	0.060
495.78	0.060
496.24	0.061
496.70	0.064
497.15	0.061
497.61	0.062
498.06	0.060
498.52	0.060
498.98	0.062
499.43	0.062
499.89	0.061
500.34	0.061
500.80	0.058
501.25	0.060
501.71	0.060
502.17	0.059
502.62	0.060
503.08	0.058
503.53	0.060
503.99	0.059
504.44	0.061
504.90	0.060
505.36	0.061
505.81	0.062
506.27	0.059
506.72	0.059
507.18	0.060
507.63	0.060
508.09	0.060
508.54	0.058
509.00	0.059
509.45	0.058
509.91	0.060
510.36	0.058
510.82	0.060
511.27	0.059
511.73	0.061
512.19	0.060
512.64	0.058
513.10	0.058
513.55	0.058
514.01	0.060
514.46	0.061
514.92	0.058
515.37	0.061
515.83	0.059
516.28	0.059
516.73	0.059
517.19	0.058
517.64	0.059
518.10	0.061
518.55	0.059
519.01	0.061
519.46	0.061
519.92	0.060
520.37	0.059
520.83	0.061
521.28	0.058
521.74	0.059
522.19	0.060
522.65	0.058
523.10	0.059
523.55	0.061
524.01	0.060
524.46	0.061
524.92	0.058
525.37	0.060
525.83	0.061
526.28	0.060
526.73	0.060
527.19	0.060
527.64	0.059
528.10	0.060
528.55	0.061
529.01	0.062
529.46	0.061
529.91	0.059
530.37	0.061
530.82	0.062
531.28	0.061
531.73	0.062
532.18	0.062
532.64	0.063
533.09	0.065
533.54	0.061
534.00	0.062
534.45	0.063
534.91	0.060
535.36	0.062
535.81	0.063
536.27	0.062
536.72	0.062
537.17	0.064
537.63	0.062
538.08	0.065
538.54	0.065
538.99	0.066
539.44	0.065
539.90	0.066
540.35	0.066
540.80	0.065
541.26	0.065
541.71	0.070
542.16	0.068
542.62	0.071
543.07	0.067
543.52	0.068
543.98	0.067
544.43	0.067
544.88	0.068
545.34	0.071
545.79	0.069
546.24	0.070
546.69	0.070
547.15	0.072
547.60	0.071
548.05	0.072
548.51	0.073
548.96	0.074
549.41	0.075
549.86	0.074
550.32	0.074
550.77	0.077
551.22	0.075
551.68	0.075
552.13	0.078
552.58	0.077
553.03	0.078
553.49	0.075
553.94	0.079
554.39	0.080
554.84	0.080
555.30	0.080
555.75	0.081
556.20	0.084
556.65	0.084
557.11	0.084
557.56	0.085
558.01	0.084
558.46	0.082
558.92	0.086
559.37	0.089
559.82	0.086
560.27	0.088
560.72	0.088
561.18	0.088
561.63	0.090
562.08	0.091
562.53	0.090
562.99	0.092
563.44	0.093
563.89	0.094
564.34	0.095
564.79	0.096
565.25	0.096
565.70	0.097
566.15	0.097
566.60	0.098
567.05	0.098
567.50	0.101
567.96	0.101
568.41	0.102
568.86	0.101
569.31	0.102
569.76	0.104
570.21	0.105
570.67	0.103
571.12	0.106
571.57	0.108
572.02	0.109
572.47	0.108
572.92	0.108
573.37	0.111
573.83	0.113
574.28	0.114
574.73	0.112
575.18	0.114
575.63	0.114
576.08	0.118
576.53	0.117
576.98	0.119
577.44	0.121
577.89	0.120
578.34	0.124
578.79	0.121
579.24	0.122
579.69	0.125
580.14	0.127
580.59	0.128
581.04	0.130
581.49	0.129
581.95	0.132
582.40	0.134
582.85	0.137
583.30	0.138
583.75	0.141
584.20	0.140
584.65	0.142
585.10	0.145
585.55	0.146
586.00	0.145
586.45	0.148
586.90	0.150
587.35	0.151
587.80	0.155
588.25	0.156
588.71	0.158
589.16	0.163
589.61	0.162
590.06	0.165
590.51	0.166
590.96	0.169
591.41	0.170
591.86	0.172
592.31	0.176
592.76	0.177
593.21	0.179
593.66	0.182
594.11	0.184
594.56	0.185
595.01	0.188
595.46	0.190
595.91	0.193
596.36	0.196
596.81	0.198
597.26	0.200
597.71	0.201
598.16	0.203
598.61	0.207
599.06	0.209
599.51	0.212
599.96	0.213
600.41	0.217
600.86	0.220
601.31	0.220
601.76	0.226
602.21	0.227
602.65	0.231
603.10	0.230
603.55	0.233
604.00	0.237
604.45	0.237
604.90	0.238
605.35	0.241
605.80	0.241
606.25	0.245
606.70	0.246
607.15	0.249
607.60	0.252
608.05	0.253
608.50	0.254
608.95	0.256
609.39	0.260
609.84	0.261
610.29	0.263
610.74	0.262
611.19	0.263
611.64	0.265
612.09	0.266
612.54	0.268
612.99	0.269
613.44	0.270
613.88	0.271
614.33	0.272
614.78	0.273
615.23	0.275
615.68	0.274
616.13	0.276
616.58	0.276
617.03	0.281
617.47	0.279
617.92	0.279
618.37	0.282
618.82	0.281
619.27	0.283
619.72	0.282
620.17	0.283
620.61	0.284
621.06	0.283
621.51	0.283
621.96	0.284
622.41	0.286
622.86	0.284
623.30	0.286
623.75	0.287
624.20	0.288
624.65	0.290
625.10	0.292
625.54	0.289
625.99	0.289
626.44	0.293
626.89	0.294
627.34	0.294
627.78	0.295
628.23	0.296
628.68	0.298
629.13	0.297
629.58	0.303
630.02	0.303
630.47	0.304
630.92	0.303
631.37	0.309
631.81	0.312
632.26	0.312
632.71	0.314
633.16	0.315
633.61	0.318
634.05	0.322
634.50	0.322
634.95	0.325
635.40	0.329
635.84	0.329
636.29	0.331
636.74	0.338
637.18	0.340
637.63	0.342
638.08	0.344
638.53	0.346
638.97	0.350
639.42	0.353
639.87	0.355
640.32	0.360
640.76	0.363
641.21	0.368
641.66	0.369
642.10	0.375
642.55	0.378
643.00	0.378
643.44	0.384
643.89	0.391
644.34	0.391
644.79	0.396
645.23	0.400
645.68	0.403
646.13	0.408
646.57	0.408
647.02	0.415
647.47	0.419
647.91	0.419
648.36	0.426
648.81	0.428
649.25	0.433
649.70	0.437
650.15	0.443
650.59	0.447
651.04	0.449
651.48	0.452
651.93	0.457
652.38	0.461
652.82	0.465
653.27	0.464
653.72	0.469
654.16	0.473
654.61	0.479
655.06	0.480
655.50	0.484
655.95	0.486
656.39	0.488
656.84	0.490
657.29	0.495
657.73	0.499
658.18	0.501
658.62	0.503
659.07	0.509
659.52	0.509
659.96	0.512
660.41	0.515
660.85	0.516
661.30	0.518
661.74	0.519
662.19	0.522
662.64	0.524
663.08	0.523
663.53	0.524
663.97	0.527
664.42	0.525
664.86	0.525
665.31	0.527
665.75	0.530
666.20	0.527
666.65	0.527
667.09	0.526
667.54	0.525
667.98	0.522
668.43	0.522
668.87	0.521
669.32	0.517
669.76	0.513
670.21	0.513
670.65	0.505
671.10	0.501
671.54	0.498
671.99	0.495
672.43	0.487
672.88	0.481
673.32	0.476
673.77	0.470
674.21	0.463
674.66	0.450
675.10	0.447
675.55	0.438
675.99	0.427
676.44	0.421
676.88	0.415
677.33	0.401
677.77	0.394
678.22	0.385
678.66	0.373
679.11	0.366
679.55	0.355
679.99	0.344
680.44	0.336
680.88	0.326
681.33	0.317
681.77	0.306
682.22	0.295
682.66	0.290
683.11	0.279
683.55	0.272
683.99	0.261
684.44	0.253
684.88	0.245
685.33	0.236
685.77	0.229
686.21	0.218
686.66	0.209
687.10	0.200
687.55	0.195
687.99	0.185
688.44	0.180
688.88	0.174
689.32	0.167
689.77	0.160
690.21	0.155
690.65	0.148
691.10	0.142
691.54	0.139
691.99	0.132
692.43	0.129
692.87	0.123
693.32	0.119
693.76	0.115
694.20	0.110
694.65	0.106
695.09	0.101
695.53	0.098
695.98	0.094
696.42	0.092
696.86	0.091
697.31	0.087
697.75	0.084
698.19	0.081
698.64	0.078
699.08	0.076
699.52	0.074
699.97	0.070
700.41	0.070
700.85	0.069
701.30	0.064
701.74	0.064
702.18	0.060
702.63	0.061
703.07	0.056
703.51	0.058
703.96	0.055
704.40	0.055
704.84	0.051
705.28	0.052
705.73	0.051
706.17	0.049
706.61	0.050
707.06	0.047
707.50	0.049
707.94	0.048
708.38	0.045
708.83	0.045
709.27	0.044
709.71	0.044
710.15	0.043
710.60	0.044
711.04	0.039
711.48	0.042
711.92	0.041
712.37	0.040
712.81	0.039
713.25	0.041
713.69	0.037
714.13	0.037
714.58	0.039
715.02	0.037
715.46	0.037
715.90	0.038
716.35	0.036
716.79	0.036
717.23	0.038
717.67	0.038
718.11	0.034
718.56	0.036
719.00	0.036
719.44	0.036
719.88	0.036
720.32	0.036
720.76	0.035
721.21	0.037
721.65	0.036
722.09	0.035
722.53	0.035
722.97	0.034
723.41	0.034
723.86	0.034
724.30	0.034
724.74	0.037
725.18	0.034
725.62	0.034
726.06	0.036
726.50	0.035
726.95	0.037
727.39	0.036
727.83	0.035
728.27	0.036
728.71	0.036
729.15	0.034
729.59	0.034
730.03	0.035
730.48	0.036
730.92	0.038
731.36	0.035
731.80	0.035
732.24	0.036
732.68	0.037
733.12	0.036
733.56	0.038
734.00	0.039
734.44	0.035
734.89	0.037
735.33	0.035
735.77	0.038
736.21	0.039
736.65	0.038
737.09	0.041
737.53	0.038
737.97	0.036
738.41	0.039
738.85	0.039
739.29	0.037
739.73	0.038
740.17	0.037
740.61	0.037
741.05	0.041
741.49	0.039
741.93	0.037
742.37	0.037
742.81	0.037
743.26	0.037
743.70	0.037
744.14	0.039
744.58	0.038
745.02	0.038
745.46	0.036
745.90	0.035
746.34	0.039
746.78	0.040
747.22	0.037
747.66	0.036
748.10	0.038
748.54	0.038
748.98	0.037
749.42	0.038
749.86	0.037
750.29	0.036
750.73	0.038
751.17	0.038
751.61	0.039
752.05	0.035
752.49	0.037
752.93	0.036
753.37	0.038
753.81	0.036
754.25	0.036
754.69	0.039
755.13	0.039
755.57	0.036
756.01	0.036
756.45	0.033
756.89	0.037
757.33	0.036
757.77	0.038
758.21	0.038
758.64	0.035
759.08	0.036
759.52	0.038
759.96	0.036
760.40	0.038
760.84	0.035
761.28	0.036
761.72	0.038
762.16	0.036
762.60	0.036
763.03	0.038
763.47	0.034
763.91	0.038
764.35	0.035
764.79	0.038
765.23	0.035
765.67	0.036
766.11	0.036
766.54	0.037
766.98	0.034
767.42	0.037
767.86	0.038
768.30	0.035
768.74	0.034
769.17	0.036
769.61	0.035
770.05	0.036
770.49	0.038
770.93	0.037
771.37	0.037
771.80	0.033
772.24	0.031
772.68	0.036
773.12	0.032
773.56	0.036
774.00	0.035
774.43	0.034
774.87	0.033
775.31	0.034
775.75	0.035
776.19	0.034
776.62	0.035
777.06	0.036
777.50	0.038
777.94	0.034
778.37	0.036
778.81	0.033
779.25	0.032
779.69	0.036
780.13	0.034
780.56	0.033
781.00	0.034
781.44	0.035
781.88	0.036
782.31	0.032
782.75	0.032
783.19	0.036
783.63	0.032
784.06	0.035
784.50	0.035
784.94	0.036
785.37	0.034
785.81	0.033
786.25	0.032
786.69	0.035
787.12	0.036
787.56	0.036
788.00	0.035
788.43	0.036
788.87	0.036
789.31	0.035
789.75	0.033
790.18	0.032
790.62	0.033
791.06	0.035
791.49	0.036
791.93	0.034
792.37	0.032
792.80	0.037
793.24	0.034
793.68	0.034
794.11	0.038
794.55	0.036
794.99	0.034
795.42	0.038
795.86	0.035
796.30	0.033
796.73	0.031
797.17	0.031
797.61	0.035
798.04	0.037
798.48	0.033
798.91	0.037
799.35	0.035
799.79	0.034
800.22	0.037
800.66	0.032
801.10	0.037
801.53	0.040
801.97	0.035
802.40	0.033
802.84	0.032
803.28	0.033
803.71	0.033
804.15	0.033
804.58	0.037
805.02	0.035
805.46	0.032
805.89	0.035
806.33	0.036
806.76	0.033
807.20	0.036
807.63	0.037
808.07	0.036
808.51	0.032
808.94	0.034
809.38	0.033
809.81	0.035
810.25	0.031
810.68	0.033
811.12	0.033
811.55	0.034
811.99	0.034
812.42	0.033
812.86	0.034
813.29	0.036
813.73	0.034
814.17	0.030
814.60	0.035
815.04	0.031
815.47	0.034
815.91	0.033
816.34	0.036
816.78	0.037
817.21	0.036
817.65	0.036
