SpectraSuite Data File
++++++++++++++++++++++++++++++++++++
Date: Wed May 04 13:07:40 CEST 2016
User: spectrasuite
Dark Spectrum Present: Yes
Reference Spectrum Present: Yes
Number of Sampled Component Spectra: 1
Spectrometers: HR+C0708
Integration Time (usec): 1000 (HR+C0708)
Spectra Averaged: 10 (HR+C0708)
Boxcar Smoothing: 0 (HR+C0708)
Correct for Electrical Dark: No (HR+C0708)
Strobe/Lamp Enabled: No (HR+C0708)
Correct for Detector Non-linearity: No (HR+C0708)
Correct for Stray Light: No (HR+C0708)
Number of Pixels in Processed Spectrum: 2048
>>>>>Begin Processed Spectral Data<<<<<
188.76	0.326
189.23	-0.000
189.70	0.382
190.17	0.273
190.64	-0.000
191.12	0.790
191.59	-0.000
192.06	-0.000
192.53	-0.000
193.01	-0.000
193.48	0.222
193.95	-0.000
194.42	0.627
194.90	1.336
195.37	0.875
195.84	-0.000
196.31	0.407
196.78	1.041
197.26	-0.000
197.73	0.448
198.20	0.133
198.67	-0.000
199.14	-0.000
199.62	-0.000
200.09	1.623
200.56	0.513
201.03	0.539
201.50	0.441
201.97	0.647
202.45	0.702
202.92	0.573
203.39	0.827
203.86	0.922
204.33	0.440
204.80	0.571
205.28	0.471
205.75	1.028
206.22	0.590
206.69	0.516
207.16	0.320
207.63	0.533
208.11	0.431
208.58	0.507
209.05	0.799
209.52	0.589
209.99	0.691
210.46	0.325
210.93	0.573
211.41	0.504
211.88	0.529
212.35	0.401
212.82	0.839
213.29	0.572
213.76	0.578
214.23	0.667
214.70	0.428
215.18	0.579
215.65	0.465
216.12	0.394
216.59	0.487
217.06	0.566
217.53	0.436
218.00	0.527
218.47	0.476
218.94	0.535
219.41	0.632
219.89	0.512
220.36	0.501
220.83	0.489
221.30	0.981
221.77	0.665
222.24	0.632
222.71	0.538
223.18	0.674
223.65	0.527
224.12	0.625
224.59	0.716
225.06	0.876
225.54	0.835
226.01	0.808
226.48	1.007
226.95	1.124
227.42	0.865
227.89	1.237
228.36	0.997
228.83	1.084
229.30	1.115
229.77	1.661
230.24	1.186
230.71	1.143
231.18	1.400
231.65	1.685
232.12	1.615
232.59	1.553
233.06	1.581
233.53	1.743
234.00	1.535
234.47	1.807
234.94	1.874
235.41	1.674
235.88	1.744
236.35	2.024
236.82	1.871
237.29	1.935
237.76	2.005
238.23	2.155
238.70	2.106
239.17	2.082
239.64	2.352
240.11	2.210
240.58	2.079
241.05	2.237
241.52	2.306
241.99	2.118
242.46	2.197
242.93	2.141
243.40	2.787
243.87	2.384
244.34	2.199
244.81	2.276
245.28	2.401
245.75	2.249
246.22	2.353
246.69	2.787
247.16	2.371
247.63	2.505
248.10	2.495
248.57	3.307
249.04	2.535
249.51	2.286
249.98	2.808
250.45	2.567
250.92	2.642
251.39	2.533
251.85	2.556
252.32	2.378
252.79	2.547
253.26	2.337
253.73	2.243
254.20	2.160
254.67	2.118
255.14	2.137
255.61	2.026
256.08	1.980
256.55	2.002
257.02	1.928
257.49	1.846
257.95	1.861
258.42	1.783
258.89	1.796
259.36	1.788
259.83	1.740
260.30	1.741
260.77	1.707
261.24	1.647
261.71	1.639
262.17	1.619
262.64	1.616
263.11	1.570
263.58	1.584
264.05	1.543
264.52	1.535
264.99	1.517
265.46	1.507
265.92	1.479
266.39	1.468
266.86	1.465
267.33	1.441
267.80	1.442
268.27	1.425
268.74	1.421
269.20	1.384
269.67	1.397
270.14	1.385
270.61	1.359
271.08	1.352
271.55	1.339
272.01	1.336
272.48	1.322
272.95	1.310
273.42	1.309
273.89	1.300
274.36	1.284
274.82	1.278
275.29	1.275
275.76	1.275
276.23	1.274
276.70	1.253
277.16	1.254
277.63	1.239
278.10	1.225
278.57	1.229
279.04	1.238
279.50	1.224
279.97	1.216
280.44	1.220
280.91	1.210
281.38	1.206
281.84	1.208
282.31	1.207
282.78	1.205
283.25	1.203
283.72	1.198
284.18	1.195
284.65	1.196
285.12	1.185
285.59	1.186
286.05	1.191
286.52	1.183
286.99	1.187
287.46	1.184
287.92	1.179
288.39	1.176
288.86	1.192
289.33	1.183
289.79	1.172
290.26	1.173
290.73	1.179
291.20	1.161
291.66	1.158
292.13	1.164
292.60	1.156
293.07	1.149
293.53	1.142
294.00	1.144
294.47	1.132
294.93	1.123
295.40	1.119
295.87	1.121
296.34	1.103
296.80	1.087
297.27	1.079
297.74	1.077
298.20	1.070
298.67	1.056
299.14	1.045
299.60	1.034
300.07	1.025
300.54	1.011
301.01	1.007
301.47	0.995
301.94	0.980
302.41	0.975
302.87	0.960
303.34	0.956
303.81	0.942
304.27	0.933
304.74	0.923
305.21	0.914
305.67	0.906
306.14	0.904
306.61	0.889
307.07	0.881
307.54	0.877
308.01	0.870
308.47	0.856
308.94	0.856
309.40	0.854
309.87	0.844
310.34	0.836
310.80	0.836
311.27	0.825
311.74	0.819
312.20	0.823
312.67	0.813
313.13	0.805
313.60	0.803
314.07	0.805
314.53	0.794
315.00	0.788
315.47	0.787
315.93	0.785
316.40	0.782
316.86	0.778
317.33	0.773
317.80	0.770
318.26	0.766
318.73	0.762
319.19	0.764
319.66	0.755
320.13	0.750
320.59	0.745
321.06	0.747
321.52	0.740
321.99	0.735
322.45	0.733
322.92	0.732
323.39	0.727
323.85	0.719
324.32	0.722
324.78	0.712
325.25	0.711
325.71	0.710
326.18	0.696
326.64	0.701
327.11	0.694
327.58	0.689
328.04	0.692
328.51	0.683
328.97	0.684
329.44	0.674
329.90	0.672
330.37	0.669
330.83	0.669
331.30	0.663
331.76	0.660
332.23	0.660
332.69	0.655
333.16	0.654
333.62	0.643
334.09	0.641
334.56	0.640
335.02	0.638
335.49	0.632
335.95	0.634
336.42	0.629
336.88	0.626
337.35	0.622
337.81	0.623
338.28	0.623
338.74	0.619
339.20	0.621
339.67	0.617
340.13	0.618
340.60	0.614
341.06	0.613
341.53	0.609
341.99	0.608
342.46	0.606
342.92	0.607
343.39	0.600
343.85	0.594
344.32	0.598
344.78	0.592
345.25	0.595
345.71	0.593
346.17	0.594
346.64	0.589
347.10	0.582
347.57	0.576
348.03	0.566
348.50	0.564
348.96	0.560
349.43	0.558
349.89	0.552
350.35	0.544
350.82	0.539
351.28	0.533
351.75	0.525
352.21	0.518
352.67	0.508
353.14	0.505
353.60	0.493
354.07	0.482
354.53	0.475
355.00	0.463
355.46	0.451
355.92	0.441
356.39	0.431
356.85	0.419
357.31	0.401
357.78	0.388
358.24	0.377
358.71	0.361
359.17	0.346
359.63	0.328
360.10	0.312
360.56	0.295
361.03	0.279
361.49	0.260
361.95	0.246
362.42	0.229
362.88	0.215
363.34	0.204
363.81	0.188
364.27	0.178
364.73	0.167
365.20	0.155
365.66	0.146
366.12	0.140
366.59	0.134
367.05	0.126
367.51	0.122
367.98	0.116
368.44	0.113
368.90	0.107
369.37	0.106
369.83	0.105
370.29	0.101
370.76	0.101
371.22	0.098
371.68	0.097
372.15	0.096
372.61	0.092
373.07	0.095
373.54	0.093
374.00	0.090
374.46	0.092
374.92	0.091
375.39	0.089
375.85	0.087
376.31	0.088
376.78	0.086
377.24	0.086
377.70	0.086
378.16	0.086
378.63	0.085
379.09	0.084
379.55	0.085
380.01	0.084
380.48	0.082
380.94	0.086
381.40	0.082
381.87	0.083
382.33	0.083
382.79	0.078
383.25	0.081
383.72	0.085
384.18	0.080
384.64	0.081
385.10	0.080
385.56	0.079
386.03	0.082
386.49	0.081
386.95	0.082
387.41	0.080
387.88	0.077
388.34	0.074
388.80	0.079
389.26	0.077
389.72	0.080
390.19	0.076
390.65	0.075
391.11	0.075
391.57	0.076
392.04	0.075
392.50	0.076
392.96	0.075
393.42	0.075
393.88	0.075
394.34	0.074
394.81	0.075
395.27	0.074
395.73	0.071
396.19	0.075
396.65	0.074
397.12	0.073
397.58	0.072
398.04	0.072
398.50	0.073
398.96	0.071
399.42	0.071
399.89	0.072
400.35	0.074
400.81	0.070
401.27	0.071
401.73	0.071
402.19	0.072
402.65	0.067
403.12	0.069
403.58	0.069
404.04	0.066
404.50	0.066
404.96	0.065
405.42	0.067
405.88	0.067
406.34	0.070
406.81	0.068
407.27	0.068
407.73	0.065
408.19	0.066
408.65	0.064
409.11	0.065
409.57	0.064
410.03	0.066
410.49	0.064
410.96	0.064
411.42	0.065
411.88	0.061
412.34	0.059
412.80	0.062
413.26	0.063
413.72	0.063
414.18	0.059
414.64	0.061
415.10	0.062
415.56	0.061
416.02	0.062
416.48	0.061
416.95	0.064
417.41	0.060
417.87	0.060
418.33	0.061
418.79	0.060
419.25	0.061
419.71	0.061
420.17	0.059
420.63	0.058
421.09	0.058
421.55	0.056
422.01	0.056
422.47	0.058
422.93	0.059
423.39	0.059
423.85	0.058
424.31	0.058
424.77	0.058
425.23	0.058
425.69	0.060
426.15	0.062
426.61	0.061
427.07	0.056
427.53	0.057
427.99	0.059
428.45	0.060
428.91	0.057
429.37	0.058
429.83	0.056
430.29	0.058
430.75	0.058
431.21	0.056
431.67	0.060
432.13	0.059
432.59	0.057
433.05	0.060
433.51	0.058
433.97	0.055
434.43	0.058
434.89	0.061
435.35	0.059
435.81	0.060
436.27	0.061
436.73	0.057
437.19	0.058
437.65	0.056
438.11	0.057
438.57	0.059
439.03	0.058
439.48	0.058
439.94	0.057
440.40	0.059
440.86	0.058
441.32	0.059
441.78	0.056
442.24	0.057
442.70	0.061
443.16	0.058
443.62	0.060
444.08	0.057
444.54	0.056
444.99	0.059
445.45	0.055
445.91	0.056
446.37	0.057
446.83	0.058
447.29	0.059
447.75	0.056
448.21	0.060
448.67	0.058
449.12	0.060
449.58	0.056
450.04	0.061
450.50	0.059
450.96	0.055
451.42	0.058
451.88	0.057
452.34	0.056
452.79	0.055
453.25	0.059
453.71	0.057
454.17	0.056
454.63	0.058
455.09	0.058
455.55	0.057
456.00	0.055
456.46	0.059
456.92	0.060
457.38	0.057
457.84	0.060
458.30	0.061
458.75	0.058
459.21	0.058
459.67	0.057
460.13	0.057
460.59	0.060
461.04	0.059
461.50	0.059
461.96	0.058
462.42	0.058
462.88	0.058
463.33	0.058
463.79	0.059
464.25	0.056
464.71	0.058
465.17	0.057
465.62	0.056
466.08	0.058
466.54	0.061
467.00	0.057
467.46	0.058
467.91	0.059
468.37	0.057
468.83	0.059
469.29	0.057
469.74	0.058
470.20	0.059
470.66	0.058
471.12	0.061
471.57	0.058
472.03	0.060
472.49	0.059
472.95	0.059
473.40	0.058
473.86	0.059
474.32	0.057
474.78	0.057
475.23	0.059
475.69	0.058
476.15	0.062
476.60	0.061
477.06	0.060
477.52	0.058
477.98	0.061
478.43	0.058
478.89	0.059
479.35	0.061
479.80	0.061
480.26	0.057
480.72	0.060
481.18	0.058
481.63	0.061
482.09	0.059
482.55	0.060
483.00	0.058
483.46	0.060
483.92	0.059
484.37	0.061
484.83	0.058
485.29	0.061
485.74	0.058
486.20	0.059
486.66	0.060
487.11	0.059
487.57	0.059
488.03	0.059
488.48	0.061
488.94	0.059
489.40	0.059
489.85	0.061
490.31	0.060
490.77	0.057
491.22	0.060
491.68	0.061
492.13	0.059
492.59	0.061
493.05	0.059
493.50	0.059
493.96	0.059
494.42	0.063
494.87	0.062
495.33	0.059
495.78	0.060
496.24	0.061
496.70	0.061
497.15	0.061
497.61	0.061
498.06	0.060
498.52	0.060
498.98	0.058
499.43	0.061
499.89	0.062
500.34	0.059
500.80	0.060
501.25	0.059
501.71	0.059
502.17	0.058
502.62	0.061
503.08	0.057
503.53	0.059
503.99	0.061
504.44	0.061
504.90	0.058
505.36	0.059
505.81	0.061
506.27	0.061
506.72	0.059
507.18	0.059
507.63	0.061
508.09	0.059
508.54	0.057
509.00	0.059
509.45	0.059
509.91	0.058
510.36	0.058
510.82	0.060
511.27	0.057
511.73	0.058
512.19	0.058
512.64	0.057
513.10	0.059
513.55	0.059
514.01	0.059
514.46	0.061
514.92	0.059
515.37	0.061
515.83	0.057
516.28	0.060
516.73	0.058
517.19	0.058
517.64	0.060
518.10	0.059
518.55	0.060
519.01	0.060
519.46	0.061
519.92	0.059
520.37	0.058
520.83	0.061
521.28	0.056
521.74	0.059
522.19	0.060
522.65	0.059
523.10	0.056
523.55	0.059
524.01	0.060
524.46	0.060
524.92	0.059
525.37	0.062
525.83	0.060
526.28	0.060
526.73	0.058
527.19	0.058
527.64	0.060
528.10	0.059
528.55	0.060
529.01	0.060
529.46	0.061
529.91	0.060
530.37	0.059
530.82	0.060
531.28	0.059
531.73	0.061
532.18	0.062
532.64	0.061
533.09	0.063
533.54	0.062
534.00	0.063
534.45	0.065
534.91	0.060
535.36	0.063
535.81	0.062
536.27	0.061
536.72	0.062
537.17	0.063
537.63	0.062
538.08	0.065
538.54	0.063
538.99	0.067
539.44	0.066
539.90	0.064
540.35	0.065
540.80	0.063
541.26	0.066
541.71	0.069
542.16	0.068
542.62	0.071
543.07	0.071
543.52	0.068
543.98	0.068
544.43	0.066
544.88	0.068
545.34	0.071
545.79	0.069
546.24	0.071
546.69	0.069
547.15	0.073
547.60	0.071
548.05	0.073
548.51	0.073
548.96	0.073
549.41	0.073
549.86	0.073
550.32	0.074
550.77	0.074
551.22	0.074
551.68	0.078
552.13	0.078
552.58	0.075
553.03	0.079
553.49	0.076
553.94	0.077
554.39	0.078
554.84	0.079
555.30	0.080
555.75	0.080
556.20	0.079
556.65	0.083
557.11	0.085
557.56	0.084
558.01	0.085
558.46	0.083
558.92	0.086
559.37	0.087
559.82	0.086
560.27	0.088
560.72	0.088
561.18	0.087
561.63	0.089
562.08	0.090
562.53	0.090
562.99	0.092
563.44	0.092
563.89	0.093
564.34	0.095
564.79	0.096
565.25	0.096
565.70	0.095
566.15	0.097
566.60	0.100
567.05	0.098
567.50	0.099
567.96	0.099
568.41	0.101
568.86	0.101
569.31	0.103
569.76	0.103
570.21	0.106
570.67	0.103
571.12	0.105
571.57	0.107
572.02	0.109
572.47	0.109
572.92	0.110
573.37	0.113
573.83	0.111
574.28	0.113
574.73	0.115
575.18	0.114
575.63	0.117
576.08	0.116
576.53	0.116
576.98	0.119
577.44	0.122
577.89	0.120
578.34	0.123
578.79	0.123
579.24	0.123
579.69	0.124
580.14	0.126
580.59	0.129
581.04	0.130
581.49	0.131
581.95	0.132
582.40	0.133
582.85	0.136
583.30	0.137
583.75	0.141
584.20	0.141
584.65	0.142
585.10	0.144
585.55	0.146
586.00	0.145
586.45	0.149
586.90	0.150
587.35	0.152
587.80	0.155
588.25	0.157
588.71	0.159
589.16	0.161
589.61	0.161
590.06	0.164
590.51	0.166
590.96	0.170
591.41	0.172
591.86	0.173
592.31	0.174
592.76	0.177
593.21	0.178
593.66	0.181
594.11	0.184
594.56	0.185
595.01	0.188
595.46	0.188
595.91	0.193
596.36	0.195
596.81	0.198
597.26	0.200
597.71	0.201
598.16	0.205
598.61	0.206
599.06	0.208
599.51	0.211
599.96	0.214
600.41	0.215
600.86	0.221
601.31	0.220
601.76	0.224
602.21	0.227
602.65	0.227
603.10	0.231
603.55	0.231
604.00	0.235
604.45	0.238
604.90	0.238
605.35	0.240
605.80	0.243
606.25	0.243
606.70	0.247
607.15	0.249
607.60	0.250
608.05	0.252
608.50	0.254
608.95	0.255
609.39	0.259
609.84	0.260
610.29	0.263
610.74	0.263
611.19	0.264
611.64	0.267
612.09	0.266
612.54	0.268
612.99	0.268
613.44	0.268
613.88	0.269
614.33	0.270
614.78	0.273
615.23	0.277
615.68	0.275
616.13	0.273
616.58	0.277
617.03	0.280
617.47	0.279
617.92	0.279
618.37	0.281
618.82	0.277
619.27	0.279
619.72	0.279
620.17	0.283
620.61	0.282
621.06	0.281
621.51	0.284
621.96	0.285
622.41	0.284
622.86	0.284
623.30	0.287
623.75	0.289
624.20	0.287
624.65	0.290
625.10	0.288
625.54	0.290
625.99	0.288
626.44	0.293
626.89	0.291
627.34	0.293
627.78	0.293
628.23	0.296
628.68	0.298
629.13	0.300
629.58	0.301
630.02	0.302
630.47	0.303
630.92	0.305
631.37	0.307
631.81	0.310
632.26	0.311
632.71	0.312
633.16	0.314
633.61	0.317
634.05	0.320
634.50	0.322
634.95	0.325
635.40	0.326
635.84	0.328
636.29	0.333
636.74	0.336
637.18	0.336
637.63	0.340
638.08	0.342
638.53	0.345
638.97	0.348
639.42	0.352
639.87	0.355
640.32	0.359
640.76	0.363
641.21	0.366
641.66	0.368
642.10	0.373
642.55	0.376
643.00	0.379
643.44	0.382
643.89	0.387
644.34	0.389
644.79	0.395
645.23	0.398
645.68	0.404
646.13	0.407
646.57	0.412
647.02	0.413
647.47	0.419
647.91	0.421
648.36	0.426
648.81	0.427
649.25	0.430
649.70	0.437
650.15	0.441
650.59	0.444
651.04	0.449
651.48	0.452
651.93	0.456
652.38	0.461
652.82	0.464
653.27	0.463
653.72	0.469
654.16	0.473
654.61	0.477
655.06	0.478
655.50	0.482
655.95	0.484
656.39	0.486
656.84	0.490
657.29	0.495
657.73	0.497
658.18	0.497
658.62	0.502
659.07	0.507
659.52	0.511
659.96	0.512
660.41	0.514
660.85	0.515
661.30	0.518
661.74	0.519
662.19	0.520
662.64	0.522
663.08	0.522
663.53	0.523
663.97	0.524
664.42	0.522
664.86	0.526
665.31	0.528
665.75	0.523
666.20	0.524
666.65	0.526
667.09	0.527
667.54	0.523
667.98	0.523
668.43	0.520
668.87	0.518
669.32	0.514
669.76	0.513
670.21	0.510
670.65	0.507
671.10	0.501
671.54	0.498
671.99	0.495
672.43	0.486
672.88	0.479
673.32	0.476
673.77	0.469
674.21	0.460
674.66	0.453
675.10	0.449
675.55	0.437
675.99	0.427
676.44	0.421
676.88	0.414
677.33	0.401
677.77	0.391
678.22	0.383
678.66	0.375
679.11	0.365
679.55	0.356
679.99	0.346
680.44	0.336
680.88	0.327
681.33	0.316
681.77	0.307
682.22	0.295
682.66	0.287
683.11	0.277
683.55	0.272
683.99	0.261
684.44	0.252
684.88	0.245
685.33	0.236
685.77	0.227
686.21	0.217
686.66	0.210
687.10	0.201
687.55	0.195
687.99	0.187
688.44	0.180
688.88	0.172
689.32	0.167
689.77	0.161
690.21	0.156
690.65	0.149
691.10	0.143
691.54	0.137
691.99	0.133
692.43	0.128
692.87	0.123
693.32	0.119
693.76	0.114
694.20	0.111
694.65	0.106
695.09	0.101
695.53	0.100
695.98	0.095
696.42	0.091
696.86	0.091
697.31	0.086
697.75	0.084
698.19	0.080
698.64	0.078
699.08	0.076
699.52	0.072
699.97	0.072
700.41	0.067
700.85	0.069
701.30	0.063
701.74	0.064
702.18	0.061
702.63	0.059
703.07	0.056
703.51	0.057
703.96	0.056
704.40	0.055
704.84	0.054
705.28	0.053
705.73	0.053
706.17	0.048
706.61	0.051
707.06	0.047
707.50	0.047
707.94	0.048
708.38	0.044
708.83	0.045
709.27	0.043
709.71	0.045
710.15	0.043
710.60	0.044
711.04	0.040
711.48	0.042
711.92	0.041
712.37	0.039
712.81	0.040
713.25	0.040
713.69	0.038
714.13	0.039
714.58	0.039
715.02	0.036
715.46	0.037
715.90	0.037
716.35	0.037
716.79	0.038
717.23	0.038
717.67	0.036
718.11	0.034
718.56	0.035
719.00	0.036
719.44	0.036
719.88	0.037
720.32	0.037
720.76	0.033
721.21	0.037
721.65	0.035
722.09	0.036
722.53	0.035
722.97	0.035
723.41	0.035
723.86	0.035
724.30	0.037
724.74	0.035
725.18	0.034
725.62	0.033
726.06	0.037
726.50	0.038
726.95	0.035
727.39	0.036
727.83	0.035
728.27	0.036
728.71	0.035
729.15	0.034
729.59	0.031
730.03	0.036
730.48	0.036
730.92	0.035
731.36	0.034
731.80	0.035
732.24	0.039
732.68	0.037
733.12	0.036
733.56	0.039
734.00	0.040
734.44	0.038
734.89	0.037
735.33	0.035
735.77	0.037
736.21	0.037
736.65	0.038
737.09	0.038
737.53	0.039
737.97	0.038
738.41	0.038
738.85	0.037
739.29	0.035
739.73	0.038
740.17	0.035
740.61	0.035
741.05	0.040
741.49	0.038
741.93	0.037
742.37	0.037
742.81	0.036
743.26	0.039
743.70	0.039
744.14	0.037
744.58	0.038
745.02	0.036
745.46	0.037
745.90	0.035
746.34	0.037
746.78	0.039
747.22	0.037
747.66	0.037
748.10	0.036
748.54	0.038
748.98	0.035
749.42	0.038
749.86	0.039
750.29	0.039
750.73	0.038
751.17	0.038
751.61	0.039
752.05	0.036
752.49	0.036
752.93	0.036
753.37	0.038
753.81	0.038
754.25	0.035
754.69	0.037
755.13	0.038
755.57	0.034
756.01	0.036
756.45	0.035
756.89	0.035
757.33	0.036
757.77	0.038
758.21	0.039
758.64	0.036
759.08	0.037
759.52	0.036
759.96	0.037
760.40	0.038
760.84	0.036
761.28	0.036
761.72	0.038
762.16	0.037
762.60	0.037
763.03	0.037
763.47	0.038
763.91	0.036
764.35	0.035
764.79	0.037
765.23	0.035
765.67	0.035
766.11	0.039
766.54	0.037
766.98	0.033
767.42	0.036
767.86	0.037
768.30	0.035
768.74	0.035
769.17	0.036
769.61	0.036
770.05	0.036
770.49	0.038
770.93	0.035
771.37	0.037
771.80	0.036
772.24	0.032
772.68	0.035
773.12	0.031
773.56	0.035
774.00	0.036
774.43	0.036
774.87	0.031
775.31	0.038
775.75	0.036
776.19	0.036
776.62	0.037
777.06	0.034
777.50	0.036
777.94	0.033
778.37	0.037
778.81	0.037
779.25	0.032
779.69	0.035
780.13	0.036
780.56	0.033
781.00	0.035
781.44	0.035
781.88	0.034
782.31	0.034
782.75	0.033
783.19	0.036
783.63	0.035
784.06	0.035
784.50	0.033
784.94	0.036
785.37	0.031
785.81	0.032
786.25	0.035
786.69	0.035
787.12	0.034
787.56	0.033
788.00	0.034
788.43	0.036
788.87	0.034
789.31	0.036
789.75	0.037
790.18	0.034
790.62	0.035
791.06	0.035
791.49	0.034
791.93	0.035
792.37	0.032
792.80	0.033
793.24	0.033
793.68	0.036
794.11	0.035
794.55	0.035
794.99	0.033
795.42	0.037
795.86	0.038
796.30	0.034
796.73	0.033
797.17	0.031
797.61	0.035
798.04	0.034
798.48	0.033
798.91	0.035
799.35	0.035
799.79	0.030
800.22	0.033
800.66	0.032
801.10	0.036
801.53	0.039
801.97	0.036
802.40	0.030
802.84	0.031
803.28	0.034
803.71	0.032
804.15	0.036
804.58	0.038
805.02	0.037
805.46	0.032
805.89	0.033
806.33	0.035
806.76	0.034
807.20	0.036
807.63	0.035
808.07	0.033
808.51	0.035
808.94	0.034
809.38	0.033
809.81	0.035
810.25	0.035
810.68	0.035
811.12	0.033
811.55	0.036
811.99	0.035
812.42	0.034
812.86	0.035
813.29	0.033
813.73	0.033
814.17	0.029
814.60	0.032
815.04	0.032
815.47	0.028
815.91	0.031
816.34	0.032
816.78	0.036
817.21	0.035
817.65	0.036
