SpectraSuite Data File
++++++++++++++++++++++++++++++++++++
Date: Wed May 04 16:58:26 CEST 2016
User: spectrasuite
Dark Spectrum Present: Yes
Reference Spectrum Present: Yes
Number of Sampled Component Spectra: 1
Spectrometers: HR+C0708
Integration Time (usec): 1000 (HR+C0708)
Spectra Averaged: 10 (HR+C0708)
Boxcar Smoothing: 0 (HR+C0708)
Correct for Electrical Dark: No (HR+C0708)
Strobe/Lamp Enabled: No (HR+C0708)
Correct for Detector Non-linearity: No (HR+C0708)
Correct for Stray Light: No (HR+C0708)
Number of Pixels in Processed Spectrum: 2048
>>>>>Begin Processed Spectral Data<<<<<
188.76	-0.000
189.23	-0.000
189.70	-0.000
190.17	-0.000
190.64	-0.000
191.12	-0.000
191.59	-0.000
192.06	-0.000
192.53	-0.000
193.01	-0.000
193.48	-0.000
193.95	-0.000
194.42	-0.000
194.90	-0.000
195.37	-0.000
195.84	-0.000
196.31	-0.000
196.78	-0.000
197.26	-0.000
197.73	-0.000
198.20	-0.000
198.67	-0.000
199.14	-0.000
199.62	-0.000
200.09	-0.000
200.56	-0.000
201.03	-0.000
201.50	-0.000
201.97	-0.000
202.45	-0.000
202.92	-0.000
203.39	-0.000
203.86	-0.000
204.33	-0.000
204.80	-0.000
205.28	-0.000
205.75	-0.000
206.22	-0.000
206.69	-0.000
207.16	1.561
207.63	-0.000
208.11	-0.000
208.58	-0.000
209.05	-0.000
209.52	-0.000
209.99	-0.000
210.46	2.380
210.93	-0.000
211.41	-0.000
211.88	-0.000
212.35	-0.000
212.82	-0.000
213.29	-0.000
213.76	-0.000
214.23	-0.000
214.70	-0.000
215.18	-0.000
215.65	1.186
216.12	-0.000
216.59	-0.000
217.06	0.867
217.53	-0.000
218.00	-0.000
218.47	-0.000
218.94	-0.000
219.41	1.571
219.89	-0.000
220.36	-0.000
220.83	-0.000
221.30	-0.000
221.77	-0.000
222.24	1.025
222.71	-0.000
223.18	-0.000
223.65	1.794
224.12	2.092
224.59	-0.000
225.06	-0.000
225.54	1.301
226.01	-0.000
226.48	-0.000
226.95	-0.000
227.42	1.820
227.89	-0.000
228.36	-0.000
228.83	2.294
229.30	-0.000
229.77	-0.000
230.24	2.188
230.71	1.914
231.18	-0.000
231.65	-0.000
232.12	-0.000
232.59	-0.000
233.06	-0.000
233.53	-0.000
234.00	2.069
234.47	-0.000
234.94	-0.000
235.41	2.469
235.88	-0.000
236.35	-0.000
236.82	-0.000
237.29	2.448
237.76	-0.000
238.23	-0.000
238.70	-0.000
239.17	2.478
239.64	-0.000
240.11	-0.000
240.58	2.812
241.05	4.438
241.52	-0.000
241.99	-0.000
242.46	2.508
242.93	2.627
243.40	-0.000
243.87	-0.000
244.34	2.466
244.81	-0.000
245.28	-0.000
245.75	2.746
246.22	3.271
246.69	-0.000
247.16	3.718
247.63	3.500
248.10	-0.000
248.57	-0.000
249.04	3.492
249.51	2.893
249.98	-0.000
250.45	-0.000
250.92	2.631
251.39	2.612
251.85	2.909
252.32	2.366
252.79	2.041
253.26	1.934
253.73	1.878
254.20	1.682
254.67	1.620
255.14	1.562
255.61	1.477
256.08	1.372
256.55	1.333
257.02	1.290
257.49	1.216
257.95	1.187
258.42	1.145
258.89	1.118
259.36	1.081
259.83	1.052
260.30	1.026
260.77	0.992
261.24	0.970
261.71	0.952
262.17	0.937
262.64	0.914
263.11	0.891
263.58	0.880
264.05	0.863
264.52	0.840
264.99	0.832
265.46	0.822
265.92	0.799
266.39	0.789
266.86	0.783
267.33	0.770
267.80	0.755
268.27	0.747
268.74	0.741
269.20	0.729
269.67	0.718
270.14	0.708
270.61	0.702
271.08	0.693
271.55	0.683
272.01	0.686
272.48	0.666
272.95	0.662
273.42	0.653
273.89	0.653
274.36	0.642
274.82	0.633
275.29	0.631
275.76	0.625
276.23	0.624
276.70	0.615
277.16	0.616
277.63	0.607
278.10	0.604
278.57	0.602
279.04	0.599
279.50	0.592
279.97	0.589
280.44	0.592
280.91	0.584
281.38	0.578
281.84	0.581
282.31	0.580
282.78	0.579
283.25	0.577
283.72	0.572
284.18	0.570
284.65	0.569
285.12	0.569
285.59	0.563
286.05	0.564
286.52	0.565
286.99	0.566
287.46	0.565
287.92	0.561
288.39	0.561
288.86	0.562
289.33	0.560
289.79	0.557
290.26	0.557
290.73	0.556
291.20	0.550
291.66	0.550
292.13	0.550
292.60	0.542
293.07	0.536
293.53	0.532
294.00	0.528
294.47	0.523
294.93	0.522
295.40	0.513
295.87	0.509
296.34	0.503
296.80	0.495
297.27	0.483
297.74	0.481
298.20	0.476
298.67	0.466
299.14	0.457
299.60	0.450
300.07	0.446
300.54	0.438
301.01	0.432
301.47	0.425
301.94	0.417
302.41	0.409
302.87	0.399
303.34	0.397
303.81	0.393
304.27	0.388
304.74	0.376
305.21	0.370
305.67	0.364
306.14	0.359
306.61	0.353
307.07	0.347
307.54	0.347
308.01	0.336
308.47	0.332
308.94	0.327
309.40	0.325
309.87	0.324
310.34	0.322
310.80	0.316
311.27	0.311
311.74	0.309
312.20	0.307
312.67	0.305
313.13	0.300
313.60	0.300
314.07	0.295
314.53	0.290
315.00	0.288
315.47	0.289
315.93	0.289
316.40	0.283
316.86	0.283
317.33	0.280
317.80	0.280
318.26	0.277
318.73	0.278
319.19	0.276
319.66	0.272
320.13	0.270
320.59	0.272
321.06	0.269
321.52	0.267
321.99	0.269
322.45	0.266
322.92	0.264
323.39	0.263
323.85	0.262
324.32	0.261
324.78	0.259
325.25	0.252
325.71	0.256
326.18	0.252
326.64	0.250
327.11	0.250
327.58	0.249
328.04	0.249
328.51	0.245
328.97	0.242
329.44	0.243
329.90	0.244
330.37	0.239
330.83	0.238
331.30	0.235
331.76	0.235
332.23	0.233
332.69	0.230
333.16	0.227
333.62	0.228
334.09	0.226
334.56	0.224
335.02	0.220
335.49	0.219
335.95	0.218
336.42	0.215
336.88	0.213
337.35	0.210
337.81	0.208
338.28	0.210
338.74	0.210
339.20	0.209
339.67	0.210
340.13	0.208
340.60	0.206
341.06	0.201
341.53	0.200
341.99	0.199
342.46	0.199
342.92	0.196
343.39	0.195
343.85	0.196
344.32	0.192
344.78	0.190
345.25	0.196
345.71	0.194
346.17	0.195
346.64	0.197
347.10	0.192
347.57	0.187
348.03	0.186
348.50	0.187
348.96	0.188
349.43	0.183
349.89	0.185
350.35	0.187
350.82	0.185
351.28	0.185
351.75	0.185
352.21	0.187
352.67	0.182
353.14	0.182
353.60	0.180
354.07	0.181
354.53	0.178
355.00	0.177
355.46	0.174
355.92	0.171
356.39	0.172
356.85	0.171
357.31	0.165
357.78	0.164
358.24	0.167
358.71	0.168
359.17	0.167
359.63	0.165
360.10	0.165
360.56	0.163
361.03	0.161
361.49	0.163
361.95	0.164
362.42	0.163
362.88	0.164
363.34	0.163
363.81	0.163
364.27	0.163
364.73	0.163
365.20	0.162
365.66	0.160
366.12	0.161
366.59	0.162
367.05	0.160
367.51	0.160
367.98	0.161
368.44	0.160
368.90	0.158
369.37	0.159
369.83	0.159
370.29	0.156
370.76	0.158
371.22	0.157
371.68	0.157
372.15	0.157
372.61	0.152
373.07	0.157
373.54	0.152
374.00	0.153
374.46	0.153
374.92	0.152
375.39	0.153
375.85	0.155
376.31	0.151
376.78	0.151
377.24	0.152
377.70	0.150
378.16	0.151
378.63	0.150
379.09	0.151
379.55	0.151
380.01	0.150
380.48	0.152
380.94	0.150
381.40	0.148
381.87	0.153
382.33	0.147
382.79	0.147
383.25	0.149
383.72	0.150
384.18	0.150
384.64	0.148
385.10	0.148
385.56	0.147
386.03	0.149
386.49	0.147
386.95	0.149
387.41	0.148
387.88	0.144
388.34	0.146
388.80	0.150
389.26	0.146
389.72	0.149
390.19	0.145
390.65	0.143
391.11	0.143
391.57	0.144
392.04	0.143
392.50	0.141
392.96	0.144
393.42	0.144
393.88	0.147
394.34	0.143
394.81	0.143
395.27	0.142
395.73	0.140
396.19	0.141
396.65	0.141
397.12	0.138
397.58	0.139
398.04	0.137
398.50	0.142
398.96	0.140
399.42	0.141
399.89	0.144
400.35	0.142
400.81	0.140
401.27	0.140
401.73	0.140
402.19	0.139
402.65	0.135
403.12	0.138
403.58	0.137
404.04	0.133
404.50	0.133
404.96	0.134
405.42	0.136
405.88	0.136
406.34	0.140
406.81	0.138
407.27	0.133
407.73	0.131
408.19	0.132
408.65	0.132
409.11	0.134
409.57	0.134
410.03	0.138
410.49	0.133
410.96	0.132
411.42	0.135
411.88	0.129
412.34	0.126
412.80	0.133
413.26	0.132
413.72	0.131
414.18	0.130
414.64	0.132
415.10	0.131
415.56	0.134
416.02	0.129
416.48	0.127
416.95	0.133
417.41	0.130
417.87	0.130
418.33	0.129
418.79	0.129
419.25	0.130
419.71	0.130
420.17	0.126
420.63	0.125
421.09	0.123
421.55	0.126
422.01	0.127
422.47	0.130
422.93	0.130
423.39	0.129
423.85	0.125
424.31	0.127
424.77	0.126
425.23	0.127
425.69	0.129
426.15	0.129
426.61	0.128
427.07	0.122
427.53	0.122
427.99	0.125
428.45	0.128
428.91	0.124
429.37	0.122
429.83	0.120
430.29	0.127
430.75	0.128
431.21	0.129
431.67	0.130
432.13	0.128
432.59	0.124
433.05	0.126
433.51	0.121
433.97	0.120
434.43	0.129
434.89	0.133
435.35	0.127
435.81	0.125
436.27	0.128
436.73	0.127
437.19	0.129
437.65	0.123
438.11	0.125
438.57	0.125
439.03	0.121
439.48	0.127
439.94	0.125
440.40	0.124
440.86	0.121
441.32	0.124
441.78	0.121
442.24	0.124
442.70	0.125
443.16	0.123
443.62	0.122
444.08	0.121
444.54	0.122
444.99	0.121
445.45	0.120
445.91	0.120
446.37	0.123
446.83	0.121
447.29	0.121
447.75	0.124
448.21	0.127
448.67	0.119
449.12	0.122
449.58	0.121
450.04	0.126
450.50	0.121
450.96	0.118
451.42	0.125
451.88	0.122
452.34	0.118
452.79	0.121
453.25	0.123
453.71	0.121
454.17	0.118
454.63	0.122
455.09	0.117
455.55	0.120
456.00	0.120
456.46	0.122
456.92	0.119
457.38	0.120
457.84	0.120
458.30	0.122
458.75	0.118
459.21	0.116
459.67	0.119
460.13	0.118
460.59	0.119
461.04	0.118
461.50	0.119
461.96	0.118
462.42	0.118
462.88	0.117
463.33	0.116
463.79	0.117
464.25	0.114
464.71	0.119
465.17	0.119
465.62	0.117
466.08	0.118
466.54	0.120
467.00	0.120
467.46	0.121
467.91	0.121
468.37	0.119
468.83	0.119
469.29	0.119
469.74	0.120
470.20	0.120
470.66	0.118
471.12	0.118
471.57	0.117
472.03	0.119
472.49	0.120
472.95	0.120
473.40	0.119
473.86	0.119
474.32	0.118
474.78	0.119
475.23	0.119
475.69	0.119
476.15	0.122
476.60	0.120
477.06	0.122
477.52	0.120
477.98	0.119
478.43	0.120
478.89	0.118
479.35	0.121
479.80	0.121
480.26	0.116
480.72	0.118
481.18	0.118
481.63	0.117
482.09	0.117
482.55	0.117
483.00	0.114
483.46	0.118
483.92	0.118
484.37	0.116
484.83	0.114
485.29	0.117
485.74	0.117
486.20	0.117
486.66	0.118
487.11	0.119
487.57	0.116
488.03	0.116
488.48	0.119
488.94	0.118
489.40	0.118
489.85	0.115
490.31	0.118
490.77	0.117
491.22	0.119
491.68	0.117
492.13	0.116
492.59	0.120
493.05	0.116
493.50	0.118
493.96	0.116
494.42	0.118
494.87	0.116
495.33	0.116
495.78	0.115
496.24	0.118
496.70	0.117
497.15	0.119
497.61	0.116
498.06	0.116
498.52	0.115
498.98	0.116
499.43	0.116
499.89	0.117
500.34	0.114
500.80	0.114
501.25	0.115
501.71	0.115
502.17	0.115
502.62	0.113
503.08	0.113
503.53	0.114
503.99	0.117
504.44	0.115
504.90	0.111
505.36	0.113
505.81	0.115
506.27	0.112
506.72	0.113
507.18	0.114
507.63	0.111
508.09	0.115
508.54	0.114
509.00	0.113
509.45	0.115
509.91	0.114
510.36	0.116
510.82	0.115
511.27	0.112
511.73	0.113
512.19	0.116
512.64	0.112
513.10	0.114
513.55	0.112
514.01	0.115
514.46	0.115
514.92	0.114
515.37	0.113
515.83	0.112
516.28	0.113
516.73	0.113
517.19	0.114
517.64	0.113
518.10	0.113
518.55	0.114
519.01	0.113
519.46	0.110
519.92	0.112
520.37	0.113
520.83	0.111
521.28	0.110
521.74	0.113
522.19	0.113
522.65	0.112
523.10	0.111
523.55	0.113
524.01	0.112
524.46	0.112
524.92	0.112
525.37	0.113
525.83	0.111
526.28	0.113
526.73	0.112
527.19	0.112
527.64	0.112
528.10	0.112
528.55	0.115
529.01	0.113
529.46	0.114
529.91	0.112
530.37	0.112
530.82	0.112
531.28	0.111
531.73	0.113
532.18	0.114
532.64	0.114
533.09	0.115
533.54	0.113
534.00	0.113
534.45	0.113
534.91	0.112
535.36	0.112
535.81	0.114
536.27	0.111
536.72	0.113
537.17	0.114
537.63	0.113
538.08	0.114
538.54	0.116
538.99	0.117
539.44	0.113
539.90	0.115
540.35	0.112
540.80	0.113
541.26	0.115
541.71	0.117
542.16	0.115
542.62	0.118
543.07	0.116
543.52	0.117
543.98	0.116
544.43	0.119
544.88	0.114
545.34	0.117
545.79	0.118
546.24	0.116
546.69	0.117
547.15	0.117
547.60	0.119
548.05	0.118
548.51	0.120
548.96	0.121
549.41	0.119
549.86	0.120
550.32	0.121
550.77	0.119
551.22	0.120
551.68	0.121
552.13	0.121
552.58	0.121
553.03	0.121
553.49	0.122
553.94	0.122
554.39	0.124
554.84	0.123
555.30	0.123
555.75	0.124
556.20	0.124
556.65	0.125
557.11	0.126
557.56	0.128
558.01	0.127
558.46	0.124
558.92	0.126
559.37	0.129
559.82	0.128
560.27	0.128
560.72	0.129
561.18	0.128
561.63	0.132
562.08	0.130
562.53	0.129
562.99	0.129
563.44	0.131
563.89	0.133
564.34	0.133
564.79	0.132
565.25	0.135
565.70	0.134
566.15	0.132
566.60	0.135
567.05	0.136
567.50	0.138
567.96	0.137
568.41	0.139
568.86	0.140
569.31	0.139
569.76	0.138
570.21	0.139
570.67	0.138
571.12	0.139
571.57	0.140
572.02	0.143
572.47	0.143
572.92	0.143
573.37	0.145
573.83	0.145
574.28	0.146
574.73	0.145
575.18	0.148
575.63	0.146
576.08	0.146
576.53	0.147
576.98	0.148
577.44	0.152
577.89	0.149
578.34	0.150
578.79	0.151
579.24	0.153
579.69	0.153
580.14	0.155
580.59	0.154
581.04	0.155
581.49	0.157
581.95	0.158
582.40	0.159
582.85	0.162
583.30	0.163
583.75	0.163
584.20	0.164
584.65	0.166
585.10	0.166
585.55	0.168
586.00	0.167
586.45	0.169
586.90	0.172
587.35	0.172
587.80	0.172
588.25	0.175
588.71	0.177
589.16	0.180
589.61	0.178
590.06	0.180
590.51	0.180
590.96	0.183
591.41	0.186
591.86	0.186
592.31	0.188
592.76	0.189
593.21	0.189
593.66	0.194
594.11	0.195
594.56	0.196
595.01	0.199
595.46	0.197
595.91	0.201
596.36	0.202
596.81	0.205
597.26	0.205
597.71	0.206
598.16	0.209
598.61	0.211
599.06	0.212
599.51	0.212
599.96	0.214
600.41	0.215
600.86	0.218
601.31	0.218
601.76	0.222
602.21	0.225
602.65	0.226
603.10	0.227
603.55	0.228
604.00	0.231
604.45	0.231
604.90	0.231
605.35	0.236
605.80	0.234
606.25	0.235
606.70	0.239
607.15	0.237
607.60	0.243
608.05	0.240
608.50	0.244
608.95	0.244
609.39	0.246
609.84	0.246
610.29	0.247
610.74	0.250
611.19	0.248
611.64	0.248
612.09	0.251
612.54	0.252
612.99	0.252
613.44	0.251
613.88	0.254
614.33	0.253
614.78	0.255
615.23	0.256
615.68	0.258
616.13	0.256
616.58	0.258
617.03	0.258
617.47	0.258
617.92	0.260
618.37	0.261
618.82	0.261
619.27	0.259
619.72	0.263
620.17	0.261
620.61	0.263
621.06	0.263
621.51	0.263
621.96	0.265
622.41	0.263
622.86	0.264
623.30	0.266
623.75	0.268
624.20	0.269
624.65	0.269
625.10	0.270
625.54	0.269
625.99	0.267
626.44	0.273
626.89	0.270
627.34	0.274
627.78	0.274
628.23	0.275
628.68	0.278
629.13	0.277
629.58	0.276
630.02	0.280
630.47	0.282
630.92	0.282
631.37	0.284
631.81	0.286
632.26	0.286
632.71	0.289
633.16	0.292
633.61	0.290
634.05	0.291
634.50	0.293
634.95	0.296
635.40	0.296
635.84	0.300
636.29	0.301
636.74	0.305
637.18	0.305
637.63	0.309
638.08	0.310
638.53	0.312
638.97	0.313
639.42	0.319
639.87	0.318
640.32	0.320
640.76	0.324
641.21	0.325
641.66	0.328
642.10	0.330
642.55	0.332
643.00	0.336
643.44	0.337
643.89	0.341
644.34	0.345
644.79	0.348
645.23	0.348
645.68	0.350
646.13	0.352
646.57	0.356
647.02	0.360
647.47	0.362
647.91	0.364
648.36	0.364
648.81	0.367
649.25	0.373
649.70	0.372
650.15	0.376
650.59	0.381
651.04	0.383
651.48	0.382
651.93	0.387
652.38	0.390
652.82	0.393
653.27	0.389
653.72	0.395
654.16	0.397
654.61	0.399
655.06	0.399
655.50	0.403
655.95	0.396
656.39	0.400
656.84	0.410
657.29	0.416
657.73	0.411
658.18	0.409
658.62	0.414
659.07	0.414
659.52	0.416
659.96	0.417
660.41	0.421
660.85	0.421
661.30	0.421
661.74	0.424
662.19	0.423
662.64	0.424
663.08	0.423
663.53	0.422
663.97	0.422
664.42	0.420
664.86	0.421
665.31	0.423
665.75	0.422
666.20	0.420
666.65	0.421
667.09	0.420
667.54	0.419
667.98	0.415
668.43	0.413
668.87	0.415
669.32	0.412
669.76	0.406
670.21	0.407
670.65	0.400
671.10	0.399
671.54	0.397
671.99	0.394
672.43	0.385
672.88	0.383
673.32	0.382
673.77	0.376
674.21	0.372
674.66	0.364
675.10	0.358
675.55	0.353
675.99	0.346
676.44	0.342
676.88	0.334
677.33	0.331
677.77	0.324
678.22	0.317
678.66	0.306
679.11	0.302
679.55	0.298
679.99	0.290
680.44	0.283
680.88	0.276
681.33	0.272
681.77	0.263
682.22	0.255
682.66	0.250
683.11	0.246
683.55	0.241
683.99	0.232
684.44	0.228
684.88	0.222
685.33	0.214
685.77	0.209
686.21	0.205
686.66	0.197
687.10	0.191
687.55	0.189
687.99	0.183
688.44	0.179
688.88	0.173
689.32	0.170
689.77	0.166
690.21	0.162
690.65	0.156
691.10	0.153
691.54	0.149
691.99	0.147
692.43	0.145
692.87	0.143
693.32	0.138
693.76	0.135
694.20	0.132
694.65	0.127
695.09	0.126
695.53	0.124
695.98	0.121
696.42	0.121
696.86	0.121
697.31	0.117
697.75	0.111
698.19	0.113
698.64	0.111
699.08	0.110
699.52	0.107
699.97	0.106
700.41	0.104
700.85	0.104
701.30	0.098
701.74	0.100
702.18	0.097
702.63	0.097
703.07	0.094
703.51	0.096
703.96	0.095
704.40	0.095
704.84	0.091
705.28	0.093
705.73	0.090
706.17	0.090
706.61	0.091
707.06	0.088
707.50	0.090
707.94	0.089
708.38	0.088
708.83	0.088
709.27	0.088
709.71	0.086
710.15	0.086
710.60	0.086
711.04	0.085
711.48	0.086
711.92	0.083
712.37	0.082
712.81	0.083
713.25	0.085
713.69	0.082
714.13	0.083
714.58	0.084
715.02	0.081
715.46	0.080
715.90	0.081
716.35	0.081
716.79	0.081
717.23	0.083
717.67	0.083
718.11	0.081
718.56	0.081
719.00	0.081
719.44	0.081
719.88	0.082
720.32	0.081
720.76	0.080
721.21	0.083
721.65	0.082
722.09	0.081
722.53	0.080
722.97	0.079
723.41	0.079
723.86	0.082
724.30	0.081
724.74	0.084
725.18	0.082
725.62	0.081
726.06	0.083
726.50	0.082
726.95	0.083
727.39	0.082
727.83	0.082
728.27	0.083
728.71	0.081
729.15	0.082
729.59	0.082
730.03	0.085
730.48	0.082
730.92	0.082
731.36	0.079
731.80	0.082
732.24	0.086
732.68	0.083
733.12	0.082
733.56	0.082
734.00	0.083
734.44	0.082
734.89	0.083
735.33	0.083
735.77	0.084
736.21	0.083
736.65	0.083
737.09	0.085
737.53	0.086
737.97	0.085
738.41	0.084
738.85	0.084
739.29	0.084
739.73	0.086
740.17	0.083
740.61	0.084
741.05	0.086
741.49	0.085
741.93	0.083
742.37	0.084
742.81	0.085
743.26	0.086
743.70	0.083
744.14	0.085
744.58	0.084
745.02	0.082
745.46	0.085
745.90	0.084
746.34	0.083
746.78	0.087
747.22	0.084
747.66	0.082
748.10	0.082
748.54	0.084
748.98	0.084
749.42	0.086
749.86	0.084
750.29	0.083
750.73	0.087
751.17	0.087
751.61	0.085
752.05	0.083
752.49	0.082
752.93	0.081
753.37	0.086
753.81	0.083
754.25	0.084
754.69	0.083
755.13	0.087
755.57	0.083
756.01	0.083
756.45	0.083
756.89	0.083
757.33	0.084
757.77	0.084
758.21	0.084
758.64	0.081
759.08	0.084
759.52	0.082
759.96	0.083
760.40	0.085
760.84	0.079
761.28	0.079
761.72	0.086
762.16	0.081
762.60	0.081
763.03	0.084
763.47	0.083
763.91	0.083
764.35	0.080
764.79	0.080
765.23	0.082
765.67	0.082
766.11	0.085
766.54	0.081
766.98	0.079
767.42	0.082
767.86	0.085
768.30	0.083
768.74	0.083
769.17	0.082
769.61	0.082
770.05	0.081
770.49	0.084
770.93	0.082
771.37	0.085
771.80	0.081
772.24	0.080
772.68	0.081
773.12	0.081
773.56	0.081
774.00	0.082
774.43	0.083
774.87	0.079
775.31	0.082
775.75	0.081
776.19	0.081
776.62	0.081
777.06	0.082
777.50	0.084
777.94	0.081
778.37	0.083
778.81	0.082
779.25	0.079
779.69	0.081
780.13	0.081
780.56	0.079
781.00	0.083
781.44	0.079
781.88	0.082
782.31	0.080
782.75	0.080
783.19	0.080
783.63	0.082
784.06	0.083
784.50	0.082
784.94	0.085
785.37	0.081
785.81	0.081
786.25	0.080
786.69	0.083
787.12	0.083
787.56	0.082
788.00	0.083
788.43	0.080
788.87	0.085
789.31	0.083
789.75	0.081
790.18	0.081
790.62	0.080
791.06	0.082
791.49	0.087
791.93	0.079
792.37	0.079
792.80	0.080
793.24	0.082
793.68	0.085
794.11	0.084
794.55	0.082
794.99	0.080
795.42	0.084
795.86	0.085
796.30	0.084
796.73	0.081
797.17	0.078
797.61	0.082
798.04	0.083
798.48	0.081
798.91	0.079
799.35	0.083
799.79	0.083
800.22	0.083
800.66	0.082
801.10	0.084
801.53	0.087
801.97	0.080
802.40	0.081
802.84	0.081
803.28	0.082
803.71	0.082
804.15	0.085
804.58	0.086
805.02	0.085
805.46	0.080
805.89	0.081
806.33	0.083
806.76	0.079
807.20	0.084
807.63	0.084
808.07	0.079
808.51	0.082
808.94	0.084
809.38	0.080
809.81	0.085
810.25	0.083
810.68	0.085
811.12	0.081
811.55	0.080
811.99	0.082
812.42	0.082
812.86	0.084
813.29	0.087
813.73	0.086
814.17	0.077
814.60	0.078
