SpectraSuite Data File
++++++++++++++++++++++++++++++++++++
Date: Wed May 04 15:06:34 CEST 2016
User: spectrasuite
Dark Spectrum Present: Yes
Reference Spectrum Present: Yes
Number of Sampled Component Spectra: 1
Spectrometers: HR+C0708
Integration Time (usec): 1000 (HR+C0708)
Spectra Averaged: 10 (HR+C0708)
Boxcar Smoothing: 0 (HR+C0708)
Correct for Electrical Dark: No (HR+C0708)
Strobe/Lamp Enabled: No (HR+C0708)
Correct for Detector Non-linearity: No (HR+C0708)
Correct for Stray Light: No (HR+C0708)
Number of Pixels in Processed Spectrum: 2048
>>>>>Begin Processed Spectral Data<<<<<
188.76	-0.000
189.23	-0.000
189.70	-0.000
190.17	-0.000
190.64	-0.000
191.12	-0.000
191.59	-0.000
192.06	-0.000
192.53	-0.000
193.01	-0.000
193.48	-0.000
193.95	-0.000
194.42	-0.000
194.90	-0.000
195.37	-0.000
195.84	-0.000
196.31	-0.000
196.78	-0.000
197.26	-0.000
197.73	-0.000
198.20	-0.000
198.67	-0.000
199.14	-0.000
199.62	-0.000
200.09	-0.000
200.56	-0.000
201.03	-0.000
201.50	1.072
201.97	1.028
202.45	-0.000
202.92	-0.000
203.39	1.152
203.86	-0.000
204.33	-0.000
204.80	-0.000
205.28	1.721
205.75	-0.000
206.22	0.941
206.69	0.666
207.16	0.777
207.63	-0.000
208.11	-0.000
208.58	1.385
209.05	1.271
209.52	-0.000
209.99	0.922
210.46	0.694
210.93	-0.000
211.41	0.936
211.88	0.924
212.35	0.763
212.82	-0.000
213.29	0.717
213.76	1.277
214.23	1.182
214.70	0.998
215.18	1.702
215.65	0.600
216.12	0.755
216.59	1.108
217.06	0.621
217.53	0.834
218.00	1.685
218.47	0.810
218.94	0.856
219.41	0.758
219.89	1.053
220.36	0.897
220.83	1.300
221.30	2.086
221.77	1.446
222.24	0.892
222.71	1.302
223.18	-0.000
223.65	0.753
224.12	1.019
224.59	1.063
225.06	0.925
225.54	0.829
226.01	1.171
226.48	-0.000
226.95	1.362
227.42	0.961
227.89	2.463
228.36	1.438
228.83	1.268
229.30	1.473
229.77	-0.000
230.24	1.768
230.71	2.011
231.18	1.595
231.65	-0.000
232.12	1.919
232.59	2.053
233.06	-0.000
233.53	2.680
234.00	1.717
234.47	2.249
234.94	2.125
235.41	1.963
235.88	2.262
236.35	3.397
236.82	2.264
237.29	2.080
237.76	2.059
238.23	2.595
238.70	2.407
239.17	2.203
239.64	3.444
240.11	2.792
240.58	2.252
241.05	2.277
241.52	2.331
241.99	2.376
242.46	2.325
242.93	2.315
243.40	3.780
243.87	3.370
244.34	2.284
244.81	2.937
245.28	2.705
245.75	2.448
246.22	2.591
246.69	3.071
247.16	2.631
247.63	3.244
248.10	2.706
248.57	-0.000
249.04	2.918
249.51	2.449
249.98	3.025
250.45	2.999
250.92	2.533
251.39	2.478
251.85	2.333
252.32	2.102
252.79	2.074
253.26	1.888
253.73	1.800
254.20	1.673
254.67	1.573
255.14	1.536
255.61	1.445
256.08	1.369
256.55	1.312
257.02	1.270
257.49	1.224
257.95	1.180
258.42	1.138
258.89	1.107
259.36	1.076
259.83	1.048
260.30	1.021
260.77	0.990
261.24	0.976
261.71	0.955
262.17	0.932
262.64	0.919
263.11	0.898
263.58	0.877
264.05	0.866
264.52	0.850
264.99	0.834
265.46	0.821
265.92	0.808
266.39	0.798
266.86	0.787
267.33	0.780
267.80	0.766
268.27	0.757
268.74	0.752
269.20	0.739
269.67	0.730
270.14	0.721
270.61	0.712
271.08	0.706
271.55	0.693
272.01	0.693
272.48	0.685
272.95	0.675
273.42	0.669
273.89	0.667
274.36	0.659
274.82	0.652
275.29	0.654
275.76	0.644
276.23	0.643
276.70	0.638
277.16	0.634
277.63	0.628
278.10	0.623
278.57	0.626
279.04	0.619
279.50	0.619
279.97	0.616
280.44	0.612
280.91	0.610
281.38	0.607
281.84	0.605
282.31	0.604
282.78	0.604
283.25	0.606
283.72	0.602
284.18	0.604
284.65	0.599
285.12	0.601
285.59	0.600
286.05	0.605
286.52	0.601
286.99	0.604
287.46	0.604
287.92	0.601
288.39	0.601
288.86	0.603
289.33	0.602
289.79	0.599
290.26	0.596
290.73	0.593
291.20	0.592
291.66	0.591
292.13	0.586
292.60	0.588
293.07	0.582
293.53	0.579
294.00	0.574
294.47	0.571
294.93	0.564
295.40	0.557
295.87	0.553
296.34	0.540
296.80	0.535
297.27	0.526
297.74	0.520
298.20	0.513
298.67	0.506
299.14	0.498
299.60	0.488
300.07	0.480
300.54	0.473
301.01	0.465
301.47	0.456
301.94	0.451
302.41	0.441
302.87	0.435
303.34	0.426
303.81	0.422
304.27	0.418
304.74	0.404
305.21	0.399
305.67	0.394
306.14	0.389
306.61	0.381
307.07	0.376
307.54	0.371
308.01	0.366
308.47	0.359
308.94	0.355
309.40	0.352
309.87	0.347
310.34	0.345
310.80	0.343
311.27	0.335
311.74	0.331
312.20	0.327
312.67	0.329
313.13	0.324
313.60	0.321
314.07	0.319
314.53	0.317
315.00	0.311
315.47	0.313
315.93	0.314
316.40	0.307
316.86	0.306
317.33	0.303
317.80	0.305
318.26	0.303
318.73	0.300
319.19	0.301
319.66	0.297
320.13	0.295
320.59	0.294
321.06	0.294
321.52	0.292
321.99	0.294
322.45	0.289
322.92	0.286
323.39	0.287
323.85	0.286
324.32	0.285
324.78	0.280
325.25	0.278
325.71	0.279
326.18	0.277
326.64	0.277
327.11	0.271
327.58	0.275
328.04	0.277
328.51	0.271
328.97	0.271
329.44	0.267
329.90	0.266
330.37	0.262
330.83	0.264
331.30	0.263
331.76	0.261
332.23	0.260
332.69	0.254
333.16	0.257
333.62	0.251
334.09	0.251
334.56	0.251
335.02	0.250
335.49	0.246
335.95	0.240
336.42	0.241
336.88	0.238
337.35	0.237
337.81	0.235
338.28	0.235
338.74	0.234
339.20	0.233
339.67	0.236
340.13	0.234
340.60	0.232
341.06	0.228
341.53	0.224
341.99	0.223
342.46	0.222
342.92	0.221
343.39	0.218
343.85	0.217
344.32	0.218
344.78	0.215
345.25	0.218
345.71	0.218
346.17	0.222
346.64	0.220
347.10	0.215
347.57	0.214
348.03	0.211
348.50	0.210
348.96	0.210
349.43	0.209
349.89	0.210
350.35	0.210
350.82	0.208
351.28	0.211
351.75	0.207
352.21	0.213
352.67	0.202
353.14	0.208
353.60	0.203
354.07	0.202
354.53	0.201
355.00	0.199
355.46	0.199
355.92	0.195
356.39	0.199
356.85	0.193
357.31	0.192
357.78	0.193
358.24	0.190
358.71	0.192
359.17	0.195
359.63	0.191
360.10	0.188
360.56	0.190
361.03	0.187
361.49	0.189
361.95	0.186
362.42	0.187
362.88	0.186
363.34	0.188
363.81	0.185
364.27	0.183
364.73	0.185
365.20	0.181
365.66	0.182
366.12	0.183
366.59	0.181
367.05	0.182
367.51	0.180
367.98	0.180
368.44	0.179
368.90	0.178
369.37	0.178
369.83	0.179
370.29	0.175
370.76	0.178
371.22	0.175
371.68	0.175
372.15	0.176
372.61	0.173
373.07	0.174
373.54	0.171
374.00	0.172
374.46	0.174
374.92	0.174
375.39	0.173
375.85	0.172
376.31	0.174
376.78	0.171
377.24	0.170
377.70	0.172
378.16	0.174
378.63	0.170
379.09	0.170
379.55	0.170
380.01	0.172
380.48	0.173
380.94	0.171
381.40	0.170
381.87	0.171
382.33	0.168
382.79	0.168
383.25	0.168
383.72	0.170
384.18	0.166
384.64	0.166
385.10	0.168
385.56	0.166
386.03	0.169
386.49	0.165
386.95	0.166
387.41	0.166
387.88	0.163
388.34	0.161
388.80	0.166
389.26	0.167
389.72	0.166
390.19	0.164
390.65	0.164
391.11	0.164
391.57	0.166
392.04	0.163
392.50	0.163
392.96	0.162
393.42	0.163
393.88	0.165
394.34	0.160
394.81	0.161
395.27	0.162
395.73	0.157
396.19	0.162
396.65	0.160
397.12	0.159
397.58	0.160
398.04	0.160
398.50	0.160
398.96	0.159
399.42	0.162
399.89	0.161
400.35	0.162
400.81	0.157
401.27	0.159
401.73	0.159
402.19	0.158
402.65	0.154
403.12	0.156
403.58	0.156
404.04	0.154
404.50	0.153
404.96	0.153
405.42	0.155
405.88	0.152
406.34	0.156
406.81	0.154
407.27	0.151
407.73	0.149
408.19	0.153
408.65	0.150
409.11	0.150
409.57	0.150
410.03	0.153
410.49	0.154
410.96	0.152
411.42	0.150
411.88	0.148
412.34	0.145
412.80	0.150
413.26	0.149
413.72	0.147
414.18	0.148
414.64	0.148
415.10	0.149
415.56	0.149
416.02	0.149
416.48	0.148
416.95	0.148
417.41	0.146
417.87	0.147
418.33	0.147
418.79	0.145
419.25	0.147
419.71	0.147
420.17	0.145
420.63	0.143
421.09	0.141
421.55	0.142
422.01	0.144
422.47	0.147
422.93	0.148
423.39	0.144
423.85	0.145
424.31	0.144
424.77	0.143
425.23	0.143
425.69	0.144
426.15	0.144
426.61	0.143
427.07	0.141
427.53	0.141
427.99	0.142
428.45	0.146
428.91	0.139
429.37	0.141
429.83	0.142
430.29	0.143
430.75	0.144
431.21	0.147
431.67	0.145
432.13	0.146
432.59	0.140
433.05	0.143
433.51	0.138
433.97	0.138
434.43	0.144
434.89	0.146
435.35	0.140
435.81	0.142
436.27	0.142
436.73	0.141
437.19	0.144
437.65	0.138
438.11	0.144
438.57	0.139
439.03	0.139
439.48	0.144
439.94	0.141
440.40	0.139
440.86	0.136
441.32	0.140
441.78	0.138
442.24	0.140
442.70	0.141
443.16	0.139
443.62	0.140
444.08	0.139
444.54	0.140
444.99	0.139
445.45	0.138
445.91	0.137
446.37	0.138
446.83	0.139
447.29	0.137
447.75	0.138
448.21	0.140
448.67	0.139
449.12	0.137
449.58	0.137
450.04	0.140
450.50	0.138
450.96	0.137
451.42	0.139
451.88	0.137
452.34	0.136
452.79	0.136
453.25	0.139
453.71	0.136
454.17	0.136
454.63	0.138
455.09	0.136
455.55	0.137
456.00	0.134
456.46	0.138
456.92	0.133
457.38	0.135
457.84	0.135
458.30	0.136
458.75	0.135
459.21	0.136
459.67	0.133
460.13	0.137
460.59	0.136
461.04	0.135
461.50	0.134
461.96	0.137
462.42	0.135
462.88	0.134
463.33	0.134
463.79	0.135
464.25	0.135
464.71	0.138
465.17	0.134
465.62	0.134
466.08	0.136
466.54	0.137
467.00	0.138
467.46	0.135
467.91	0.137
468.37	0.137
468.83	0.138
469.29	0.136
469.74	0.137
470.20	0.135
470.66	0.135
471.12	0.137
471.57	0.135
472.03	0.134
472.49	0.135
472.95	0.136
473.40	0.136
473.86	0.136
474.32	0.136
474.78	0.134
475.23	0.136
475.69	0.135
476.15	0.139
476.60	0.137
477.06	0.137
477.52	0.137
477.98	0.136
478.43	0.137
478.89	0.135
479.35	0.139
479.80	0.134
480.26	0.135
480.72	0.134
481.18	0.134
481.63	0.136
482.09	0.135
482.55	0.133
483.00	0.135
483.46	0.136
483.92	0.134
484.37	0.135
484.83	0.131
485.29	0.136
485.74	0.133
486.20	0.134
486.66	0.135
487.11	0.134
487.57	0.133
488.03	0.133
488.48	0.136
488.94	0.131
489.40	0.135
489.85	0.134
490.31	0.133
490.77	0.132
491.22	0.136
491.68	0.133
492.13	0.134
492.59	0.134
493.05	0.134
493.50	0.133
493.96	0.133
494.42	0.135
494.87	0.135
495.33	0.134
495.78	0.132
496.24	0.133
496.70	0.136
497.15	0.133
497.61	0.135
498.06	0.133
498.52	0.131
498.98	0.134
499.43	0.132
499.89	0.132
500.34	0.132
500.80	0.133
501.25	0.133
501.71	0.131
502.17	0.130
502.62	0.131
503.08	0.130
503.53	0.130
503.99	0.131
504.44	0.133
504.90	0.131
505.36	0.131
505.81	0.132
506.27	0.131
506.72	0.131
507.18	0.132
507.63	0.132
508.09	0.133
508.54	0.131
509.00	0.131
509.45	0.130
509.91	0.130
510.36	0.131
510.82	0.132
511.27	0.131
511.73	0.131
512.19	0.132
512.64	0.129
513.10	0.131
513.55	0.129
514.01	0.130
514.46	0.131
514.92	0.130
515.37	0.131
515.83	0.130
516.28	0.130
516.73	0.130
517.19	0.129
517.64	0.129
518.10	0.130
518.55	0.131
519.01	0.130
519.46	0.127
519.92	0.128
520.37	0.128
520.83	0.129
521.28	0.128
521.74	0.128
522.19	0.130
522.65	0.128
523.10	0.127
523.55	0.129
524.01	0.129
524.46	0.126
524.92	0.126
525.37	0.131
525.83	0.127
526.28	0.129
526.73	0.130
527.19	0.128
527.64	0.127
528.10	0.127
528.55	0.130
529.01	0.129
529.46	0.129
529.91	0.126
530.37	0.130
530.82	0.129
531.28	0.130
531.73	0.130
532.18	0.132
532.64	0.130
533.09	0.130
533.54	0.129
534.00	0.131
534.45	0.130
534.91	0.129
535.36	0.130
535.81	0.129
536.27	0.129
536.72	0.129
537.17	0.130
537.63	0.128
538.08	0.134
538.54	0.131
538.99	0.133
539.44	0.131
539.90	0.132
540.35	0.131
540.80	0.130
541.26	0.130
541.71	0.134
542.16	0.134
542.62	0.135
543.07	0.133
543.52	0.132
543.98	0.134
544.43	0.132
544.88	0.132
545.34	0.134
545.79	0.135
546.24	0.135
546.69	0.134
547.15	0.135
547.60	0.136
548.05	0.135
548.51	0.136
548.96	0.138
549.41	0.136
549.86	0.139
550.32	0.139
550.77	0.140
551.22	0.139
551.68	0.138
552.13	0.140
552.58	0.138
553.03	0.141
553.49	0.140
553.94	0.139
554.39	0.141
554.84	0.143
555.30	0.142
555.75	0.144
556.20	0.143
556.65	0.142
557.11	0.145
557.56	0.145
558.01	0.146
558.46	0.144
558.92	0.147
559.37	0.149
559.82	0.147
560.27	0.146
560.72	0.149
561.18	0.147
561.63	0.150
562.08	0.148
562.53	0.148
562.99	0.153
563.44	0.152
563.89	0.149
564.34	0.153
564.79	0.155
565.25	0.153
565.70	0.155
566.15	0.155
566.60	0.157
567.05	0.157
567.50	0.158
567.96	0.159
568.41	0.159
568.86	0.158
569.31	0.159
569.76	0.159
570.21	0.161
570.67	0.161
571.12	0.163
571.57	0.163
572.02	0.163
572.47	0.165
572.92	0.164
573.37	0.167
573.83	0.167
574.28	0.168
574.73	0.167
575.18	0.169
575.63	0.169
576.08	0.170
576.53	0.170
576.98	0.172
577.44	0.175
577.89	0.172
578.34	0.175
578.79	0.175
579.24	0.176
579.69	0.178
580.14	0.179
580.59	0.181
581.04	0.181
581.49	0.182
581.95	0.184
582.40	0.186
582.85	0.187
583.30	0.188
583.75	0.189
584.20	0.191
584.65	0.193
585.10	0.195
585.55	0.194
586.00	0.193
586.45	0.197
586.90	0.199
587.35	0.199
587.80	0.203
588.25	0.203
588.71	0.205
589.16	0.209
589.61	0.207
590.06	0.210
590.51	0.211
590.96	0.214
591.41	0.217
591.86	0.218
592.31	0.219
592.76	0.221
593.21	0.219
593.66	0.224
594.11	0.226
594.56	0.228
595.01	0.229
595.46	0.231
595.91	0.234
596.36	0.237
596.81	0.240
597.26	0.239
597.71	0.243
598.16	0.245
598.61	0.248
599.06	0.248
599.51	0.246
599.96	0.251
600.41	0.251
600.86	0.256
601.31	0.255
601.76	0.259
602.21	0.260
602.65	0.265
603.10	0.266
603.55	0.264
604.00	0.269
604.45	0.270
604.90	0.272
605.35	0.275
605.80	0.273
606.25	0.276
606.70	0.281
607.15	0.280
607.60	0.281
608.05	0.283
608.50	0.285
608.95	0.284
609.39	0.289
609.84	0.288
610.29	0.291
610.74	0.291
611.19	0.293
611.64	0.292
612.09	0.292
612.54	0.295
612.99	0.295
613.44	0.295
613.88	0.296
614.33	0.297
614.78	0.299
615.23	0.300
615.68	0.302
616.13	0.303
616.58	0.302
617.03	0.305
617.47	0.303
617.92	0.305
618.37	0.307
618.82	0.307
619.27	0.306
619.72	0.310
620.17	0.308
620.61	0.309
621.06	0.308
621.51	0.308
621.96	0.310
622.41	0.311
622.86	0.311
623.30	0.312
623.75	0.313
624.20	0.313
624.65	0.313
625.10	0.317
625.54	0.314
625.99	0.316
626.44	0.317
626.89	0.317
627.34	0.319
627.78	0.323
628.23	0.320
628.68	0.323
629.13	0.323
629.58	0.325
630.02	0.327
630.47	0.329
630.92	0.329
631.37	0.332
631.81	0.332
632.26	0.333
632.71	0.335
633.16	0.339
633.61	0.338
634.05	0.341
634.50	0.342
634.95	0.347
635.40	0.348
635.84	0.350
636.29	0.351
636.74	0.355
637.18	0.359
637.63	0.358
638.08	0.360
638.53	0.361
638.97	0.364
639.42	0.370
639.87	0.370
640.32	0.372
640.76	0.377
641.21	0.379
641.66	0.381
642.10	0.384
642.55	0.387
643.00	0.392
643.44	0.393
643.89	0.397
644.34	0.402
644.79	0.405
645.23	0.404
645.68	0.408
646.13	0.413
646.57	0.416
647.02	0.418
647.47	0.423
647.91	0.425
648.36	0.428
648.81	0.432
649.25	0.435
649.70	0.437
650.15	0.440
650.59	0.444
651.04	0.445
651.48	0.449
651.93	0.451
652.38	0.455
652.82	0.460
653.27	0.460
653.72	0.462
654.16	0.465
654.61	0.468
655.06	0.470
655.50	0.472
655.95	0.470
656.39	0.471
656.84	0.481
657.29	0.484
657.73	0.484
658.18	0.484
658.62	0.485
659.07	0.491
659.52	0.489
659.96	0.493
660.41	0.496
660.85	0.495
661.30	0.495
661.74	0.496
662.19	0.501
662.64	0.501
663.08	0.498
663.53	0.502
663.97	0.501
664.42	0.502
664.86	0.502
665.31	0.500
665.75	0.501
666.20	0.501
666.65	0.499
667.09	0.499
667.54	0.497
667.98	0.494
668.43	0.494
668.87	0.492
669.32	0.487
669.76	0.486
670.21	0.484
670.65	0.478
671.10	0.473
671.54	0.472
671.99	0.468
672.43	0.459
672.88	0.458
673.32	0.452
673.77	0.448
674.21	0.440
674.66	0.433
675.10	0.427
675.55	0.420
675.99	0.413
676.44	0.405
676.88	0.399
677.33	0.390
677.77	0.382
678.22	0.376
678.66	0.370
679.11	0.361
679.55	0.352
679.99	0.344
680.44	0.338
680.88	0.329
681.33	0.322
681.77	0.314
682.22	0.303
682.66	0.300
683.11	0.290
683.55	0.284
683.99	0.277
684.44	0.271
684.88	0.262
685.33	0.256
685.77	0.247
686.21	0.241
686.66	0.233
687.10	0.227
687.55	0.223
687.99	0.216
688.44	0.210
688.88	0.202
689.32	0.200
689.77	0.193
690.21	0.189
690.65	0.184
691.10	0.180
691.54	0.176
691.99	0.171
692.43	0.168
692.87	0.165
693.32	0.159
693.76	0.157
694.20	0.153
694.65	0.151
695.09	0.146
695.53	0.144
695.98	0.141
696.42	0.139
696.86	0.136
697.31	0.136
697.75	0.132
698.19	0.131
698.64	0.127
699.08	0.124
699.52	0.124
699.97	0.121
700.41	0.120
700.85	0.118
701.30	0.113
701.74	0.115
702.18	0.111
702.63	0.111
703.07	0.107
703.51	0.108
703.96	0.108
704.40	0.106
704.84	0.106
705.28	0.104
705.73	0.106
706.17	0.101
706.61	0.104
707.06	0.102
707.50	0.100
707.94	0.101
708.38	0.098
708.83	0.099
709.27	0.097
709.71	0.098
710.15	0.098
710.60	0.100
711.04	0.096
711.48	0.097
711.92	0.095
712.37	0.094
712.81	0.094
713.25	0.092
713.69	0.092
714.13	0.093
714.58	0.092
715.02	0.091
715.46	0.089
715.90	0.093
716.35	0.092
716.79	0.093
717.23	0.094
717.67	0.093
718.11	0.090
718.56	0.091
719.00	0.089
719.44	0.092
719.88	0.093
720.32	0.092
720.76	0.089
721.21	0.090
721.65	0.089
722.09	0.089
722.53	0.089
722.97	0.090
723.41	0.090
723.86	0.091
724.30	0.090
724.74	0.091
725.18	0.089
725.62	0.089
726.06	0.091
726.50	0.091
726.95	0.093
727.39	0.091
727.83	0.092
728.27	0.092
728.71	0.090
729.15	0.089
729.59	0.088
730.03	0.091
730.48	0.091
730.92	0.091
731.36	0.090
731.80	0.090
732.24	0.095
732.68	0.091
733.12	0.091
733.56	0.094
734.00	0.093
734.44	0.091
734.89	0.095
735.33	0.089
735.77	0.094
736.21	0.092
736.65	0.093
737.09	0.094
737.53	0.092
737.97	0.095
738.41	0.092
738.85	0.094
739.29	0.092
739.73	0.092
740.17	0.091
740.61	0.091
741.05	0.095
741.49	0.092
741.93	0.093
742.37	0.092
742.81	0.092
743.26	0.094
743.70	0.092
744.14	0.091
744.58	0.093
745.02	0.092
745.46	0.090
745.90	0.091
746.34	0.093
746.78	0.092
747.22	0.093
747.66	0.089
748.10	0.093
748.54	0.092
748.98	0.090
749.42	0.092
749.86	0.093
750.29	0.094
750.73	0.093
751.17	0.091
751.61	0.094
752.05	0.089
752.49	0.094
752.93	0.090
753.37	0.090
753.81	0.091
754.25	0.091
754.69	0.093
755.13	0.095
755.57	0.091
756.01	0.090
756.45	0.089
756.89	0.089
757.33	0.091
757.77	0.091
758.21	0.091
758.64	0.088
759.08	0.089
759.52	0.090
759.96	0.090
760.40	0.091
760.84	0.088
761.28	0.089
761.72	0.091
762.16	0.088
762.60	0.088
763.03	0.090
763.47	0.088
763.91	0.089
764.35	0.090
764.79	0.089
765.23	0.089
765.67	0.088
766.11	0.091
766.54	0.089
766.98	0.088
767.42	0.089
767.86	0.092
768.30	0.089
768.74	0.087
769.17	0.091
769.61	0.089
770.05	0.089
770.49	0.092
770.93	0.088
771.37	0.090
771.80	0.090
772.24	0.086
772.68	0.088
773.12	0.086
773.56	0.091
774.00	0.092
774.43	0.090
774.87	0.088
775.31	0.088
775.75	0.088
776.19	0.088
776.62	0.089
777.06	0.086
777.50	0.088
777.94	0.087
778.37	0.089
778.81	0.089
779.25	0.087
779.69	0.087
780.13	0.087
780.56	0.085
781.00	0.089
781.44	0.086
781.88	0.089
782.31	0.084
782.75	0.086
783.19	0.088
783.63	0.089
784.06	0.090
784.50	0.088
784.94	0.089
785.37	0.086
785.81	0.087
786.25	0.087
786.69	0.089
787.12	0.089
787.56	0.091
788.00	0.091
788.43	0.088
788.87	0.086
789.31	0.091
789.75	0.087
790.18	0.091
790.62	0.088
791.06	0.090
791.49	0.089
791.93	0.084
792.37	0.084
792.80	0.088
793.24	0.088
793.68	0.090
794.11	0.090
794.55	0.088
794.99	0.086
795.42	0.092
795.86	0.091
796.30	0.091
796.73	0.087
797.17	0.086
797.61	0.087
798.04	0.088
798.48	0.086
798.91	0.091
799.35	0.088
799.79	0.086
800.22	0.089
800.66	0.086
801.10	0.093
801.53	0.093
801.97	0.091
802.40	0.084
802.84	0.085
803.28	0.086
803.71	0.089
804.15	0.088
804.58	0.091
805.02	0.088
805.46	0.086
805.89	0.086
806.33	0.087
806.76	0.086
807.20	0.092
807.63	0.091
808.07	0.087
808.51	0.089
808.94	0.090
809.38	0.088
809.81	0.091
810.25	0.089
810.68	0.091
811.12	0.087
811.55	0.087
811.99	0.088
812.42	0.092
812.86	0.089
813.29	0.089
813.73	0.087
814.17	0.084
814.60	0.084
815.04	0.087
815.47	0.084
815.91	0.087
816.34	0.089
