SpectraSuite Data File
++++++++++++++++++++++++++++++++++++
Date: Wed May 04 15:44:52 CEST 2016
User: spectrasuite
Dark Spectrum Present: Yes
Reference Spectrum Present: Yes
Number of Sampled Component Spectra: 1
Spectrometers: HR+C0708
Integration Time (usec): 1000 (HR+C0708)
Spectra Averaged: 10 (HR+C0708)
Boxcar Smoothing: 0 (HR+C0708)
Correct for Electrical Dark: No (HR+C0708)
Strobe/Lamp Enabled: No (HR+C0708)
Correct for Detector Non-linearity: No (HR+C0708)
Correct for Stray Light: No (HR+C0708)
Number of Pixels in Processed Spectrum: 2048
>>>>>Begin Processed Spectral Data<<<<<
188.76	-0.000
189.23	-0.000
189.70	-0.000
190.17	-0.000
190.64	-0.000
191.12	-0.000
191.59	-0.000
192.06	-0.000
192.53	-0.000
193.01	-0.000
193.48	-0.000
193.95	-0.000
194.42	-0.000
194.90	-0.000
195.37	-0.000
195.84	-0.000
196.31	-0.000
196.78	-0.000
197.26	-0.000
197.73	-0.000
198.20	-0.000
198.67	-0.000
199.14	-0.000
199.62	-0.000
200.09	-0.000
200.56	-0.000
201.03	-0.000
201.50	1.393
201.97	-0.000
202.45	-0.000
202.92	-0.000
203.39	-0.000
203.86	-0.000
204.33	-0.000
204.80	-0.000
205.28	-0.000
205.75	-0.000
206.22	-0.000
206.69	-0.000
207.16	-0.000
207.63	-0.000
208.11	-0.000
208.58	-0.000
209.05	-0.000
209.52	-0.000
209.99	-0.000
210.46	1.018
210.93	-0.000
211.41	-0.000
211.88	1.360
212.35	-0.000
212.82	-0.000
213.29	1.238
213.76	-0.000
214.23	-0.000
214.70	2.246
215.18	-0.000
215.65	-0.000
216.12	-0.000
216.59	-0.000
217.06	1.038
217.53	-0.000
218.00	-0.000
218.47	0.972
218.94	-0.000
219.41	-0.000
219.89	0.970
220.36	-0.000
220.83	-0.000
221.30	-0.000
221.77	-0.000
222.24	1.365
222.71	-0.000
223.18	-0.000
223.65	0.954
224.12	1.423
224.59	1.596
225.06	-0.000
225.54	1.568
226.01	-0.000
226.48	-0.000
226.95	-0.000
227.42	-0.000
227.89	-0.000
228.36	-0.000
228.83	1.750
229.30	-0.000
229.77	-0.000
230.24	2.145
230.71	2.437
231.18	-0.000
231.65	-0.000
232.12	-0.000
232.59	-0.000
233.06	-0.000
233.53	-0.000
234.00	2.252
234.47	-0.000
234.94	-0.000
235.41	3.536
235.88	2.592
236.35	-0.000
236.82	2.735
237.29	-0.000
237.76	-0.000
238.23	-0.000
238.70	-0.000
239.17	2.249
239.64	-0.000
240.11	-0.000
240.58	2.770
241.05	-0.000
241.52	-0.000
241.99	2.526
242.46	3.016
242.93	3.094
243.40	-0.000
243.87	-0.000
244.34	3.033
244.81	3.228
245.28	-0.000
245.75	2.647
246.22	3.018
246.69	-0.000
247.16	2.973
247.63	2.985
248.10	2.989
248.57	-0.000
249.04	-0.000
249.51	2.813
249.98	-0.000
250.45	3.560
250.92	2.910
251.39	2.713
251.85	2.633
252.32	2.127
252.79	2.073
253.26	1.923
253.73	1.857
254.20	1.723
254.67	1.591
255.14	1.543
255.61	1.467
256.08	1.387
256.55	1.324
257.02	1.279
257.49	1.218
257.95	1.185
258.42	1.141
258.89	1.103
259.36	1.077
259.83	1.044
260.30	1.022
260.77	1.000
261.24	0.974
261.71	0.952
262.17	0.934
262.64	0.913
263.11	0.895
263.58	0.880
264.05	0.863
264.52	0.844
264.99	0.831
265.46	0.824
265.92	0.805
266.39	0.794
266.86	0.785
267.33	0.777
267.80	0.760
268.27	0.753
268.74	0.747
269.20	0.733
269.67	0.727
270.14	0.720
270.61	0.707
271.08	0.699
271.55	0.694
272.01	0.686
272.48	0.678
272.95	0.671
273.42	0.664
273.89	0.661
274.36	0.655
274.82	0.645
275.29	0.642
275.76	0.637
276.23	0.633
276.70	0.624
277.16	0.624
277.63	0.623
278.10	0.618
278.57	0.611
279.04	0.611
279.50	0.608
279.97	0.600
280.44	0.603
280.91	0.600
281.38	0.597
281.84	0.595
282.31	0.593
282.78	0.596
283.25	0.594
283.72	0.587
284.18	0.591
284.65	0.590
285.12	0.589
285.59	0.590
286.05	0.585
286.52	0.584
286.99	0.587
287.46	0.585
287.92	0.588
288.39	0.583
288.86	0.585
289.33	0.587
289.79	0.583
290.26	0.580
290.73	0.580
291.20	0.576
291.66	0.576
292.13	0.571
292.60	0.568
293.07	0.564
293.53	0.561
294.00	0.553
294.47	0.550
294.93	0.545
295.40	0.538
295.87	0.539
296.34	0.524
296.80	0.521
297.27	0.511
297.74	0.506
298.20	0.501
298.67	0.489
299.14	0.481
299.60	0.474
300.07	0.465
300.54	0.457
301.01	0.454
301.47	0.442
301.94	0.436
302.41	0.428
302.87	0.420
303.34	0.413
303.81	0.410
304.27	0.403
304.74	0.397
305.21	0.387
305.67	0.382
306.14	0.376
306.61	0.373
307.07	0.363
307.54	0.359
308.01	0.354
308.47	0.347
308.94	0.345
309.40	0.341
309.87	0.339
310.34	0.335
310.80	0.328
311.27	0.327
311.74	0.323
312.20	0.319
312.67	0.320
313.13	0.312
313.60	0.313
314.07	0.308
314.53	0.306
315.00	0.303
315.47	0.303
315.93	0.301
316.40	0.298
316.86	0.295
317.33	0.295
317.80	0.294
318.26	0.290
318.73	0.291
319.19	0.292
319.66	0.284
320.13	0.282
320.59	0.284
321.06	0.284
321.52	0.283
321.99	0.284
322.45	0.276
322.92	0.279
323.39	0.277
323.85	0.277
324.32	0.273
324.78	0.272
325.25	0.268
325.71	0.269
326.18	0.269
326.64	0.266
327.11	0.263
327.58	0.260
328.04	0.266
328.51	0.260
328.97	0.258
329.44	0.259
329.90	0.254
330.37	0.254
330.83	0.255
331.30	0.254
331.76	0.248
332.23	0.249
332.69	0.243
333.16	0.244
333.62	0.242
334.09	0.241
334.56	0.238
335.02	0.238
335.49	0.235
335.95	0.231
336.42	0.230
336.88	0.226
337.35	0.223
337.81	0.226
338.28	0.226
338.74	0.225
339.20	0.224
339.67	0.224
340.13	0.224
340.60	0.220
341.06	0.219
341.53	0.215
341.99	0.218
342.46	0.215
342.92	0.211
343.39	0.209
343.85	0.206
344.32	0.209
344.78	0.206
345.25	0.208
345.71	0.209
346.17	0.211
346.64	0.210
347.10	0.206
347.57	0.206
348.03	0.201
348.50	0.200
348.96	0.201
349.43	0.202
349.89	0.203
350.35	0.200
350.82	0.198
351.28	0.200
351.75	0.199
352.21	0.202
352.67	0.198
353.14	0.198
353.60	0.195
354.07	0.195
354.53	0.192
355.00	0.192
355.46	0.190
355.92	0.188
356.39	0.191
356.85	0.182
357.31	0.182
357.78	0.182
358.24	0.185
358.71	0.186
359.17	0.185
359.63	0.180
360.10	0.180
360.56	0.179
361.03	0.180
361.49	0.178
361.95	0.178
362.42	0.179
362.88	0.180
363.34	0.180
363.81	0.176
364.27	0.179
364.73	0.179
365.20	0.176
365.66	0.176
366.12	0.177
366.59	0.176
367.05	0.177
367.51	0.173
367.98	0.177
368.44	0.173
368.90	0.171
369.37	0.174
369.83	0.173
370.29	0.172
370.76	0.172
371.22	0.171
371.68	0.172
372.15	0.170
372.61	0.168
373.07	0.167
373.54	0.167
374.00	0.170
374.46	0.170
374.92	0.169
375.39	0.168
375.85	0.167
376.31	0.167
376.78	0.167
377.24	0.170
377.70	0.167
378.16	0.167
378.63	0.167
379.09	0.167
379.55	0.167
380.01	0.168
380.48	0.166
380.94	0.168
381.40	0.165
381.87	0.166
382.33	0.163
382.79	0.161
383.25	0.165
383.72	0.167
384.18	0.163
384.64	0.165
385.10	0.161
385.56	0.160
386.03	0.164
386.49	0.163
386.95	0.162
387.41	0.165
387.88	0.160
388.34	0.159
388.80	0.161
389.26	0.161
389.72	0.163
390.19	0.159
390.65	0.159
391.11	0.158
391.57	0.161
392.04	0.159
392.50	0.162
392.96	0.160
393.42	0.158
393.88	0.161
394.34	0.158
394.81	0.160
395.27	0.159
395.73	0.156
396.19	0.156
396.65	0.155
397.12	0.154
397.58	0.156
398.04	0.154
398.50	0.155
398.96	0.158
399.42	0.156
399.89	0.159
400.35	0.158
400.81	0.153
401.27	0.154
401.73	0.154
402.19	0.154
402.65	0.151
403.12	0.154
403.58	0.154
404.04	0.152
404.50	0.150
404.96	0.148
405.42	0.151
405.88	0.149
406.34	0.155
406.81	0.149
407.27	0.146
407.73	0.148
408.19	0.148
408.65	0.145
409.11	0.149
409.57	0.146
410.03	0.148
410.49	0.148
410.96	0.146
411.42	0.148
411.88	0.142
412.34	0.140
412.80	0.146
413.26	0.145
413.72	0.145
414.18	0.143
414.64	0.146
415.10	0.146
415.56	0.147
416.02	0.143
416.48	0.143
416.95	0.145
417.41	0.143
417.87	0.143
418.33	0.143
418.79	0.141
419.25	0.145
419.71	0.143
420.17	0.140
420.63	0.141
421.09	0.137
421.55	0.139
422.01	0.143
422.47	0.145
422.93	0.144
423.39	0.142
423.85	0.138
424.31	0.142
424.77	0.143
425.23	0.139
425.69	0.144
426.15	0.144
426.61	0.142
427.07	0.137
427.53	0.137
427.99	0.138
428.45	0.141
428.91	0.137
429.37	0.138
429.83	0.136
430.29	0.139
430.75	0.141
431.21	0.142
431.67	0.142
432.13	0.141
432.59	0.136
433.05	0.137
433.51	0.135
433.97	0.133
434.43	0.142
434.89	0.143
435.35	0.138
435.81	0.140
436.27	0.140
436.73	0.139
437.19	0.143
437.65	0.136
438.11	0.139
438.57	0.139
439.03	0.138
439.48	0.137
439.94	0.140
440.40	0.136
440.86	0.137
441.32	0.136
441.78	0.135
442.24	0.138
442.70	0.138
443.16	0.133
443.62	0.138
444.08	0.133
444.54	0.135
444.99	0.138
445.45	0.132
445.91	0.133
446.37	0.136
446.83	0.132
447.29	0.137
447.75	0.135
448.21	0.137
448.67	0.137
449.12	0.135
449.58	0.134
450.04	0.135
450.50	0.133
450.96	0.133
451.42	0.135
451.88	0.135
452.34	0.133
452.79	0.137
453.25	0.136
453.71	0.135
454.17	0.130
454.63	0.133
455.09	0.134
455.55	0.131
456.00	0.133
456.46	0.136
456.92	0.132
457.38	0.132
457.84	0.134
458.30	0.133
458.75	0.129
459.21	0.131
459.67	0.131
460.13	0.133
460.59	0.131
461.04	0.131
461.50	0.131
461.96	0.133
462.42	0.132
462.88	0.130
463.33	0.131
463.79	0.131
464.25	0.129
464.71	0.133
465.17	0.132
465.62	0.130
466.08	0.132
466.54	0.133
467.00	0.132
467.46	0.133
467.91	0.133
468.37	0.130
468.83	0.131
469.29	0.133
469.74	0.131
470.20	0.131
470.66	0.132
471.12	0.133
471.57	0.133
472.03	0.133
472.49	0.133
472.95	0.136
473.40	0.131
473.86	0.132
474.32	0.133
474.78	0.133
475.23	0.134
475.69	0.131
476.15	0.134
476.60	0.133
477.06	0.134
477.52	0.131
477.98	0.134
478.43	0.137
478.89	0.133
479.35	0.136
479.80	0.130
480.26	0.130
480.72	0.130
481.18	0.132
481.63	0.133
482.09	0.133
482.55	0.129
483.00	0.131
483.46	0.132
483.92	0.130
484.37	0.129
484.83	0.127
485.29	0.132
485.74	0.132
486.20	0.129
486.66	0.132
487.11	0.132
487.57	0.129
488.03	0.130
488.48	0.131
488.94	0.129
489.40	0.131
489.85	0.131
490.31	0.129
490.77	0.131
491.22	0.132
491.68	0.130
492.13	0.129
492.59	0.133
493.05	0.130
493.50	0.129
493.96	0.130
494.42	0.132
494.87	0.131
495.33	0.128
495.78	0.130
496.24	0.129
496.70	0.131
497.15	0.129
497.61	0.130
498.06	0.130
498.52	0.129
498.98	0.128
499.43	0.130
499.89	0.131
500.34	0.128
500.80	0.129
501.25	0.127
501.71	0.127
502.17	0.129
502.62	0.127
503.08	0.127
503.53	0.127
503.99	0.127
504.44	0.128
504.90	0.126
505.36	0.129
505.81	0.130
506.27	0.126
506.72	0.128
507.18	0.127
507.63	0.125
508.09	0.127
508.54	0.127
509.00	0.127
509.45	0.126
509.91	0.126
510.36	0.129
510.82	0.129
511.27	0.127
511.73	0.128
512.19	0.126
512.64	0.127
513.10	0.127
513.55	0.128
514.01	0.127
514.46	0.128
514.92	0.128
515.37	0.127
515.83	0.126
516.28	0.124
516.73	0.125
517.19	0.126
517.64	0.126
518.10	0.127
518.55	0.126
519.01	0.126
519.46	0.125
519.92	0.127
520.37	0.125
520.83	0.126
521.28	0.124
521.74	0.126
522.19	0.128
522.65	0.127
523.10	0.124
523.55	0.126
524.01	0.124
524.46	0.125
524.92	0.123
525.37	0.126
525.83	0.126
526.28	0.125
526.73	0.125
527.19	0.126
527.64	0.126
528.10	0.126
528.55	0.125
529.01	0.126
529.46	0.126
529.91	0.125
530.37	0.125
530.82	0.125
531.28	0.126
531.73	0.124
532.18	0.126
532.64	0.126
533.09	0.127
533.54	0.125
534.00	0.126
534.45	0.127
534.91	0.123
535.36	0.126
535.81	0.126
536.27	0.127
536.72	0.126
537.17	0.127
537.63	0.125
538.08	0.128
538.54	0.129
538.99	0.130
539.44	0.127
539.90	0.127
540.35	0.127
540.80	0.126
541.26	0.127
541.71	0.130
542.16	0.130
542.62	0.133
543.07	0.130
543.52	0.130
543.98	0.130
544.43	0.129
544.88	0.130
545.34	0.132
545.79	0.132
546.24	0.129
546.69	0.130
547.15	0.132
547.60	0.134
548.05	0.132
548.51	0.133
548.96	0.133
549.41	0.134
549.86	0.133
550.32	0.134
550.77	0.133
551.22	0.134
551.68	0.134
552.13	0.135
552.58	0.135
553.03	0.136
553.49	0.137
553.94	0.135
554.39	0.139
554.84	0.140
555.30	0.138
555.75	0.138
556.20	0.138
556.65	0.139
557.11	0.140
557.56	0.140
558.01	0.142
558.46	0.140
558.92	0.141
559.37	0.142
559.82	0.142
560.27	0.142
560.72	0.144
561.18	0.144
561.63	0.145
562.08	0.145
562.53	0.144
562.99	0.146
563.44	0.148
563.89	0.146
564.34	0.147
564.79	0.148
565.25	0.147
565.70	0.150
566.15	0.149
566.60	0.151
567.05	0.151
567.50	0.154
567.96	0.153
568.41	0.153
568.86	0.152
569.31	0.155
569.76	0.156
570.21	0.156
570.67	0.155
571.12	0.157
571.57	0.157
572.02	0.160
572.47	0.159
572.92	0.157
573.37	0.162
573.83	0.162
574.28	0.161
574.73	0.161
575.18	0.164
575.63	0.164
576.08	0.167
576.53	0.164
576.98	0.165
577.44	0.168
577.89	0.167
578.34	0.169
578.79	0.170
579.24	0.169
579.69	0.171
580.14	0.172
580.59	0.173
581.04	0.176
581.49	0.175
581.95	0.176
582.40	0.179
582.85	0.180
583.30	0.180
583.75	0.181
584.20	0.182
584.65	0.185
585.10	0.187
585.55	0.187
586.00	0.190
586.45	0.191
586.90	0.192
587.35	0.195
587.80	0.194
588.25	0.195
588.71	0.198
589.16	0.201
589.61	0.200
590.06	0.200
590.51	0.203
590.96	0.204
591.41	0.207
591.86	0.209
592.31	0.212
592.76	0.213
593.21	0.212
593.66	0.218
594.11	0.218
594.56	0.220
595.01	0.222
595.46	0.222
595.91	0.225
596.36	0.225
596.81	0.228
597.26	0.232
597.71	0.232
598.16	0.233
598.61	0.236
599.06	0.238
599.51	0.238
599.96	0.240
600.41	0.241
600.86	0.245
601.31	0.247
601.76	0.249
602.21	0.252
602.65	0.253
603.10	0.252
603.55	0.255
604.00	0.258
604.45	0.259
604.90	0.260
605.35	0.263
605.80	0.263
606.25	0.264
606.70	0.269
607.15	0.267
607.60	0.269
608.05	0.269
608.50	0.272
608.95	0.274
609.39	0.274
609.84	0.276
610.29	0.279
610.74	0.279
611.19	0.280
611.64	0.280
612.09	0.281
612.54	0.281
612.99	0.283
613.44	0.283
613.88	0.283
614.33	0.283
614.78	0.290
615.23	0.287
615.68	0.288
616.13	0.289
616.58	0.292
617.03	0.291
617.47	0.291
617.92	0.290
618.37	0.291
618.82	0.295
619.27	0.293
619.72	0.295
620.17	0.293
620.61	0.294
621.06	0.294
621.51	0.292
621.96	0.295
622.41	0.297
622.86	0.295
623.30	0.298
623.75	0.298
624.20	0.300
624.65	0.299
625.10	0.302
625.54	0.301
625.99	0.300
626.44	0.303
626.89	0.302
627.34	0.306
627.78	0.306
628.23	0.308
628.68	0.309
629.13	0.309
629.58	0.311
630.02	0.314
630.47	0.313
630.92	0.314
631.37	0.318
631.81	0.319
632.26	0.319
632.71	0.323
633.16	0.325
633.61	0.325
634.05	0.326
634.50	0.326
634.95	0.329
635.40	0.331
635.84	0.336
636.29	0.339
636.74	0.339
637.18	0.343
637.63	0.340
638.08	0.346
638.53	0.346
638.97	0.350
639.42	0.353
639.87	0.353
640.32	0.357
640.76	0.360
641.21	0.365
641.66	0.364
642.10	0.368
642.55	0.370
643.00	0.373
643.44	0.375
643.89	0.380
644.34	0.383
644.79	0.387
645.23	0.390
645.68	0.393
646.13	0.395
646.57	0.398
647.02	0.398
647.47	0.402
647.91	0.406
648.36	0.408
648.81	0.410
649.25	0.412
649.70	0.416
650.15	0.421
650.59	0.425
651.04	0.427
651.48	0.427
651.93	0.433
652.38	0.435
652.82	0.436
653.27	0.436
653.72	0.442
654.16	0.445
654.61	0.446
655.06	0.446
655.50	0.448
655.95	0.447
656.39	0.449
656.84	0.457
657.29	0.462
657.73	0.458
658.18	0.461
658.62	0.462
659.07	0.465
659.52	0.467
659.96	0.467
660.41	0.472
660.85	0.471
661.30	0.472
661.74	0.474
662.19	0.474
662.64	0.474
663.08	0.475
663.53	0.474
663.97	0.474
664.42	0.473
664.86	0.476
665.31	0.478
665.75	0.475
666.20	0.474
666.65	0.472
667.09	0.472
667.54	0.469
667.98	0.468
668.43	0.467
668.87	0.465
669.32	0.463
669.76	0.458
670.21	0.457
670.65	0.453
671.10	0.450
671.54	0.449
671.99	0.443
672.43	0.435
672.88	0.433
673.32	0.428
673.77	0.424
674.21	0.417
674.66	0.409
675.10	0.405
675.55	0.399
675.99	0.391
676.44	0.386
676.88	0.382
677.33	0.373
677.77	0.366
678.22	0.359
678.66	0.350
679.11	0.344
679.55	0.339
679.99	0.328
680.44	0.320
680.88	0.311
681.33	0.308
681.77	0.298
682.22	0.288
682.66	0.286
683.11	0.275
683.55	0.271
683.99	0.263
684.44	0.257
684.88	0.251
685.33	0.243
685.77	0.237
686.21	0.231
686.66	0.223
687.10	0.217
687.55	0.213
687.99	0.206
688.44	0.201
688.88	0.196
689.32	0.191
689.77	0.185
690.21	0.183
690.65	0.177
691.10	0.173
691.54	0.170
691.99	0.164
692.43	0.162
692.87	0.159
693.32	0.156
693.76	0.151
694.20	0.146
694.65	0.144
695.09	0.141
695.53	0.137
695.98	0.135
696.42	0.136
696.86	0.133
697.31	0.130
697.75	0.127
698.19	0.126
698.64	0.121
699.08	0.122
699.52	0.119
699.97	0.118
700.41	0.116
700.85	0.116
701.30	0.112
701.74	0.112
702.18	0.109
702.63	0.108
703.07	0.105
703.51	0.106
703.96	0.105
704.40	0.106
704.84	0.103
705.28	0.102
705.73	0.102
706.17	0.100
706.61	0.102
707.06	0.098
707.50	0.100
707.94	0.098
708.38	0.096
708.83	0.097
709.27	0.097
709.71	0.095
710.15	0.097
710.60	0.097
711.04	0.093
711.48	0.094
711.92	0.094
712.37	0.094
712.81	0.093
713.25	0.093
713.69	0.091
714.13	0.091
714.58	0.093
715.02	0.089
715.46	0.091
715.90	0.091
716.35	0.093
716.79	0.090
717.23	0.093
717.67	0.091
718.11	0.087
718.56	0.089
719.00	0.089
719.44	0.090
719.88	0.091
720.32	0.091
720.76	0.087
721.21	0.089
721.65	0.089
722.09	0.089
722.53	0.092
722.97	0.088
723.41	0.090
723.86	0.088
724.30	0.090
724.74	0.090
725.18	0.088
725.62	0.088
726.06	0.090
726.50	0.091
726.95	0.090
727.39	0.091
727.83	0.089
728.27	0.092
728.71	0.088
729.15	0.091
729.59	0.089
730.03	0.089
730.48	0.089
730.92	0.091
731.36	0.088
731.80	0.089
732.24	0.091
732.68	0.091
733.12	0.092
733.56	0.090
734.00	0.092
734.44	0.092
734.89	0.093
735.33	0.089
735.77	0.095
736.21	0.091
736.65	0.091
737.09	0.094
737.53	0.091
737.97	0.092
738.41	0.092
738.85	0.094
739.29	0.094
739.73	0.094
740.17	0.092
740.61	0.092
741.05	0.093
741.49	0.094
741.93	0.091
742.37	0.093
742.81	0.091
743.26	0.094
743.70	0.092
744.14	0.094
744.58	0.092
745.02	0.090
745.46	0.092
745.90	0.092
746.34	0.092
746.78	0.094
747.22	0.092
747.66	0.090
748.10	0.090
748.54	0.094
748.98	0.092
749.42	0.091
749.86	0.091
750.29	0.093
750.73	0.091
751.17	0.092
751.61	0.094
752.05	0.090
752.49	0.091
752.93	0.089
753.37	0.090
753.81	0.091
754.25	0.093
754.69	0.093
755.13	0.093
755.57	0.090
756.01	0.088
756.45	0.089
756.89	0.091
757.33	0.089
757.77	0.089
758.21	0.092
758.64	0.090
759.08	0.090
759.52	0.089
759.96	0.091
760.40	0.090
760.84	0.090
761.28	0.089
761.72	0.090
762.16	0.089
762.60	0.090
763.03	0.090
763.47	0.092
763.91	0.091
764.35	0.088
764.79	0.089
765.23	0.090
765.67	0.088
766.11	0.092
766.54	0.089
766.98	0.089
767.42	0.090
767.86	0.093
768.30	0.088
768.74	0.088
769.17	0.091
769.61	0.092
770.05	0.086
770.49	0.092
770.93	0.091
771.37	0.091
771.80	0.087
772.24	0.088
772.68	0.088
773.12	0.087
773.56	0.090
774.00	0.089
774.43	0.089
774.87	0.086
775.31	0.089
775.75	0.087
776.19	0.088
776.62	0.089
777.06	0.089
777.50	0.089
777.94	0.089
778.37	0.091
778.81	0.090
779.25	0.089
779.69	0.087
780.13	0.088
780.56	0.087
781.00	0.090
781.44	0.086
781.88	0.090
782.31	0.087
782.75	0.085
783.19	0.090
783.63	0.086
784.06	0.088
784.50	0.087
784.94	0.090
785.37	0.087
785.81	0.087
786.25	0.085
786.69	0.092
787.12	0.090
787.56	0.089
788.00	0.089
788.43	0.090
788.87	0.088
789.31	0.092
789.75	0.092
790.18	0.091
790.62	0.088
791.06	0.086
791.49	0.094
791.93	0.086
792.37	0.087
792.80	0.092
793.24	0.088
793.68	0.090
794.11	0.090
794.55	0.089
794.99	0.088
795.42	0.088
795.86	0.091
796.30	0.090
796.73	0.088
797.17	0.089
797.61	0.091
798.04	0.088
798.48	0.088
798.91	0.091
799.35	0.090
799.79	0.086
800.22	0.088
800.66	0.084
801.10	0.093
801.53	0.093
801.97	0.089
802.40	0.086
802.84	0.086
803.28	0.088
803.71	0.088
804.15	0.088
804.58	0.092
805.02	0.089
805.46	0.083
805.89	0.089
806.33	0.090
806.76	0.086
807.20	0.091
807.63	0.088
808.07	0.086
808.51	0.092
808.94	0.087
809.38	0.087
809.81	0.088
810.25	0.087
810.68	0.089
811.12	0.090
811.55	0.090
811.99	0.088
812.42	0.090
812.86	0.090
813.29	0.090
813.73	0.088
814.17	0.081
814.60	0.088
815.04	0.086
