SpectraSuite Data File
++++++++++++++++++++++++++++++++++++
Date: Wed May 04 12:30:23 CEST 2016
User: spectrasuite
Dark Spectrum Present: Yes
Reference Spectrum Present: Yes
Number of Sampled Component Spectra: 1
Spectrometers: HR+C0708
Integration Time (usec): 1000 (HR+C0708)
Spectra Averaged: 10 (HR+C0708)
Boxcar Smoothing: 0 (HR+C0708)
Correct for Electrical Dark: No (HR+C0708)
Strobe/Lamp Enabled: No (HR+C0708)
Correct for Detector Non-linearity: No (HR+C0708)
Correct for Stray Light: No (HR+C0708)
Number of Pixels in Processed Spectrum: 2048
>>>>>Begin Processed Spectral Data<<<<<
188.76	0.045
189.23	-0.000
189.70	0.306
190.17	-0.113
190.64	-0.000
191.12	0.148
191.59	-1.510
192.06	0.506
192.53	0.063
193.01	-0.074
193.48	-0.063
193.95	-0.000
194.42	0.185
194.90	0.269
195.37	0.574
195.84	-0.000
196.31	0.252
196.78	0.162
197.26	0.268
197.73	0.165
198.20	-0.198
198.67	0.278
199.14	0.817
199.62	0.891
200.09	1.043
200.56	0.925
201.03	0.516
201.50	0.490
201.97	0.319
202.45	0.535
202.92	0.415
203.39	0.436
203.86	0.636
204.33	0.546
204.80	0.485
205.28	0.394
205.75	0.458
206.22	0.637
206.69	0.433
207.16	0.479
207.63	0.576
208.11	0.400
208.58	0.400
209.05	0.634
209.52	0.423
209.99	0.362
210.46	0.200
210.93	0.354
211.41	0.534
211.88	0.410
212.35	0.308
212.82	1.140
213.29	0.333
213.76	0.334
214.23	0.516
214.70	0.497
215.18	0.523
215.65	0.363
216.12	0.489
216.59	0.503
217.06	0.317
217.53	0.484
218.00	0.533
218.47	0.438
218.94	0.490
219.41	0.492
219.89	0.439
220.36	0.383
220.83	0.513
221.30	0.734
221.77	0.466
222.24	0.423
222.71	0.642
223.18	0.583
223.65	0.474
224.12	0.425
224.59	0.708
225.06	0.793
225.54	0.647
226.01	0.829
226.48	0.823
226.95	0.911
227.42	0.703
227.89	1.116
228.36	1.068
228.83	0.972
229.30	1.071
229.77	1.425
230.24	1.103
230.71	1.134
231.18	1.191
231.65	1.367
232.12	1.341
232.59	1.338
233.06	1.564
233.53	1.638
234.00	1.481
234.47	1.681
234.94	1.780
235.41	1.634
235.88	1.694
236.35	2.059
236.82	1.777
237.29	1.867
237.76	1.911
238.23	2.299
238.70	2.112
239.17	1.876
239.64	2.306
240.11	2.106
240.58	1.871
241.05	2.016
241.52	2.203
241.99	2.058
242.46	2.086
242.93	2.160
243.40	2.562
243.87	2.310
244.34	2.096
244.81	2.325
245.28	2.442
245.75	2.199
246.22	2.458
246.69	2.810
247.16	2.356
247.63	2.261
248.10	2.374
248.57	2.881
249.04	2.411
249.51	2.312
249.98	3.007
250.45	2.459
250.92	2.415
251.39	2.399
251.85	2.518
252.32	2.421
252.79	2.422
253.26	2.467
253.73	2.484
254.20	2.318
254.67	2.301
255.14	2.865
255.61	2.764
256.08	2.519
256.55	2.773
257.02	2.888
257.49	2.590
257.95	2.698
258.42	2.616
258.89	2.613
259.36	2.746
259.83	2.673
260.30	2.774
260.77	2.603
261.24	2.504
261.71	2.671
262.17	2.760
262.64	2.621
263.11	2.552
263.58	2.851
264.05	2.573
264.52	2.645
264.99	2.760
265.46	2.876
265.92	2.575
266.39	2.582
266.86	2.928
267.33	2.674
267.80	2.715
268.27	2.739
268.74	2.887
269.20	2.605
269.67	2.588
270.14	2.954
270.61	2.569
271.08	2.566
271.55	2.574
272.01	2.771
272.48	2.539
272.95	2.396
273.42	2.744
273.89	2.685
274.36	2.435
274.82	2.556
275.29	2.732
275.76	2.632
276.23	2.640
276.70	2.464
277.16	2.693
277.63	2.601
278.10	2.437
278.57	2.634
279.04	2.554
279.50	2.564
279.97	2.425
280.44	2.702
280.91	2.712
281.38	2.575
281.84	2.456
282.31	2.581
282.78	2.538
283.25	2.511
283.72	2.842
284.18	2.606
284.65	2.548
285.12	2.596
285.59	2.639
286.05	2.573
286.52	2.470
286.99	2.638
287.46	2.785
287.92	2.531
288.39	2.514
288.86	2.692
289.33	2.572
289.79	2.391
290.26	2.726
290.73	2.724
291.20	2.413
291.66	2.396
292.13	2.578
292.60	2.716
293.07	2.499
293.53	2.462
294.00	2.582
294.47	2.538
294.93	2.456
295.40	2.622
295.87	2.661
296.34	2.465
296.80	2.339
297.27	2.476
297.74	2.694
298.20	2.522
298.67	2.453
299.14	2.464
299.60	2.389
300.07	2.384
300.54	2.493
301.01	2.416
301.47	2.336
301.94	2.326
302.41	2.399
302.87	2.390
303.34	2.470
303.81	2.283
304.27	2.324
304.74	2.370
305.21	2.227
305.67	2.492
306.14	2.566
306.61	2.309
307.07	2.327
307.54	2.391
308.01	2.314
308.47	2.289
308.94	2.340
309.40	2.315
309.87	2.357
310.34	2.241
310.80	2.378
311.27	2.292
311.74	2.260
312.20	2.455
312.67	2.460
313.13	2.281
313.60	2.250
314.07	2.189
314.53	2.254
315.00	2.230
315.47	2.310
315.93	2.345
316.40	2.296
316.86	2.222
317.33	2.330
317.80	2.329
318.26	2.203
318.73	2.213
319.19	2.290
319.66	2.200
320.13	2.234
320.59	2.143
321.06	2.156
321.52	2.206
321.99	2.141
322.45	2.184
322.92	2.176
323.39	2.114
323.85	2.146
324.32	2.214
324.78	2.076
325.25	2.073
325.71	2.068
326.18	2.036
326.64	2.095
327.11	1.954
327.58	2.104
328.04	2.055
328.51	1.958
328.97	2.020
329.44	2.069
329.90	2.029
330.37	1.995
330.83	2.005
331.30	1.971
331.76	1.962
332.23	1.981
332.69	2.079
333.16	2.035
333.62	1.945
334.09	1.999
334.56	2.000
335.02	1.927
335.49	1.943
335.95	2.033
336.42	1.945
336.88	1.940
337.35	1.938
337.81	1.934
338.28	1.984
338.74	1.913
339.20	1.975
339.67	1.991
340.13	1.939
340.60	1.946
341.06	1.975
341.53	1.942
341.99	1.906
342.46	1.939
342.92	1.959
343.39	1.920
343.85	1.857
344.32	1.893
344.78	1.910
345.25	1.855
345.71	1.811
346.17	1.857
346.64	1.866
347.10	1.832
347.57	1.777
348.03	1.797
348.50	1.720
348.96	1.725
349.43	1.762
349.89	1.697
350.35	1.637
350.82	1.581
351.28	1.569
351.75	1.511
352.21	1.498
352.67	1.479
353.14	1.457
353.60	1.414
354.07	1.360
354.53	1.348
355.00	1.287
355.46	1.229
355.92	1.202
356.39	1.143
356.85	1.069
357.31	1.015
357.78	0.953
358.24	0.885
358.71	0.816
359.17	0.761
359.63	0.686
360.10	0.626
360.56	0.559
361.03	0.505
361.49	0.451
361.95	0.392
362.42	0.349
362.88	0.308
363.34	0.270
363.81	0.233
364.27	0.205
364.73	0.179
365.20	0.157
365.66	0.137
366.12	0.125
366.59	0.111
367.05	0.101
367.51	0.090
367.98	0.082
368.44	0.076
368.90	0.070
369.37	0.068
369.83	0.065
370.29	0.062
370.76	0.058
371.22	0.055
371.68	0.056
372.15	0.054
372.61	0.052
373.07	0.051
373.54	0.048
374.00	0.048
374.46	0.052
374.92	0.049
375.39	0.046
375.85	0.047
376.31	0.046
376.78	0.046
377.24	0.045
377.70	0.046
378.16	0.046
378.63	0.047
379.09	0.047
379.55	0.044
380.01	0.044
380.48	0.045
380.94	0.045
381.40	0.043
381.87	0.047
382.33	0.042
382.79	0.041
383.25	0.044
383.72	0.047
384.18	0.045
384.64	0.045
385.10	0.042
385.56	0.042
386.03	0.044
386.49	0.044
386.95	0.045
387.41	0.043
387.88	0.041
388.34	0.043
388.80	0.042
389.26	0.042
389.72	0.044
390.19	0.042
390.65	0.040
391.11	0.044
391.57	0.043
392.04	0.044
392.50	0.042
392.96	0.043
393.42	0.041
393.88	0.044
394.34	0.040
394.81	0.041
395.27	0.043
395.73	0.039
396.19	0.042
396.65	0.043
397.12	0.041
397.58	0.041
398.04	0.040
398.50	0.040
398.96	0.039
399.42	0.039
399.89	0.040
400.35	0.041
400.81	0.039
401.27	0.039
401.73	0.040
402.19	0.038
402.65	0.035
403.12	0.038
403.58	0.039
404.04	0.036
404.50	0.034
404.96	0.037
405.42	0.039
405.88	0.037
406.34	0.036
406.81	0.035
407.27	0.033
407.73	0.034
408.19	0.038
408.65	0.035
409.11	0.034
409.57	0.035
410.03	0.037
410.49	0.034
410.96	0.035
411.42	0.037
411.88	0.035
412.34	0.032
412.80	0.033
413.26	0.032
413.72	0.033
414.18	0.032
414.64	0.033
415.10	0.033
415.56	0.032
416.02	0.035
416.48	0.032
416.95	0.035
417.41	0.031
417.87	0.035
418.33	0.032
418.79	0.029
419.25	0.033
419.71	0.034
420.17	0.031
420.63	0.032
421.09	0.030
421.55	0.032
422.01	0.032
422.47	0.031
422.93	0.032
423.39	0.031
423.85	0.029
424.31	0.033
424.77	0.033
425.23	0.031
425.69	0.033
426.15	0.034
426.61	0.034
427.07	0.030
427.53	0.032
427.99	0.031
428.45	0.034
428.91	0.033
429.37	0.034
429.83	0.033
430.29	0.034
430.75	0.031
431.21	0.033
431.67	0.032
432.13	0.032
432.59	0.032
433.05	0.037
433.51	0.033
433.97	0.030
434.43	0.033
434.89	0.034
435.35	0.034
435.81	0.033
436.27	0.034
436.73	0.033
437.19	0.032
437.65	0.031
438.11	0.033
438.57	0.035
439.03	0.035
439.48	0.034
439.94	0.034
440.40	0.032
440.86	0.034
441.32	0.036
441.78	0.035
442.24	0.037
442.70	0.035
443.16	0.033
443.62	0.037
444.08	0.035
444.54	0.034
444.99	0.036
445.45	0.034
445.91	0.033
446.37	0.036
446.83	0.034
447.29	0.036
447.75	0.037
448.21	0.038
448.67	0.037
449.12	0.036
449.58	0.037
450.04	0.039
450.50	0.037
450.96	0.037
451.42	0.037
451.88	0.036
452.34	0.036
452.79	0.037
453.25	0.037
453.71	0.037
454.17	0.035
454.63	0.037
455.09	0.036
455.55	0.037
456.00	0.035
456.46	0.038
456.92	0.039
457.38	0.038
457.84	0.039
458.30	0.039
458.75	0.040
459.21	0.038
459.67	0.039
460.13	0.040
460.59	0.040
461.04	0.040
461.50	0.039
461.96	0.038
462.42	0.039
462.88	0.039
463.33	0.039
463.79	0.038
464.25	0.038
464.71	0.038
465.17	0.037
465.62	0.038
466.08	0.041
466.54	0.040
467.00	0.040
467.46	0.039
467.91	0.040
468.37	0.038
468.83	0.041
469.29	0.041
469.74	0.041
470.20	0.041
470.66	0.040
471.12	0.041
471.57	0.041
472.03	0.040
472.49	0.041
472.95	0.041
473.40	0.041
473.86	0.045
474.32	0.042
474.78	0.041
475.23	0.042
475.69	0.041
476.15	0.043
476.60	0.043
477.06	0.044
477.52	0.044
477.98	0.043
478.43	0.043
478.89	0.043
479.35	0.046
479.80	0.044
480.26	0.042
480.72	0.044
481.18	0.043
481.63	0.045
482.09	0.046
482.55	0.042
483.00	0.043
483.46	0.046
483.92	0.042
484.37	0.044
484.83	0.042
485.29	0.045
485.74	0.043
486.20	0.046
486.66	0.045
487.11	0.045
487.57	0.044
488.03	0.045
488.48	0.048
488.94	0.045
489.40	0.044
489.85	0.044
490.31	0.046
490.77	0.043
491.22	0.046
491.68	0.046
492.13	0.046
492.59	0.048
493.05	0.045
493.50	0.046
493.96	0.045
494.42	0.048
494.87	0.046
495.33	0.047
495.78	0.045
496.24	0.047
496.70	0.047
497.15	0.047
497.61	0.046
498.06	0.045
498.52	0.047
498.98	0.047
499.43	0.046
499.89	0.049
500.34	0.046
500.80	0.047
501.25	0.046
501.71	0.045
502.17	0.045
502.62	0.046
503.08	0.046
503.53	0.048
503.99	0.046
504.44	0.048
504.90	0.046
505.36	0.048
505.81	0.046
506.27	0.046
506.72	0.047
507.18	0.046
507.63	0.046
508.09	0.047
508.54	0.046
509.00	0.048
509.45	0.045
509.91	0.046
510.36	0.046
510.82	0.047
511.27	0.046
511.73	0.045
512.19	0.048
512.64	0.046
513.10	0.045
513.55	0.045
514.01	0.046
514.46	0.048
514.92	0.047
515.37	0.049
515.83	0.047
516.28	0.045
516.73	0.048
517.19	0.046
517.64	0.046
518.10	0.048
518.55	0.047
519.01	0.047
519.46	0.046
519.92	0.047
520.37	0.047
520.83	0.046
521.28	0.044
521.74	0.045
522.19	0.047
522.65	0.046
523.10	0.045
523.55	0.048
524.01	0.048
524.46	0.048
524.92	0.047
525.37	0.049
525.83	0.049
526.28	0.048
526.73	0.048
527.19	0.048
527.64	0.047
528.10	0.049
528.55	0.050
529.01	0.048
529.46	0.048
529.91	0.048
530.37	0.048
530.82	0.050
531.28	0.049
531.73	0.050
532.18	0.050
532.64	0.049
533.09	0.052
533.54	0.050
534.00	0.051
534.45	0.052
534.91	0.051
535.36	0.051
535.81	0.050
536.27	0.053
536.72	0.052
537.17	0.053
537.63	0.053
538.08	0.057
538.54	0.056
538.99	0.056
539.44	0.055
539.90	0.058
540.35	0.057
540.80	0.055
541.26	0.058
541.71	0.060
542.16	0.058
542.62	0.061
543.07	0.059
543.52	0.060
543.98	0.059
544.43	0.060
544.88	0.060
545.34	0.064
545.79	0.060
546.24	0.063
546.69	0.063
547.15	0.065
547.60	0.065
548.05	0.064
548.51	0.065
548.96	0.067
549.41	0.069
549.86	0.067
550.32	0.071
550.77	0.069
551.22	0.069
551.68	0.070
552.13	0.072
552.58	0.072
553.03	0.073
553.49	0.074
553.94	0.072
554.39	0.074
554.84	0.075
555.30	0.077
555.75	0.078
556.20	0.076
556.65	0.079
557.11	0.079
557.56	0.080
558.01	0.083
558.46	0.081
558.92	0.084
559.37	0.085
559.82	0.084
560.27	0.085
560.72	0.086
561.18	0.085
561.63	0.088
562.08	0.088
562.53	0.088
562.99	0.092
563.44	0.094
563.89	0.094
564.34	0.095
564.79	0.096
565.25	0.096
565.70	0.098
566.15	0.098
566.60	0.099
567.05	0.101
567.50	0.104
567.96	0.103
568.41	0.102
568.86	0.104
569.31	0.105
569.76	0.106
570.21	0.108
570.67	0.107
571.12	0.108
571.57	0.111
572.02	0.112
572.47	0.113
572.92	0.113
573.37	0.119
573.83	0.117
574.28	0.118
574.73	0.119
575.18	0.121
575.63	0.120
576.08	0.122
576.53	0.125
576.98	0.124
577.44	0.129
577.89	0.128
578.34	0.130
578.79	0.132
579.24	0.132
579.69	0.132
580.14	0.136
580.59	0.138
581.04	0.140
581.49	0.142
581.95	0.144
582.40	0.146
582.85	0.147
583.30	0.149
583.75	0.153
584.20	0.153
584.65	0.154
585.10	0.159
585.55	0.160
586.00	0.160
586.45	0.163
586.90	0.166
587.35	0.169
587.80	0.172
588.25	0.173
588.71	0.177
589.16	0.181
589.61	0.179
590.06	0.184
590.51	0.188
590.96	0.189
591.41	0.194
591.86	0.197
592.31	0.198
592.76	0.201
593.21	0.202
593.66	0.208
594.11	0.209
594.56	0.213
595.01	0.216
595.46	0.218
595.91	0.223
596.36	0.225
596.81	0.230
597.26	0.231
597.71	0.234
598.16	0.239
598.61	0.241
599.06	0.243
599.51	0.246
599.96	0.251
600.41	0.252
600.86	0.256
601.31	0.259
601.76	0.263
602.21	0.266
602.65	0.270
603.10	0.270
603.55	0.276
604.00	0.280
604.45	0.280
604.90	0.283
605.35	0.287
605.80	0.287
606.25	0.291
606.70	0.295
607.15	0.296
607.60	0.299
608.05	0.301
608.50	0.304
608.95	0.305
609.39	0.307
609.84	0.311
610.29	0.315
610.74	0.314
611.19	0.316
611.64	0.319
612.09	0.319
612.54	0.321
612.99	0.322
613.44	0.323
613.88	0.326
614.33	0.326
614.78	0.327
615.23	0.330
615.68	0.329
616.13	0.330
616.58	0.333
617.03	0.332
617.47	0.334
617.92	0.335
618.37	0.332
618.82	0.334
619.27	0.337
619.72	0.336
620.17	0.340
620.61	0.340
621.06	0.340
621.51	0.337
621.96	0.338
622.41	0.341
622.86	0.342
623.30	0.343
623.75	0.343
624.20	0.344
624.65	0.345
625.10	0.346
625.54	0.346
625.99	0.346
626.44	0.348
626.89	0.350
627.34	0.350
627.78	0.354
628.23	0.354
628.68	0.354
629.13	0.357
629.58	0.358
630.02	0.362
630.47	0.364
630.92	0.365
631.37	0.369
631.81	0.370
632.26	0.370
632.71	0.376
633.16	0.378
633.61	0.380
634.05	0.382
634.50	0.385
634.95	0.389
635.40	0.390
635.84	0.395
636.29	0.398
636.74	0.400
637.18	0.408
637.63	0.410
638.08	0.411
638.53	0.414
638.97	0.421
639.42	0.424
639.87	0.427
640.32	0.433
640.76	0.434
641.21	0.440
641.66	0.443
642.10	0.451
642.55	0.454
643.00	0.462
643.44	0.465
643.89	0.470
644.34	0.476
644.79	0.479
645.23	0.485
645.68	0.492
646.13	0.496
646.57	0.500
647.02	0.508
647.47	0.512
647.91	0.515
648.36	0.525
648.81	0.527
649.25	0.534
649.70	0.536
650.15	0.544
650.59	0.552
651.04	0.556
651.48	0.560
651.93	0.563
652.38	0.572
652.82	0.575
653.27	0.579
653.72	0.586
654.16	0.586
654.61	0.594
655.06	0.598
655.50	0.604
655.95	0.607
656.39	0.609
656.84	0.613
657.29	0.619
657.73	0.623
658.18	0.626
658.62	0.633
659.07	0.637
659.52	0.640
659.96	0.646
660.41	0.652
660.85	0.651
661.30	0.660
661.74	0.660
662.19	0.664
662.64	0.662
663.08	0.667
663.53	0.670
663.97	0.667
664.42	0.668
664.86	0.672
665.31	0.672
665.75	0.670
666.20	0.675
666.65	0.672
667.09	0.674
667.54	0.672
667.98	0.672
668.43	0.671
668.87	0.663
669.32	0.666
669.76	0.658
670.21	0.659
670.65	0.649
671.10	0.646
671.54	0.642
671.99	0.634
672.43	0.626
672.88	0.621
673.32	0.613
673.77	0.603
674.21	0.596
674.66	0.583
675.10	0.577
675.55	0.565
675.99	0.555
676.44	0.541
676.88	0.529
677.33	0.518
677.77	0.507
678.22	0.495
678.66	0.481
679.11	0.470
679.55	0.455
679.99	0.442
680.44	0.429
680.88	0.417
681.33	0.404
681.77	0.391
682.22	0.376
682.66	0.366
683.11	0.350
683.55	0.339
683.99	0.329
684.44	0.319
684.88	0.307
685.33	0.293
685.77	0.283
686.21	0.274
686.66	0.263
687.10	0.251
687.55	0.243
687.99	0.232
688.44	0.223
688.88	0.212
689.32	0.203
689.77	0.195
690.21	0.188
690.65	0.180
691.10	0.172
691.54	0.167
691.99	0.158
692.43	0.150
692.87	0.145
693.32	0.139
693.76	0.132
694.20	0.128
694.65	0.122
695.09	0.118
695.53	0.113
695.98	0.108
696.42	0.103
696.86	0.102
697.31	0.099
697.75	0.093
698.19	0.090
698.64	0.085
699.08	0.082
699.52	0.079
699.97	0.077
700.41	0.074
700.85	0.071
701.30	0.068
701.74	0.068
702.18	0.064
702.63	0.060
703.07	0.058
703.51	0.059
703.96	0.057
704.40	0.056
704.84	0.053
705.28	0.052
705.73	0.050
706.17	0.048
706.61	0.051
707.06	0.046
707.50	0.047
707.94	0.045
708.38	0.042
708.83	0.042
709.27	0.041
709.71	0.041
710.15	0.039
710.60	0.040
711.04	0.037
711.48	0.041
711.92	0.037
712.37	0.035
712.81	0.037
713.25	0.036
713.69	0.033
714.13	0.033
714.58	0.034
715.02	0.034
715.46	0.031
715.90	0.033
716.35	0.032
716.79	0.033
717.23	0.032
717.67	0.030
718.11	0.029
718.56	0.031
719.00	0.030
719.44	0.030
719.88	0.033
720.32	0.030
720.76	0.029
721.21	0.030
721.65	0.029
722.09	0.028
722.53	0.030
722.97	0.028
723.41	0.029
723.86	0.030
724.30	0.028
724.74	0.030
725.18	0.029
725.62	0.031
726.06	0.030
726.50	0.031
726.95	0.030
727.39	0.032
727.83	0.028
728.27	0.030
728.71	0.031
729.15	0.028
729.59	0.026
730.03	0.031
730.48	0.028
730.92	0.030
731.36	0.029
731.80	0.029
732.24	0.033
732.68	0.029
733.12	0.028
733.56	0.032
734.00	0.031
734.44	0.030
734.89	0.030
735.33	0.029
735.77	0.032
736.21	0.029
736.65	0.031
737.09	0.033
737.53	0.030
737.97	0.031
738.41	0.030
738.85	0.031
739.29	0.030
739.73	0.033
740.17	0.031
740.61	0.030
741.05	0.032
741.49	0.032
741.93	0.031
742.37	0.030
742.81	0.032
743.26	0.033
743.70	0.032
744.14	0.031
744.58	0.031
745.02	0.032
745.46	0.032
745.90	0.030
746.34	0.031
746.78	0.032
747.22	0.029
747.66	0.029
748.10	0.031
748.54	0.033
748.98	0.031
749.42	0.034
749.86	0.031
750.29	0.028
750.73	0.032
751.17	0.034
751.61	0.033
752.05	0.030
752.49	0.031
752.93	0.030
753.37	0.031
753.81	0.031
754.25	0.031
754.69	0.032
755.13	0.035
755.57	0.031
756.01	0.030
756.45	0.030
756.89	0.031
757.33	0.031
757.77	0.033
758.21	0.030
758.64	0.028
759.08	0.030
759.52	0.030
759.96	0.031
760.40	0.032
760.84	0.030
761.28	0.028
761.72	0.030
762.16	0.032
762.60	0.032
763.03	0.032
763.47	0.030
763.91	0.028
764.35	0.028
764.79	0.030
765.23	0.032
765.67	0.028
766.11	0.032
766.54	0.029
766.98	0.028
767.42	0.030
767.86	0.032
768.30	0.031
768.74	0.028
769.17	0.032
769.61	0.031
770.05	0.032
770.49	0.034
770.93	0.029
771.37	0.031
771.80	0.029
772.24	0.029
772.68	0.029
773.12	0.031
773.56	0.031
774.00	0.029
774.43	0.028
774.87	0.031
775.31	0.032
775.75	0.028
776.19	0.030
776.62	0.028
777.06	0.027
777.50	0.031
777.94	0.030
778.37	0.031
778.81	0.029
779.25	0.026
779.69	0.031
780.13	0.031
780.56	0.027
781.00	0.029
781.44	0.028
781.88	0.027
782.31	0.029
782.75	0.026
783.19	0.029
783.63	0.029
784.06	0.030
784.50	0.031
784.94	0.029
785.37	0.027
785.81	0.027
786.25	0.027
786.69	0.029
787.12	0.030
787.56	0.028
788.00	0.030
788.43	0.029
788.87	0.029
789.31	0.032
789.75	0.028
790.18	0.029
790.62	0.029
791.06	0.032
791.49	0.030
791.93	0.027
792.37	0.027
792.80	0.031
793.24	0.028
793.68	0.032
794.11	0.031
794.55	0.031
794.99	0.027
795.42	0.032
795.86	0.033
796.30	0.029
796.73	0.027
797.17	0.028
797.61	0.029
798.04	0.028
798.48	0.029
798.91	0.030
799.35	0.027
799.79	0.028
800.22	0.029
800.66	0.026
801.10	0.028
801.53	0.033
801.97	0.032
802.40	0.024
802.84	0.028
803.28	0.026
803.71	0.029
804.15	0.031
804.58	0.033
805.02	0.029
805.46	0.027
805.89	0.030
806.33	0.030
806.76	0.027
807.20	0.031
807.63	0.031
808.07	0.028
808.51	0.028
808.94	0.029
809.38	0.030
809.81	0.030
810.25	0.028
810.68	0.030
811.12	0.032
811.55	0.033
811.99	0.028
812.42	0.032
812.86	0.029
813.29	0.031
813.73	0.029
814.17	0.026
814.60	0.028
815.04	0.028
815.47	0.029
815.91	0.026
816.34	0.028
816.78	0.029
817.21	0.031
817.65	0.030
