SpectraSuite Data File
++++++++++++++++++++++++++++++++++++
Date: Wed May 04 12:44:29 CEST 2016
User: spectrasuite
Dark Spectrum Present: Yes
Reference Spectrum Present: Yes
Number of Sampled Component Spectra: 1
Spectrometers: HR+C0708
Integration Time (usec): 1000 (HR+C0708)
Spectra Averaged: 10 (HR+C0708)
Boxcar Smoothing: 0 (HR+C0708)
Correct for Electrical Dark: No (HR+C0708)
Strobe/Lamp Enabled: No (HR+C0708)
Correct for Detector Non-linearity: No (HR+C0708)
Correct for Stray Light: No (HR+C0708)
Number of Pixels in Processed Spectrum: 2048
>>>>>Begin Processed Spectral Data<<<<<
188.76	0.139
189.23	-0.000
189.70	0.191
190.17	0.038
190.64	0.699
191.12	0.297
191.59	-1.204
192.06	0.361
192.53	0.397
193.01	-0.042
193.48	0.048
193.95	-0.000
194.42	0.298
194.90	0.570
195.37	0.284
195.84	-0.000
196.31	0.278
196.78	0.099
197.26	0.129
197.73	0.232
198.20	-0.005
198.67	0.271
199.14	0.625
199.62	0.838
200.09	1.368
200.56	0.391
201.03	0.516
201.50	0.367
201.97	0.352
202.45	0.524
202.92	0.591
203.39	0.544
203.86	0.458
204.33	0.490
204.80	0.505
205.28	0.578
205.75	0.399
206.22	0.398
206.69	0.678
207.16	0.459
207.63	0.750
208.11	0.371
208.58	0.283
209.05	0.512
209.52	0.700
209.99	0.479
210.46	0.438
210.93	0.354
211.41	0.380
211.88	0.480
212.35	0.459
212.82	0.736
213.29	0.457
213.76	0.400
214.23	0.604
214.70	0.547
215.18	0.521
215.65	0.312
216.12	0.396
216.59	0.340
217.06	0.517
217.53	0.339
218.00	0.488
218.47	0.494
218.94	0.664
219.41	0.496
219.89	0.519
220.36	0.453
220.83	0.759
221.30	0.808
221.77	0.519
222.24	0.596
222.71	0.726
223.18	0.705
223.65	0.541
224.12	0.627
224.59	0.721
225.06	0.859
225.54	0.675
226.01	0.770
226.48	0.916
226.95	0.830
227.42	0.804
227.89	0.997
228.36	1.127
228.83	1.087
229.30	1.130
229.77	1.623
230.24	1.109
230.71	1.251
231.18	1.345
231.65	1.599
232.12	1.432
232.59	1.621
233.06	1.502
233.53	1.822
234.00	1.549
234.47	1.782
234.94	2.050
235.41	1.882
235.88	1.808
236.35	1.879
236.82	1.972
237.29	1.943
237.76	1.820
238.23	2.031
238.70	2.413
239.17	2.074
239.64	2.151
240.11	2.337
240.58	2.081
241.05	2.135
241.52	2.253
241.99	2.208
242.46	2.325
242.93	2.175
243.40	2.649
243.87	2.370
244.34	2.124
244.81	2.243
245.28	2.353
245.75	2.353
246.22	2.353
246.69	2.743
247.16	2.305
247.63	2.345
248.10	2.325
248.57	2.939
249.04	2.307
249.51	2.392
249.98	2.606
250.45	2.459
250.92	2.616
251.39	2.419
251.85	2.699
252.32	2.551
252.79	2.657
253.26	2.416
253.73	2.625
254.20	2.424
254.67	2.457
255.14	2.793
255.61	2.597
256.08	2.683
256.55	2.595
257.02	2.972
257.49	2.634
257.95	2.662
258.42	2.598
258.89	2.628
259.36	2.884
259.83	2.579
260.30	3.231
260.77	2.642
261.24	2.597
261.71	2.658
262.17	2.993
262.64	2.875
263.11	2.695
263.58	2.774
264.05	2.790
264.52	2.770
264.99	2.690
265.46	2.883
265.92	2.681
266.39	2.681
266.86	3.035
267.33	2.865
267.80	2.813
268.27	2.791
268.74	3.017
269.20	2.813
269.67	2.662
270.14	2.777
270.61	2.720
271.08	2.557
271.55	2.630
272.01	2.762
272.48	2.568
272.95	2.503
273.42	2.651
273.89	2.661
274.36	2.487
274.82	2.553
275.29	2.669
275.76	2.682
276.23	2.692
276.70	2.529
277.16	2.971
277.63	2.616
278.10	2.578
278.57	2.460
279.04	2.632
279.50	2.600
279.97	2.586
280.44	2.743
280.91	2.791
281.38	2.654
281.84	2.506
282.31	2.650
282.78	2.608
283.25	2.604
283.72	2.741
284.18	2.711
284.65	2.652
285.12	2.582
285.59	2.639
286.05	2.715
286.52	2.571
286.99	2.690
287.46	2.758
287.92	2.578
288.39	2.554
288.86	2.667
289.33	2.689
289.79	2.515
290.26	2.602
290.73	2.651
291.20	2.432
291.66	2.576
292.13	2.631
292.60	2.639
293.07	2.619
293.53	2.574
294.00	2.779
294.47	2.647
294.93	2.564
295.40	2.588
295.87	2.654
296.34	2.555
296.80	2.437
297.27	2.407
297.74	2.670
298.20	2.463
298.67	2.460
299.14	2.592
299.60	2.382
300.07	2.445
300.54	2.594
301.01	2.577
301.47	2.469
301.94	2.355
302.41	2.517
302.87	2.403
303.34	2.592
303.81	2.416
304.27	2.400
304.74	2.316
305.21	2.419
305.67	2.456
306.14	2.497
306.61	2.371
307.07	2.436
307.54	2.644
308.01	2.470
308.47	2.431
308.94	2.333
309.40	2.372
309.87	2.378
310.34	2.300
310.80	2.433
311.27	2.378
311.74	2.345
312.20	2.361
312.67	2.661
313.13	2.412
313.60	2.299
314.07	2.289
314.53	2.362
315.00	2.276
315.47	2.309
315.93	2.464
316.40	2.416
316.86	2.416
317.33	2.348
317.80	2.399
318.26	2.277
318.73	2.282
319.19	2.299
319.66	2.248
320.13	2.277
320.59	2.193
321.06	2.300
321.52	2.246
321.99	2.221
322.45	2.208
322.92	2.304
323.39	2.215
323.85	2.190
324.32	2.290
324.78	2.131
325.25	2.205
325.71	2.141
326.18	2.205
326.64	2.246
327.11	2.068
327.58	2.111
328.04	2.141
328.51	2.039
328.97	2.103
329.44	2.201
329.90	2.109
330.37	2.034
330.83	2.028
331.30	2.126
331.76	2.050
332.23	2.089
332.69	2.101
333.16	2.109
333.62	2.043
334.09	2.064
334.56	2.100
335.02	2.032
335.49	2.074
335.95	2.092
336.42	2.101
336.88	2.023
337.35	1.981
337.81	1.997
338.28	2.065
338.74	1.993
339.20	2.032
339.67	2.123
340.13	2.051
340.60	2.019
341.06	2.024
341.53	2.046
341.99	1.978
342.46	1.978
342.92	2.031
343.39	1.995
343.85	1.956
344.32	1.943
344.78	2.008
345.25	1.968
345.71	1.925
346.17	1.961
346.64	1.925
347.10	1.919
347.57	1.844
348.03	1.869
348.50	1.836
348.96	1.841
349.43	1.816
349.89	1.777
350.35	1.727
350.82	1.664
351.28	1.682
351.75	1.628
352.21	1.629
352.67	1.574
353.14	1.588
353.60	1.533
354.07	1.508
354.53	1.497
355.00	1.425
355.46	1.410
355.92	1.377
356.39	1.327
356.85	1.268
357.31	1.201
357.78	1.156
358.24	1.078
358.71	1.023
359.17	0.953
359.63	0.894
360.10	0.829
360.56	0.758
361.03	0.691
361.49	0.639
361.95	0.575
362.42	0.518
362.88	0.469
363.34	0.418
363.81	0.373
364.27	0.332
364.73	0.298
365.20	0.265
365.66	0.240
366.12	0.216
366.59	0.196
367.05	0.180
367.51	0.167
367.98	0.153
368.44	0.146
368.90	0.137
369.37	0.130
369.83	0.125
370.29	0.115
370.76	0.112
371.22	0.109
371.68	0.107
372.15	0.105
372.61	0.101
373.07	0.101
373.54	0.099
374.00	0.097
374.46	0.098
374.92	0.095
375.39	0.093
375.85	0.091
376.31	0.092
376.78	0.091
377.24	0.090
377.70	0.090
378.16	0.089
378.63	0.090
379.09	0.089
379.55	0.086
380.01	0.086
380.48	0.087
380.94	0.086
381.40	0.083
381.87	0.085
382.33	0.084
382.79	0.083
383.25	0.083
383.72	0.084
384.18	0.082
384.64	0.082
385.10	0.081
385.56	0.083
386.03	0.084
386.49	0.082
386.95	0.083
387.41	0.083
387.88	0.078
388.34	0.079
388.80	0.079
389.26	0.079
389.72	0.081
390.19	0.077
390.65	0.075
391.11	0.078
391.57	0.077
392.04	0.078
392.50	0.077
392.96	0.076
393.42	0.074
393.88	0.076
394.34	0.074
394.81	0.075
395.27	0.074
395.73	0.069
396.19	0.075
396.65	0.073
397.12	0.073
397.58	0.074
398.04	0.073
398.50	0.073
398.96	0.072
399.42	0.071
399.89	0.072
400.35	0.072
400.81	0.071
401.27	0.071
401.73	0.071
402.19	0.072
402.65	0.068
403.12	0.071
403.58	0.070
404.04	0.066
404.50	0.066
404.96	0.066
405.42	0.069
405.88	0.065
406.34	0.068
406.81	0.066
407.27	0.066
407.73	0.065
408.19	0.065
408.65	0.063
409.11	0.065
409.57	0.064
410.03	0.064
410.49	0.066
410.96	0.064
411.42	0.065
411.88	0.062
412.34	0.062
412.80	0.063
413.26	0.062
413.72	0.064
414.18	0.059
414.64	0.062
415.10	0.062
415.56	0.063
416.02	0.062
416.48	0.060
416.95	0.065
417.41	0.059
417.87	0.062
418.33	0.058
418.79	0.059
419.25	0.063
419.71	0.062
420.17	0.059
420.63	0.058
421.09	0.059
421.55	0.059
422.01	0.059
422.47	0.059
422.93	0.059
423.39	0.058
423.85	0.056
424.31	0.058
424.77	0.059
425.23	0.058
425.69	0.060
426.15	0.061
426.61	0.060
427.07	0.056
427.53	0.059
427.99	0.058
428.45	0.062
428.91	0.059
429.37	0.057
429.83	0.057
430.29	0.056
430.75	0.057
431.21	0.055
431.67	0.056
432.13	0.058
432.59	0.056
433.05	0.060
433.51	0.057
433.97	0.055
434.43	0.057
434.89	0.058
435.35	0.058
435.81	0.059
436.27	0.057
436.73	0.057
437.19	0.058
437.65	0.052
438.11	0.056
438.57	0.056
439.03	0.056
439.48	0.056
439.94	0.057
440.40	0.057
440.86	0.056
441.32	0.057
441.78	0.055
442.24	0.057
442.70	0.057
443.16	0.055
443.62	0.058
444.08	0.058
444.54	0.054
444.99	0.058
445.45	0.054
445.91	0.057
446.37	0.057
446.83	0.059
447.29	0.057
447.75	0.057
448.21	0.060
448.67	0.059
449.12	0.058
449.58	0.056
450.04	0.060
450.50	0.056
450.96	0.055
451.42	0.057
451.88	0.058
452.34	0.056
452.79	0.054
453.25	0.058
453.71	0.057
454.17	0.055
454.63	0.057
455.09	0.056
455.55	0.055
456.00	0.055
456.46	0.057
456.92	0.058
457.38	0.059
457.84	0.058
458.30	0.058
458.75	0.059
459.21	0.058
459.67	0.057
460.13	0.059
460.59	0.061
461.04	0.059
461.50	0.059
461.96	0.058
462.42	0.059
462.88	0.058
463.33	0.058
463.79	0.059
464.25	0.058
464.71	0.061
465.17	0.057
465.62	0.055
466.08	0.058
466.54	0.059
467.00	0.058
467.46	0.057
467.91	0.057
468.37	0.055
468.83	0.056
469.29	0.057
469.74	0.060
470.20	0.059
470.66	0.057
471.12	0.058
471.57	0.057
472.03	0.059
472.49	0.059
472.95	0.060
473.40	0.059
473.86	0.059
474.32	0.056
474.78	0.058
475.23	0.061
475.69	0.060
476.15	0.060
476.60	0.060
477.06	0.059
477.52	0.059
477.98	0.058
478.43	0.059
478.89	0.059
479.35	0.062
479.80	0.060
480.26	0.057
480.72	0.060
481.18	0.060
481.63	0.062
482.09	0.061
482.55	0.059
483.00	0.058
483.46	0.061
483.92	0.060
484.37	0.059
484.83	0.058
485.29	0.060
485.74	0.059
486.20	0.060
486.66	0.060
487.11	0.060
487.57	0.060
488.03	0.059
488.48	0.061
488.94	0.058
489.40	0.061
489.85	0.061
490.31	0.060
490.77	0.059
491.22	0.062
491.68	0.061
492.13	0.058
492.59	0.062
493.05	0.060
493.50	0.059
493.96	0.057
494.42	0.063
494.87	0.061
495.33	0.058
495.78	0.060
496.24	0.060
496.70	0.062
497.15	0.060
497.61	0.060
498.06	0.061
498.52	0.061
498.98	0.060
499.43	0.061
499.89	0.060
500.34	0.059
500.80	0.060
501.25	0.061
501.71	0.060
502.17	0.061
502.62	0.059
503.08	0.058
503.53	0.060
503.99	0.060
504.44	0.060
504.90	0.059
505.36	0.060
505.81	0.061
506.27	0.059
506.72	0.059
507.18	0.060
507.63	0.059
508.09	0.060
508.54	0.057
509.00	0.060
509.45	0.059
509.91	0.058
510.36	0.060
510.82	0.060
511.27	0.059
511.73	0.061
512.19	0.057
512.64	0.057
513.10	0.060
513.55	0.058
514.01	0.059
514.46	0.060
514.92	0.061
515.37	0.060
515.83	0.059
516.28	0.062
516.73	0.060
517.19	0.060
517.64	0.059
518.10	0.060
518.55	0.060
519.01	0.060
519.46	0.059
519.92	0.059
520.37	0.060
520.83	0.060
521.28	0.057
521.74	0.060
522.19	0.061
522.65	0.059
523.10	0.059
523.55	0.061
524.01	0.059
524.46	0.060
524.92	0.059
525.37	0.061
525.83	0.060
526.28	0.060
526.73	0.059
527.19	0.060
527.64	0.059
528.10	0.061
528.55	0.060
529.01	0.060
529.46	0.061
529.91	0.060
530.37	0.061
530.82	0.060
531.28	0.059
531.73	0.060
532.18	0.062
532.64	0.061
533.09	0.063
533.54	0.061
534.00	0.064
534.45	0.061
534.91	0.063
535.36	0.061
535.81	0.061
536.27	0.061
536.72	0.063
537.17	0.064
537.63	0.063
538.08	0.065
538.54	0.066
538.99	0.065
539.44	0.063
539.90	0.064
540.35	0.065
540.80	0.064
541.26	0.065
541.71	0.068
542.16	0.068
542.62	0.070
543.07	0.068
543.52	0.068
543.98	0.068
544.43	0.068
544.88	0.069
545.34	0.069
545.79	0.069
546.24	0.067
546.69	0.068
547.15	0.071
547.60	0.070
548.05	0.072
548.51	0.072
548.96	0.072
549.41	0.072
549.86	0.072
550.32	0.075
550.77	0.073
551.22	0.074
551.68	0.075
552.13	0.076
552.58	0.075
553.03	0.077
553.49	0.074
553.94	0.076
554.39	0.077
554.84	0.078
555.30	0.078
555.75	0.078
556.20	0.081
556.65	0.083
557.11	0.083
557.56	0.082
558.01	0.084
558.46	0.082
558.92	0.085
559.37	0.085
559.82	0.084
560.27	0.085
560.72	0.088
561.18	0.087
561.63	0.089
562.08	0.088
562.53	0.086
562.99	0.088
563.44	0.092
563.89	0.090
564.34	0.093
564.79	0.093
565.25	0.094
565.70	0.094
566.15	0.096
566.60	0.096
567.05	0.095
567.50	0.098
567.96	0.098
568.41	0.099
568.86	0.096
569.31	0.100
569.76	0.100
570.21	0.102
570.67	0.101
571.12	0.101
571.57	0.104
572.02	0.105
572.47	0.105
572.92	0.105
573.37	0.111
573.83	0.110
574.28	0.110
574.73	0.110
575.18	0.110
575.63	0.111
576.08	0.113
576.53	0.113
576.98	0.116
577.44	0.117
577.89	0.116
578.34	0.120
578.79	0.118
579.24	0.120
579.69	0.121
580.14	0.124
580.59	0.124
581.04	0.126
581.49	0.127
581.95	0.128
582.40	0.130
582.85	0.132
583.30	0.132
583.75	0.135
584.20	0.136
584.65	0.137
585.10	0.140
585.55	0.141
586.00	0.140
586.45	0.145
586.90	0.146
587.35	0.147
587.80	0.149
588.25	0.151
588.71	0.153
589.16	0.158
589.61	0.155
590.06	0.159
590.51	0.160
590.96	0.163
591.41	0.167
591.86	0.169
592.31	0.169
592.76	0.172
593.21	0.172
593.66	0.176
594.11	0.180
594.56	0.179
595.01	0.182
595.46	0.185
595.91	0.187
596.36	0.189
596.81	0.192
597.26	0.193
597.71	0.196
598.16	0.198
598.61	0.201
599.06	0.200
599.51	0.205
599.96	0.207
600.41	0.209
600.86	0.213
601.31	0.214
601.76	0.218
602.21	0.220
602.65	0.223
603.10	0.224
603.55	0.225
604.00	0.230
604.45	0.231
604.90	0.231
605.35	0.236
605.80	0.236
606.25	0.236
606.70	0.241
607.15	0.242
607.60	0.244
608.05	0.246
608.50	0.248
608.95	0.249
609.39	0.251
609.84	0.254
610.29	0.253
610.74	0.255
611.19	0.256
611.64	0.260
612.09	0.259
612.54	0.261
612.99	0.261
613.44	0.262
613.88	0.264
614.33	0.265
614.78	0.268
615.23	0.268
615.68	0.264
616.13	0.268
616.58	0.269
617.03	0.269
617.47	0.270
617.92	0.271
618.37	0.273
618.82	0.273
619.27	0.272
619.72	0.273
620.17	0.276
620.61	0.275
621.06	0.273
621.51	0.274
621.96	0.275
622.41	0.275
622.86	0.277
623.30	0.280
623.75	0.280
624.20	0.279
624.65	0.280
625.10	0.281
625.54	0.280
625.99	0.280
626.44	0.284
626.89	0.285
627.34	0.285
627.78	0.286
628.23	0.286
628.68	0.288
629.13	0.289
629.58	0.292
630.02	0.294
630.47	0.294
630.92	0.295
631.37	0.298
631.81	0.300
632.26	0.301
632.71	0.304
633.16	0.308
633.61	0.308
634.05	0.310
634.50	0.310
634.95	0.316
635.40	0.318
635.84	0.320
636.29	0.322
636.74	0.325
637.18	0.327
637.63	0.331
638.08	0.334
638.53	0.334
638.97	0.338
639.42	0.343
639.87	0.347
640.32	0.350
640.76	0.353
641.21	0.357
641.66	0.358
642.10	0.362
642.55	0.366
643.00	0.369
643.44	0.373
643.89	0.379
644.34	0.382
644.79	0.388
645.23	0.390
645.68	0.392
646.13	0.398
646.57	0.401
647.02	0.402
647.47	0.409
647.91	0.412
648.36	0.418
648.81	0.420
649.25	0.424
649.70	0.427
650.15	0.433
650.59	0.436
651.04	0.440
651.48	0.443
651.93	0.449
652.38	0.452
652.82	0.454
653.27	0.453
653.72	0.462
654.16	0.464
654.61	0.467
655.06	0.471
655.50	0.475
655.95	0.479
656.39	0.478
656.84	0.480
657.29	0.486
657.73	0.490
658.18	0.490
658.62	0.497
659.07	0.498
659.52	0.503
659.96	0.505
660.41	0.507
660.85	0.510
661.30	0.513
661.74	0.513
662.19	0.517
662.64	0.517
663.08	0.518
663.53	0.517
663.97	0.520
664.42	0.519
664.86	0.524
665.31	0.527
665.75	0.524
666.20	0.523
666.65	0.524
667.09	0.524
667.54	0.521
667.98	0.520
668.43	0.520
668.87	0.519
669.32	0.515
669.76	0.511
670.21	0.511
670.65	0.504
671.10	0.499
671.54	0.499
671.99	0.491
672.43	0.487
672.88	0.480
673.32	0.477
673.77	0.467
674.21	0.458
674.66	0.451
675.10	0.445
675.55	0.437
675.99	0.428
676.44	0.419
676.88	0.410
677.33	0.402
677.77	0.392
678.22	0.382
678.66	0.375
679.11	0.364
679.55	0.356
679.99	0.346
680.44	0.335
680.88	0.328
681.33	0.318
681.77	0.309
682.22	0.297
682.66	0.288
683.11	0.279
683.55	0.272
683.99	0.261
684.44	0.253
684.88	0.244
685.33	0.234
685.77	0.224
686.21	0.219
686.66	0.209
687.10	0.202
687.55	0.196
687.99	0.185
688.44	0.181
688.88	0.172
689.32	0.169
689.77	0.162
690.21	0.154
690.65	0.149
691.10	0.141
691.54	0.137
691.99	0.130
692.43	0.127
692.87	0.124
693.32	0.119
693.76	0.114
694.20	0.109
694.65	0.106
695.09	0.100
695.53	0.097
695.98	0.092
696.42	0.092
696.86	0.090
697.31	0.087
697.75	0.082
698.19	0.079
698.64	0.078
699.08	0.074
699.52	0.072
699.97	0.071
700.41	0.069
700.85	0.069
701.30	0.062
701.74	0.062
702.18	0.059
702.63	0.060
703.07	0.056
703.51	0.057
703.96	0.056
704.40	0.054
704.84	0.053
705.28	0.052
705.73	0.054
706.17	0.048
706.61	0.050
707.06	0.047
707.50	0.049
707.94	0.047
708.38	0.044
708.83	0.044
709.27	0.043
709.71	0.044
710.15	0.042
710.60	0.044
711.04	0.040
711.48	0.041
711.92	0.041
712.37	0.038
712.81	0.040
713.25	0.042
713.69	0.038
714.13	0.037
714.58	0.038
715.02	0.036
715.46	0.035
715.90	0.035
716.35	0.035
716.79	0.037
717.23	0.038
717.67	0.037
718.11	0.033
718.56	0.035
719.00	0.035
719.44	0.035
719.88	0.036
720.32	0.037
720.76	0.034
721.21	0.037
721.65	0.036
722.09	0.035
722.53	0.035
722.97	0.034
723.41	0.033
723.86	0.032
724.30	0.033
724.74	0.035
725.18	0.032
725.62	0.035
726.06	0.034
726.50	0.035
726.95	0.034
727.39	0.035
727.83	0.034
728.27	0.037
728.71	0.035
729.15	0.034
729.59	0.032
730.03	0.035
730.48	0.032
730.92	0.037
731.36	0.034
731.80	0.035
732.24	0.037
732.68	0.036
733.12	0.036
733.56	0.037
734.00	0.038
734.44	0.035
734.89	0.037
735.33	0.033
735.77	0.037
736.21	0.037
736.65	0.035
737.09	0.038
737.53	0.037
737.97	0.038
738.41	0.040
738.85	0.039
739.29	0.036
739.73	0.037
740.17	0.034
740.61	0.034
741.05	0.038
741.49	0.038
741.93	0.034
742.37	0.036
742.81	0.036
743.26	0.037
743.70	0.037
744.14	0.037
744.58	0.037
745.02	0.036
745.46	0.037
745.90	0.035
746.34	0.036
746.78	0.037
747.22	0.036
747.66	0.035
748.10	0.036
748.54	0.037
748.98	0.037
749.42	0.036
749.86	0.036
750.29	0.036
750.73	0.040
751.17	0.037
751.61	0.035
752.05	0.035
752.49	0.036
752.93	0.037
753.37	0.037
753.81	0.035
754.25	0.037
754.69	0.035
755.13	0.038
755.57	0.036
756.01	0.034
756.45	0.033
756.89	0.034
757.33	0.035
757.77	0.036
758.21	0.038
758.64	0.037
759.08	0.034
759.52	0.035
759.96	0.037
760.40	0.035
760.84	0.032
761.28	0.033
761.72	0.036
762.16	0.034
762.60	0.034
763.03	0.036
763.47	0.035
763.91	0.035
764.35	0.033
764.79	0.034
765.23	0.035
765.67	0.033
766.11	0.037
766.54	0.032
766.98	0.034
767.42	0.036
767.86	0.037
768.30	0.034
768.74	0.034
769.17	0.036
769.61	0.033
770.05	0.036
770.49	0.038
770.93	0.033
771.37	0.036
771.80	0.033
772.24	0.034
772.68	0.034
773.12	0.034
773.56	0.034
774.00	0.036
774.43	0.034
774.87	0.033
775.31	0.034
775.75	0.034
776.19	0.033
776.62	0.034
777.06	0.034
777.50	0.037
777.94	0.035
778.37	0.035
778.81	0.037
779.25	0.030
779.69	0.035
780.13	0.031
780.56	0.032
781.00	0.032
781.44	0.035
781.88	0.033
782.31	0.032
782.75	0.032
783.19	0.033
783.63	0.036
784.06	0.033
784.50	0.033
784.94	0.034
785.37	0.033
785.81	0.032
786.25	0.032
786.69	0.034
787.12	0.033
787.56	0.034
788.00	0.034
788.43	0.036
788.87	0.032
789.31	0.033
789.75	0.030
790.18	0.034
790.62	0.034
791.06	0.032
791.49	0.034
791.93	0.027
792.37	0.030
792.80	0.036
793.24	0.031
793.68	0.033
794.11	0.035
794.55	0.032
794.99	0.032
795.42	0.035
795.86	0.035
796.30	0.038
796.73	0.032
797.17	0.030
797.61	0.035
798.04	0.033
798.48	0.033
798.91	0.036
799.35	0.032
799.79	0.031
800.22	0.034
800.66	0.032
801.10	0.037
801.53	0.036
801.97	0.034
802.40	0.029
802.84	0.033
803.28	0.032
803.71	0.033
804.15	0.034
804.58	0.035
805.02	0.035
805.46	0.033
805.89	0.033
806.33	0.034
806.76	0.033
807.20	0.035
807.63	0.034
808.07	0.034
808.51	0.035
808.94	0.034
809.38	0.030
809.81	0.032
810.25	0.033
810.68	0.035
811.12	0.032
811.55	0.032
811.99	0.033
812.42	0.034
812.86	0.032
813.29	0.032
813.73	0.033
814.17	0.029
814.60	0.031
815.04	0.029
815.47	0.031
815.91	0.029
816.34	0.031
816.78	0.037
817.21	0.033
817.65	0.031
