SpectraSuite Data File
++++++++++++++++++++++++++++++++++++
Date: Wed May 04 16:15:06 CEST 2016
User: spectrasuite
Dark Spectrum Present: Yes
Reference Spectrum Present: Yes
Number of Sampled Component Spectra: 1
Spectrometers: HR+C0708
Integration Time (usec): 1000 (HR+C0708)
Spectra Averaged: 10 (HR+C0708)
Boxcar Smoothing: 0 (HR+C0708)
Correct for Electrical Dark: No (HR+C0708)
Strobe/Lamp Enabled: No (HR+C0708)
Correct for Detector Non-linearity: No (HR+C0708)
Correct for Stray Light: No (HR+C0708)
Number of Pixels in Processed Spectrum: 2048
>>>>>Begin Processed Spectral Data<<<<<
188.76	-0.000
189.23	-0.000
189.70	-0.000
190.17	-0.000
190.64	-0.000
191.12	-0.000
191.59	-0.000
192.06	-0.000
192.53	-0.000
193.01	-0.000
193.48	-0.000
193.95	-0.000
194.42	-0.000
194.90	-0.000
195.37	-0.000
195.84	-0.000
196.31	-0.000
196.78	-0.000
197.26	-0.000
197.73	-0.000
198.20	-0.000
198.67	-0.000
199.14	-0.000
199.62	-0.000
200.09	-0.000
200.56	-0.000
201.03	-0.000
201.50	-0.000
201.97	-0.000
202.45	-0.000
202.92	-0.000
203.39	-0.000
203.86	-0.000
204.33	-0.000
204.80	-0.000
205.28	-0.000
205.75	-0.000
206.22	-0.000
206.69	-0.000
207.16	-0.000
207.63	-0.000
208.11	-0.000
208.58	-0.000
209.05	-0.000
209.52	-0.000
209.99	-0.000
210.46	-0.000
210.93	-0.000
211.41	-0.000
211.88	-0.000
212.35	-0.000
212.82	-0.000
213.29	1.629
213.76	-0.000
214.23	-0.000
214.70	-0.000
215.18	-0.000
215.65	2.031
216.12	-0.000
216.59	-0.000
217.06	1.106
217.53	-0.000
218.00	-0.000
218.47	1.388
218.94	-0.000
219.41	-0.000
219.89	-0.000
220.36	-0.000
220.83	-0.000
221.30	-0.000
221.77	-0.000
222.24	1.057
222.71	-0.000
223.18	-0.000
223.65	0.884
224.12	-0.000
224.59	-0.000
225.06	-0.000
225.54	1.920
226.01	-0.000
226.48	-0.000
226.95	-0.000
227.42	1.671
227.89	-0.000
228.36	-0.000
228.83	2.148
229.30	-0.000
229.77	-0.000
230.24	2.105
230.71	-0.000
231.18	1.817
231.65	-0.000
232.12	-0.000
232.59	-0.000
233.06	-0.000
233.53	-0.000
234.00	-0.000
234.47	-0.000
234.94	-0.000
235.41	3.712
235.88	-0.000
236.35	-0.000
236.82	-0.000
237.29	-0.000
237.76	-0.000
238.23	-0.000
238.70	-0.000
239.17	2.761
239.64	-0.000
240.11	-0.000
240.58	3.183
241.05	2.991
241.52	-0.000
241.99	2.651
242.46	2.887
242.93	2.677
243.40	-0.000
243.87	3.796
244.34	2.590
244.81	-0.000
245.28	3.124
245.75	3.434
246.22	3.072
246.69	-0.000
247.16	2.728
247.63	4.199
248.10	-0.000
248.57	-0.000
249.04	-0.000
249.51	3.155
249.98	-0.000
250.45	3.073
250.92	2.716
251.39	2.633
251.85	2.640
252.32	2.313
252.79	2.251
253.26	1.923
253.73	1.806
254.20	1.698
254.67	1.593
255.14	1.548
255.61	1.469
256.08	1.395
256.55	1.335
257.02	1.283
257.49	1.231
257.95	1.181
258.42	1.142
258.89	1.104
259.36	1.071
259.83	1.043
260.30	1.019
260.77	0.996
261.24	0.972
261.71	0.948
262.17	0.927
262.64	0.914
263.11	0.891
263.58	0.873
264.05	0.860
264.52	0.842
264.99	0.828
265.46	0.819
265.92	0.804
266.39	0.786
266.86	0.779
267.33	0.773
267.80	0.759
268.27	0.747
268.74	0.741
269.20	0.728
269.67	0.719
270.14	0.713
270.61	0.704
271.08	0.696
271.55	0.687
272.01	0.681
272.48	0.671
272.95	0.664
273.42	0.656
273.89	0.655
274.36	0.647
274.82	0.638
275.29	0.635
275.76	0.634
276.23	0.627
276.70	0.622
277.16	0.617
277.63	0.617
278.10	0.608
278.57	0.607
279.04	0.606
279.50	0.600
279.97	0.598
280.44	0.590
280.91	0.593
281.38	0.589
281.84	0.589
282.31	0.584
282.78	0.585
283.25	0.583
283.72	0.579
284.18	0.578
284.65	0.575
285.12	0.576
285.59	0.574
286.05	0.574
286.52	0.574
286.99	0.574
287.46	0.574
287.92	0.577
288.39	0.574
288.86	0.573
289.33	0.570
289.79	0.568
290.26	0.567
290.73	0.569
291.20	0.564
291.66	0.561
292.13	0.560
292.60	0.556
293.07	0.550
293.53	0.545
294.00	0.541
294.47	0.540
294.93	0.532
295.40	0.526
295.87	0.522
296.34	0.512
296.80	0.505
297.27	0.497
297.74	0.490
298.20	0.485
298.67	0.477
299.14	0.468
299.60	0.461
300.07	0.455
300.54	0.447
301.01	0.442
301.47	0.435
301.94	0.425
302.41	0.417
302.87	0.413
303.34	0.406
303.81	0.400
304.27	0.393
304.74	0.385
305.21	0.375
305.67	0.370
306.14	0.367
306.61	0.363
307.07	0.355
307.54	0.351
308.01	0.346
308.47	0.341
308.94	0.339
309.40	0.335
309.87	0.331
310.34	0.327
310.80	0.321
311.27	0.317
311.74	0.316
312.20	0.313
312.67	0.310
313.13	0.306
313.60	0.305
314.07	0.300
314.53	0.300
315.00	0.295
315.47	0.294
315.93	0.294
316.40	0.290
316.86	0.288
317.33	0.285
317.80	0.289
318.26	0.283
318.73	0.283
319.19	0.284
319.66	0.278
320.13	0.275
320.59	0.274
321.06	0.277
321.52	0.273
321.99	0.274
322.45	0.271
322.92	0.271
323.39	0.268
323.85	0.268
324.32	0.266
324.78	0.265
325.25	0.260
325.71	0.262
326.18	0.260
326.64	0.258
327.11	0.255
327.58	0.254
328.04	0.258
328.51	0.255
328.97	0.251
329.44	0.248
329.90	0.247
330.37	0.245
330.83	0.246
331.30	0.244
331.76	0.241
332.23	0.238
332.69	0.237
333.16	0.237
333.62	0.235
334.09	0.230
334.56	0.228
335.02	0.229
335.49	0.226
335.95	0.224
336.42	0.222
336.88	0.218
337.35	0.216
337.81	0.216
338.28	0.218
338.74	0.217
339.20	0.218
339.67	0.216
340.13	0.217
340.60	0.212
341.06	0.209
341.53	0.208
341.99	0.206
342.46	0.205
342.92	0.203
343.39	0.200
343.85	0.199
344.32	0.198
344.78	0.201
345.25	0.202
345.71	0.200
346.17	0.201
346.64	0.202
347.10	0.197
347.57	0.192
348.03	0.192
348.50	0.193
348.96	0.195
349.43	0.190
349.89	0.195
350.35	0.194
350.82	0.189
351.28	0.196
351.75	0.191
352.21	0.192
352.67	0.191
353.14	0.192
353.60	0.187
354.07	0.188
354.53	0.185
355.00	0.185
355.46	0.184
355.92	0.179
356.39	0.182
356.85	0.178
357.31	0.174
357.78	0.176
358.24	0.174
358.71	0.176
359.17	0.173
359.63	0.173
360.10	0.173
360.56	0.170
361.03	0.171
361.49	0.173
361.95	0.171
362.42	0.170
362.88	0.174
363.34	0.173
363.81	0.169
364.27	0.172
364.73	0.169
365.20	0.169
365.66	0.166
366.12	0.171
366.59	0.169
367.05	0.168
367.51	0.169
367.98	0.168
368.44	0.167
368.90	0.167
369.37	0.169
369.83	0.165
370.29	0.162
370.76	0.166
371.22	0.163
371.68	0.165
372.15	0.163
372.61	0.160
373.07	0.162
373.54	0.159
374.00	0.160
374.46	0.162
374.92	0.161
375.39	0.161
375.85	0.160
376.31	0.161
376.78	0.161
377.24	0.159
377.70	0.160
378.16	0.159
378.63	0.161
379.09	0.159
379.55	0.158
380.01	0.158
380.48	0.159
380.94	0.158
381.40	0.158
381.87	0.160
382.33	0.158
382.79	0.155
383.25	0.158
383.72	0.159
384.18	0.157
384.64	0.157
385.10	0.155
385.56	0.154
386.03	0.156
386.49	0.154
386.95	0.155
387.41	0.154
387.88	0.153
388.34	0.150
388.80	0.154
389.26	0.154
389.72	0.155
390.19	0.152
390.65	0.150
391.11	0.151
391.57	0.153
392.04	0.152
392.50	0.150
392.96	0.152
393.42	0.150
393.88	0.154
394.34	0.151
394.81	0.151
395.27	0.151
395.73	0.148
396.19	0.148
396.65	0.150
397.12	0.145
397.58	0.146
398.04	0.148
398.50	0.148
398.96	0.149
399.42	0.150
399.89	0.152
400.35	0.149
400.81	0.146
401.27	0.150
401.73	0.148
402.19	0.148
402.65	0.144
403.12	0.144
403.58	0.144
404.04	0.144
404.50	0.143
404.96	0.143
405.42	0.145
405.88	0.142
406.34	0.145
406.81	0.145
407.27	0.142
407.73	0.138
408.19	0.142
408.65	0.138
409.11	0.141
409.57	0.141
410.03	0.142
410.49	0.139
410.96	0.141
411.42	0.139
411.88	0.138
412.34	0.135
412.80	0.135
413.26	0.142
413.72	0.140
414.18	0.135
414.64	0.139
415.10	0.138
415.56	0.138
416.02	0.138
416.48	0.136
416.95	0.138
417.41	0.136
417.87	0.138
418.33	0.134
418.79	0.135
419.25	0.135
419.71	0.136
420.17	0.133
420.63	0.133
421.09	0.130
421.55	0.135
422.01	0.134
422.47	0.136
422.93	0.138
423.39	0.136
423.85	0.134
424.31	0.136
424.77	0.135
425.23	0.134
425.69	0.136
426.15	0.136
426.61	0.135
427.07	0.131
427.53	0.131
427.99	0.131
428.45	0.133
428.91	0.128
429.37	0.131
429.83	0.130
430.29	0.132
430.75	0.133
431.21	0.134
431.67	0.137
432.13	0.134
432.59	0.129
433.05	0.133
433.51	0.128
433.97	0.127
434.43	0.137
434.89	0.135
435.35	0.131
435.81	0.133
436.27	0.132
436.73	0.132
437.19	0.134
437.65	0.129
438.11	0.132
438.57	0.134
439.03	0.132
439.48	0.133
439.94	0.132
440.40	0.131
440.86	0.131
441.32	0.129
441.78	0.127
442.24	0.135
442.70	0.134
443.16	0.127
443.62	0.129
444.08	0.129
444.54	0.128
444.99	0.131
445.45	0.125
445.91	0.127
446.37	0.129
446.83	0.130
447.29	0.129
447.75	0.127
448.21	0.129
448.67	0.130
449.12	0.130
449.58	0.129
450.04	0.130
450.50	0.129
450.96	0.125
451.42	0.128
451.88	0.129
452.34	0.126
452.79	0.128
453.25	0.130
453.71	0.131
454.17	0.125
454.63	0.130
455.09	0.127
455.55	0.128
456.00	0.124
456.46	0.127
456.92	0.124
457.38	0.126
457.84	0.128
458.30	0.127
458.75	0.127
459.21	0.125
459.67	0.123
460.13	0.126
460.59	0.125
461.04	0.126
461.50	0.126
461.96	0.125
462.42	0.123
462.88	0.125
463.33	0.123
463.79	0.124
464.25	0.124
464.71	0.126
465.17	0.124
465.62	0.124
466.08	0.127
466.54	0.127
467.00	0.126
467.46	0.127
467.91	0.125
468.37	0.125
468.83	0.126
469.29	0.126
469.74	0.126
470.20	0.127
470.66	0.127
471.12	0.126
471.57	0.125
472.03	0.127
472.49	0.126
472.95	0.129
473.40	0.125
473.86	0.127
474.32	0.125
474.78	0.124
475.23	0.126
475.69	0.124
476.15	0.126
476.60	0.128
477.06	0.127
477.52	0.124
477.98	0.125
478.43	0.129
478.89	0.126
479.35	0.128
479.80	0.128
480.26	0.124
480.72	0.125
481.18	0.125
481.63	0.127
482.09	0.125
482.55	0.124
483.00	0.124
483.46	0.127
483.92	0.122
484.37	0.123
484.83	0.123
485.29	0.126
485.74	0.124
486.20	0.123
486.66	0.126
487.11	0.124
487.57	0.125
488.03	0.123
488.48	0.126
488.94	0.124
489.40	0.124
489.85	0.125
490.31	0.124
490.77	0.123
491.22	0.126
491.68	0.123
492.13	0.124
492.59	0.126
493.05	0.125
493.50	0.123
493.96	0.122
494.42	0.125
494.87	0.124
495.33	0.122
495.78	0.124
496.24	0.124
496.70	0.126
497.15	0.124
497.61	0.124
498.06	0.124
498.52	0.124
498.98	0.123
499.43	0.124
499.89	0.124
500.34	0.122
500.80	0.123
501.25	0.122
501.71	0.121
502.17	0.121
502.62	0.121
503.08	0.118
503.53	0.122
503.99	0.122
504.44	0.122
504.90	0.119
505.36	0.121
505.81	0.122
506.27	0.121
506.72	0.122
507.18	0.122
507.63	0.120
508.09	0.121
508.54	0.119
509.00	0.120
509.45	0.121
509.91	0.121
510.36	0.121
510.82	0.122
511.27	0.123
511.73	0.123
512.19	0.121
512.64	0.120
513.10	0.121
513.55	0.121
514.01	0.122
514.46	0.121
514.92	0.120
515.37	0.120
515.83	0.118
516.28	0.121
516.73	0.120
517.19	0.119
517.64	0.120
518.10	0.119
518.55	0.118
519.01	0.120
519.46	0.119
519.92	0.119
520.37	0.117
520.83	0.120
521.28	0.118
521.74	0.117
522.19	0.119
522.65	0.118
523.10	0.118
523.55	0.119
524.01	0.116
524.46	0.119
524.92	0.117
525.37	0.119
525.83	0.119
526.28	0.119
526.73	0.118
527.19	0.118
527.64	0.117
528.10	0.119
528.55	0.120
529.01	0.120
529.46	0.119
529.91	0.119
530.37	0.119
530.82	0.120
531.28	0.118
531.73	0.118
532.18	0.122
532.64	0.119
533.09	0.120
533.54	0.118
534.00	0.122
534.45	0.122
534.91	0.120
535.36	0.119
535.81	0.119
536.27	0.117
536.72	0.118
537.17	0.120
537.63	0.118
538.08	0.121
538.54	0.120
538.99	0.124
539.44	0.121
539.90	0.122
540.35	0.120
540.80	0.121
541.26	0.121
541.71	0.124
542.16	0.124
542.62	0.125
543.07	0.124
543.52	0.123
543.98	0.123
544.43	0.124
544.88	0.123
545.34	0.124
545.79	0.125
546.24	0.122
546.69	0.124
547.15	0.126
547.60	0.127
548.05	0.126
548.51	0.126
548.96	0.127
549.41	0.126
549.86	0.127
550.32	0.129
550.77	0.127
551.22	0.127
551.68	0.127
552.13	0.127
552.58	0.128
553.03	0.129
553.49	0.129
553.94	0.129
554.39	0.130
554.84	0.130
555.30	0.131
555.75	0.130
556.20	0.132
556.65	0.133
557.11	0.133
557.56	0.134
558.01	0.134
558.46	0.135
558.92	0.135
559.37	0.135
559.82	0.135
560.27	0.136
560.72	0.137
561.18	0.136
561.63	0.138
562.08	0.136
562.53	0.138
562.99	0.137
563.44	0.139
563.89	0.139
564.34	0.141
564.79	0.140
565.25	0.141
565.70	0.141
566.15	0.143
566.60	0.143
567.05	0.143
567.50	0.145
567.96	0.145
568.41	0.147
568.86	0.147
569.31	0.146
569.76	0.145
570.21	0.149
570.67	0.146
571.12	0.149
571.57	0.149
572.02	0.152
572.47	0.150
572.92	0.151
573.37	0.156
573.83	0.153
574.28	0.153
574.73	0.155
575.18	0.156
575.63	0.156
576.08	0.157
576.53	0.156
576.98	0.157
577.44	0.160
577.89	0.158
578.34	0.162
578.79	0.160
579.24	0.161
579.69	0.164
580.14	0.164
580.59	0.165
581.04	0.166
581.49	0.165
581.95	0.168
582.40	0.170
582.85	0.171
583.30	0.172
583.75	0.173
584.20	0.174
584.65	0.176
585.10	0.177
585.55	0.178
586.00	0.179
586.45	0.182
586.90	0.182
587.35	0.184
587.80	0.184
588.25	0.186
588.71	0.188
589.16	0.191
589.61	0.190
590.06	0.191
590.51	0.193
590.96	0.196
591.41	0.197
591.86	0.198
592.31	0.200
592.76	0.202
593.21	0.200
593.66	0.206
594.11	0.206
594.56	0.209
595.01	0.210
595.46	0.212
595.91	0.213
596.36	0.216
596.81	0.218
597.26	0.219
597.71	0.219
598.16	0.221
598.61	0.225
599.06	0.225
599.51	0.225
599.96	0.228
600.41	0.229
600.86	0.232
601.31	0.233
601.76	0.237
602.21	0.239
602.65	0.239
603.10	0.240
603.55	0.243
604.00	0.244
604.45	0.246
604.90	0.247
605.35	0.249
605.80	0.246
606.25	0.251
606.70	0.256
607.15	0.254
607.60	0.255
608.05	0.258
608.50	0.260
608.95	0.259
609.39	0.260
609.84	0.261
610.29	0.264
610.74	0.263
611.19	0.263
611.64	0.266
612.09	0.266
612.54	0.268
612.99	0.268
613.44	0.269
613.88	0.271
614.33	0.271
614.78	0.273
615.23	0.273
615.68	0.274
616.13	0.272
616.58	0.275
617.03	0.276
617.47	0.277
617.92	0.278
618.37	0.278
618.82	0.280
619.27	0.278
619.72	0.280
620.17	0.280
620.61	0.281
621.06	0.281
621.51	0.278
621.96	0.281
622.41	0.282
622.86	0.283
623.30	0.284
623.75	0.284
624.20	0.285
624.65	0.286
625.10	0.286
625.54	0.285
625.99	0.287
626.44	0.291
626.89	0.289
627.34	0.289
627.78	0.292
628.23	0.293
628.68	0.293
629.13	0.293
629.58	0.296
630.02	0.298
630.47	0.298
630.92	0.301
631.37	0.302
631.81	0.305
632.26	0.304
632.71	0.307
633.16	0.309
633.61	0.307
634.05	0.311
634.50	0.313
634.95	0.314
635.40	0.317
635.84	0.319
636.29	0.320
636.74	0.323
637.18	0.324
637.63	0.327
638.08	0.329
638.53	0.332
638.97	0.334
639.42	0.338
639.87	0.339
640.32	0.340
640.76	0.343
641.21	0.347
641.66	0.347
642.10	0.352
642.55	0.353
643.00	0.355
643.44	0.358
643.89	0.361
644.34	0.365
644.79	0.369
645.23	0.369
645.68	0.374
646.13	0.378
646.57	0.380
647.02	0.380
647.47	0.385
647.91	0.387
648.36	0.389
648.81	0.392
649.25	0.394
649.70	0.396
650.15	0.402
650.59	0.404
651.04	0.405
651.48	0.408
651.93	0.411
652.38	0.414
652.82	0.415
653.27	0.417
653.72	0.420
654.16	0.423
654.61	0.424
655.06	0.426
655.50	0.427
655.95	0.423
656.39	0.427
656.84	0.438
657.29	0.441
657.73	0.436
658.18	0.437
658.62	0.437
659.07	0.442
659.52	0.443
659.96	0.444
660.41	0.448
660.85	0.448
661.30	0.448
661.74	0.452
662.19	0.451
662.64	0.449
663.08	0.452
663.53	0.451
663.97	0.454
664.42	0.449
664.86	0.450
665.31	0.454
665.75	0.448
666.20	0.448
666.65	0.447
667.09	0.447
667.54	0.446
667.98	0.442
668.43	0.444
668.87	0.440
669.32	0.439
669.76	0.437
670.21	0.434
670.65	0.431
671.10	0.425
671.54	0.423
671.99	0.423
672.43	0.415
672.88	0.409
673.32	0.407
673.77	0.399
674.21	0.396
674.66	0.387
675.10	0.383
675.55	0.377
675.99	0.371
676.44	0.364
676.88	0.360
677.33	0.354
677.77	0.343
678.22	0.339
678.66	0.330
679.11	0.324
679.55	0.319
679.99	0.309
680.44	0.305
680.88	0.296
681.33	0.290
681.77	0.283
682.22	0.274
682.66	0.270
683.11	0.262
683.55	0.256
683.99	0.249
684.44	0.244
684.88	0.235
685.33	0.231
685.77	0.223
686.21	0.219
686.66	0.212
687.10	0.205
687.55	0.203
687.99	0.196
688.44	0.191
688.88	0.185
689.32	0.181
689.77	0.178
690.21	0.174
690.65	0.167
691.10	0.162
691.54	0.162
691.99	0.156
692.43	0.154
692.87	0.151
693.32	0.145
693.76	0.143
694.20	0.142
694.65	0.138
695.09	0.134
695.53	0.132
695.98	0.128
696.42	0.129
696.86	0.126
697.31	0.123
697.75	0.119
698.19	0.121
698.64	0.116
699.08	0.115
699.52	0.114
699.97	0.111
700.41	0.110
700.85	0.108
701.30	0.106
701.74	0.105
702.18	0.104
702.63	0.106
703.07	0.101
703.51	0.103
703.96	0.102
704.40	0.100
704.84	0.097
705.28	0.097
705.73	0.097
706.17	0.095
706.61	0.095
707.06	0.094
707.50	0.095
707.94	0.094
708.38	0.091
708.83	0.094
709.27	0.092
709.71	0.090
710.15	0.091
710.60	0.092
711.04	0.089
711.48	0.090
711.92	0.089
712.37	0.088
712.81	0.087
713.25	0.087
713.69	0.087
714.13	0.086
714.58	0.087
715.02	0.086
715.46	0.085
715.90	0.086
716.35	0.087
716.79	0.088
717.23	0.087
717.67	0.087
718.11	0.082
718.56	0.087
719.00	0.086
719.44	0.084
719.88	0.088
720.32	0.088
720.76	0.084
721.21	0.086
721.65	0.083
722.09	0.084
722.53	0.088
722.97	0.085
723.41	0.083
723.86	0.084
724.30	0.085
724.74	0.085
725.18	0.084
725.62	0.084
726.06	0.087
726.50	0.086
726.95	0.086
727.39	0.086
727.83	0.087
728.27	0.086
728.71	0.086
729.15	0.086
729.59	0.084
730.03	0.087
730.48	0.083
730.92	0.088
731.36	0.084
731.80	0.087
732.24	0.089
732.68	0.086
733.12	0.088
733.56	0.088
734.00	0.090
734.44	0.088
734.89	0.088
735.33	0.085
735.77	0.090
736.21	0.089
736.65	0.088
737.09	0.091
737.53	0.087
737.97	0.090
738.41	0.087
738.85	0.089
739.29	0.089
739.73	0.090
740.17	0.087
740.61	0.087
741.05	0.091
741.49	0.088
741.93	0.088
742.37	0.087
742.81	0.087
743.26	0.087
743.70	0.087
744.14	0.089
744.58	0.089
745.02	0.086
745.46	0.088
745.90	0.088
746.34	0.088
746.78	0.091
747.22	0.086
747.66	0.086
748.10	0.086
748.54	0.088
748.98	0.089
749.42	0.091
749.86	0.089
750.29	0.087
750.73	0.088
751.17	0.087
751.61	0.090
752.05	0.088
752.49	0.088
752.93	0.086
753.37	0.090
753.81	0.088
754.25	0.088
754.69	0.089
755.13	0.089
755.57	0.088
756.01	0.086
756.45	0.086
756.89	0.088
757.33	0.086
757.77	0.089
758.21	0.089
758.64	0.083
759.08	0.088
759.52	0.087
759.96	0.088
760.40	0.088
760.84	0.085
761.28	0.084
761.72	0.087
762.16	0.084
762.60	0.087
763.03	0.087
763.47	0.085
763.91	0.083
764.35	0.084
764.79	0.087
765.23	0.087
765.67	0.085
766.11	0.087
766.54	0.088
766.98	0.085
767.42	0.087
767.86	0.089
768.30	0.086
768.74	0.085
769.17	0.084
769.61	0.086
770.05	0.087
770.49	0.087
770.93	0.083
771.37	0.087
771.80	0.084
772.24	0.081
772.68	0.083
773.12	0.085
773.56	0.087
774.00	0.086
774.43	0.089
774.87	0.086
775.31	0.087
775.75	0.083
776.19	0.086
776.62	0.087
777.06	0.084
777.50	0.085
777.94	0.081
778.37	0.088
778.81	0.086
779.25	0.084
779.69	0.083
780.13	0.084
780.56	0.083
781.00	0.084
781.44	0.084
781.88	0.085
782.31	0.084
782.75	0.083
783.19	0.087
783.63	0.087
784.06	0.083
784.50	0.083
784.94	0.086
785.37	0.085
785.81	0.085
786.25	0.084
786.69	0.088
787.12	0.086
787.56	0.088
788.00	0.084
788.43	0.087
788.87	0.086
789.31	0.085
789.75	0.086
790.18	0.086
790.62	0.083
791.06	0.083
791.49	0.088
791.93	0.085
792.37	0.080
792.80	0.086
793.24	0.082
793.68	0.086
794.11	0.087
794.55	0.086
794.99	0.084
795.42	0.089
795.86	0.090
796.30	0.086
796.73	0.082
797.17	0.082
797.61	0.087
798.04	0.087
798.48	0.084
798.91	0.085
799.35	0.086
799.79	0.084
800.22	0.085
800.66	0.080
801.10	0.087
801.53	0.090
801.97	0.084
802.40	0.083
802.84	0.084
803.28	0.084
803.71	0.087
804.15	0.085
804.58	0.090
805.02	0.086
805.46	0.084
805.89	0.083
806.33	0.088
806.76	0.087
807.20	0.088
807.63	0.086
808.07	0.082
808.51	0.090
808.94	0.085
809.38	0.086
809.81	0.089
810.25	0.083
810.68	0.086
811.12	0.086
811.55	0.087
811.99	0.085
812.42	0.085
812.86	0.087
813.29	0.087
813.73	0.087
814.17	0.080
814.60	0.085
