SpectraSuite Data File
++++++++++++++++++++++++++++++++++++
Date: Wed May 04 16:48:21 CEST 2016
User: spectrasuite
Dark Spectrum Present: Yes
Reference Spectrum Present: Yes
Number of Sampled Component Spectra: 1
Spectrometers: HR+C0708
Integration Time (usec): 1000 (HR+C0708)
Spectra Averaged: 10 (HR+C0708)
Boxcar Smoothing: 0 (HR+C0708)
Correct for Electrical Dark: No (HR+C0708)
Strobe/Lamp Enabled: No (HR+C0708)
Correct for Detector Non-linearity: No (HR+C0708)
Correct for Stray Light: No (HR+C0708)
Number of Pixels in Processed Spectrum: 2048
>>>>>Begin Processed Spectral Data<<<<<
188.76	-0.000
189.23	-0.000
189.70	-0.000
190.17	-0.000
190.64	-0.000
191.12	-0.000
191.59	-0.000
192.06	-0.000
192.53	-0.000
193.01	-0.000
193.48	-0.000
193.95	-0.000
194.42	-0.000
194.90	-0.000
195.37	-0.000
195.84	-0.000
196.31	-0.000
196.78	-0.000
197.26	-0.000
197.73	-0.000
198.20	-0.000
198.67	-0.000
199.14	-0.000
199.62	-0.000
200.09	-0.000
200.56	-0.000
201.03	-0.000
201.50	-0.000
201.97	-0.000
202.45	-0.000
202.92	-0.000
203.39	-0.000
203.86	-0.000
204.33	-0.000
204.80	-0.000
205.28	-0.000
205.75	-0.000
206.22	-0.000
206.69	-0.000
207.16	2.163
207.63	-0.000
208.11	-0.000
208.58	-0.000
209.05	-0.000
209.52	-0.000
209.99	1.316
210.46	-0.000
210.93	-0.000
211.41	-0.000
211.88	-0.000
212.35	-0.000
212.82	-0.000
213.29	-0.000
213.76	-0.000
214.23	-0.000
214.70	-0.000
215.18	-0.000
215.65	2.730
216.12	-0.000
216.59	-0.000
217.06	1.218
217.53	-0.000
218.00	-0.000
218.47	-0.000
218.94	-0.000
219.41	1.696
219.89	-0.000
220.36	1.999
220.83	-0.000
221.30	-0.000
221.77	-0.000
222.24	2.569
222.71	-0.000
223.18	-0.000
223.65	1.071
224.12	1.146
224.59	-0.000
225.06	-0.000
225.54	-0.000
226.01	-0.000
226.48	-0.000
226.95	-0.000
227.42	1.820
227.89	-0.000
228.36	-0.000
228.83	1.750
229.30	2.445
229.77	-0.000
230.24	-0.000
230.71	-0.000
231.18	-0.000
231.65	-0.000
232.12	-0.000
232.59	-0.000
233.06	-0.000
233.53	-0.000
234.00	2.063
234.47	-0.000
234.94	-0.000
235.41	2.809
235.88	3.209
236.35	-0.000
236.82	-0.000
237.29	-0.000
237.76	2.602
238.23	-0.000
238.70	-0.000
239.17	2.511
239.64	-0.000
240.11	-0.000
240.58	3.238
241.05	-0.000
241.52	3.090
241.99	2.644
242.46	2.840
242.93	3.499
243.40	-0.000
243.87	-0.000
244.34	2.857
244.81	-0.000
245.28	-0.000
245.75	3.015
246.22	3.329
246.69	-0.000
247.16	3.274
247.63	3.721
248.10	3.100
248.57	-0.000
249.04	4.094
249.51	2.873
249.98	-0.000
250.45	-0.000
250.92	3.211
251.39	2.605
251.85	2.594
252.32	2.293
252.79	2.099
253.26	1.947
253.73	1.841
254.20	1.701
254.67	1.598
255.14	1.555
255.61	1.466
256.08	1.387
256.55	1.324
257.02	1.275
257.49	1.225
257.95	1.186
258.42	1.143
258.89	1.109
259.36	1.083
259.83	1.045
260.30	1.031
260.77	0.995
261.24	0.971
261.71	0.949
262.17	0.930
262.64	0.911
263.11	0.892
263.58	0.872
264.05	0.862
264.52	0.842
264.99	0.831
265.46	0.819
265.92	0.804
266.39	0.787
266.86	0.782
267.33	0.768
267.80	0.756
268.27	0.749
268.74	0.738
269.20	0.728
269.67	0.717
270.14	0.709
270.61	0.702
271.08	0.691
271.55	0.685
272.01	0.678
272.48	0.668
272.95	0.657
273.42	0.653
273.89	0.652
274.36	0.642
274.82	0.635
275.29	0.630
275.76	0.626
276.23	0.619
276.70	0.612
277.16	0.613
277.63	0.611
278.10	0.604
278.57	0.599
279.04	0.597
279.50	0.593
279.97	0.591
280.44	0.588
280.91	0.589
281.38	0.583
281.84	0.579
282.31	0.577
282.78	0.577
283.25	0.577
283.72	0.569
284.18	0.569
284.65	0.573
285.12	0.571
285.59	0.567
286.05	0.567
286.52	0.566
286.99	0.567
287.46	0.565
287.92	0.561
288.39	0.560
288.86	0.563
289.33	0.562
289.79	0.559
290.26	0.556
290.73	0.557
291.20	0.553
291.66	0.552
292.13	0.551
292.60	0.547
293.07	0.540
293.53	0.534
294.00	0.529
294.47	0.526
294.93	0.522
295.40	0.515
295.87	0.511
296.34	0.503
296.80	0.498
297.27	0.486
297.74	0.483
298.20	0.475
298.67	0.468
299.14	0.458
299.60	0.453
300.07	0.444
300.54	0.437
301.01	0.431
301.47	0.423
301.94	0.419
302.41	0.410
302.87	0.404
303.34	0.396
303.81	0.391
304.27	0.384
304.74	0.378
305.21	0.372
305.67	0.364
306.14	0.359
306.61	0.357
307.07	0.348
307.54	0.348
308.01	0.338
308.47	0.333
308.94	0.330
309.40	0.326
309.87	0.323
310.34	0.318
310.80	0.318
311.27	0.311
311.74	0.310
312.20	0.306
312.67	0.303
313.13	0.301
313.60	0.297
314.07	0.296
314.53	0.292
315.00	0.287
315.47	0.288
315.93	0.287
316.40	0.285
316.86	0.284
317.33	0.282
317.80	0.281
318.26	0.278
318.73	0.277
319.19	0.275
319.66	0.273
320.13	0.270
320.59	0.270
321.06	0.271
321.52	0.267
321.99	0.268
322.45	0.265
322.92	0.263
323.39	0.261
323.85	0.260
324.32	0.260
324.78	0.258
325.25	0.256
325.71	0.256
326.18	0.255
326.64	0.251
327.11	0.250
327.58	0.248
328.04	0.250
328.51	0.246
328.97	0.244
329.44	0.242
329.90	0.238
330.37	0.237
330.83	0.236
331.30	0.238
331.76	0.235
332.23	0.234
332.69	0.232
333.16	0.231
333.62	0.226
334.09	0.225
334.56	0.226
335.02	0.222
335.49	0.219
335.95	0.218
336.42	0.216
336.88	0.213
337.35	0.210
337.81	0.212
338.28	0.210
338.74	0.211
339.20	0.212
339.67	0.210
340.13	0.211
340.60	0.206
341.06	0.203
341.53	0.200
341.99	0.200
342.46	0.198
342.92	0.198
343.39	0.195
343.85	0.196
344.32	0.193
344.78	0.193
345.25	0.197
345.71	0.194
346.17	0.197
346.64	0.197
347.10	0.194
347.57	0.189
348.03	0.188
348.50	0.184
348.96	0.187
349.43	0.187
349.89	0.190
350.35	0.187
350.82	0.184
351.28	0.186
351.75	0.187
352.21	0.188
352.67	0.184
353.14	0.181
353.60	0.181
354.07	0.180
354.53	0.181
355.00	0.177
355.46	0.176
355.92	0.169
356.39	0.174
356.85	0.171
357.31	0.172
357.78	0.169
358.24	0.169
358.71	0.170
359.17	0.166
359.63	0.165
360.10	0.163
360.56	0.164
361.03	0.164
361.49	0.166
361.95	0.162
362.42	0.165
362.88	0.165
363.34	0.165
363.81	0.163
364.27	0.163
364.73	0.165
365.20	0.163
365.66	0.163
366.12	0.163
366.59	0.163
367.05	0.161
367.51	0.162
367.98	0.160
368.44	0.161
368.90	0.158
369.37	0.158
369.83	0.161
370.29	0.157
370.76	0.156
371.22	0.155
371.68	0.158
372.15	0.154
372.61	0.153
373.07	0.155
373.54	0.152
374.00	0.154
374.46	0.153
374.92	0.153
375.39	0.153
375.85	0.152
376.31	0.157
376.78	0.154
377.24	0.151
377.70	0.152
378.16	0.152
378.63	0.153
379.09	0.153
379.55	0.152
380.01	0.151
380.48	0.153
380.94	0.152
381.40	0.151
381.87	0.153
382.33	0.151
382.79	0.149
383.25	0.153
383.72	0.153
384.18	0.151
384.64	0.150
385.10	0.148
385.56	0.149
386.03	0.150
386.49	0.147
386.95	0.149
387.41	0.147
387.88	0.145
388.34	0.146
388.80	0.150
389.26	0.149
389.72	0.147
390.19	0.145
390.65	0.142
391.11	0.144
391.57	0.145
392.04	0.144
392.50	0.145
392.96	0.145
393.42	0.144
393.88	0.149
394.34	0.145
394.81	0.144
395.27	0.145
395.73	0.141
396.19	0.142
396.65	0.143
397.12	0.140
397.58	0.140
398.04	0.140
398.50	0.141
398.96	0.142
399.42	0.141
399.89	0.145
400.35	0.144
400.81	0.139
401.27	0.142
401.73	0.140
402.19	0.141
402.65	0.136
403.12	0.139
403.58	0.137
404.04	0.136
404.50	0.134
404.96	0.135
405.42	0.138
405.88	0.139
406.34	0.141
406.81	0.138
407.27	0.135
407.73	0.132
408.19	0.135
408.65	0.132
409.11	0.134
409.57	0.134
410.03	0.138
410.49	0.136
410.96	0.135
411.42	0.133
411.88	0.132
412.34	0.129
412.80	0.130
413.26	0.131
413.72	0.132
414.18	0.129
414.64	0.130
415.10	0.131
415.56	0.132
416.02	0.130
416.48	0.128
416.95	0.132
417.41	0.129
417.87	0.132
418.33	0.130
418.79	0.127
419.25	0.129
419.71	0.126
420.17	0.129
420.63	0.123
421.09	0.123
421.55	0.127
422.01	0.127
422.47	0.132
422.93	0.131
423.39	0.129
423.85	0.124
424.31	0.128
424.77	0.129
425.23	0.129
425.69	0.131
426.15	0.130
426.61	0.130
427.07	0.126
427.53	0.125
427.99	0.126
428.45	0.131
428.91	0.127
429.37	0.125
429.83	0.122
430.29	0.127
430.75	0.129
431.21	0.132
431.67	0.133
432.13	0.130
432.59	0.126
433.05	0.126
433.51	0.123
433.97	0.122
434.43	0.130
434.89	0.132
435.35	0.125
435.81	0.127
436.27	0.127
436.73	0.126
437.19	0.126
437.65	0.124
438.11	0.126
438.57	0.128
439.03	0.127
439.48	0.129
439.94	0.125
440.40	0.124
440.86	0.123
441.32	0.125
441.78	0.124
442.24	0.127
442.70	0.125
443.16	0.125
443.62	0.126
444.08	0.121
444.54	0.124
444.99	0.124
445.45	0.122
445.91	0.120
446.37	0.122
446.83	0.120
447.29	0.123
447.75	0.122
448.21	0.125
448.67	0.122
449.12	0.121
449.58	0.123
450.04	0.124
450.50	0.121
450.96	0.121
451.42	0.122
451.88	0.122
452.34	0.120
452.79	0.122
453.25	0.125
453.71	0.120
454.17	0.121
454.63	0.121
455.09	0.123
455.55	0.117
456.00	0.119
456.46	0.119
456.92	0.122
457.38	0.120
457.84	0.120
458.30	0.122
458.75	0.119
459.21	0.118
459.67	0.117
460.13	0.119
460.59	0.120
461.04	0.120
461.50	0.118
461.96	0.118
462.42	0.120
462.88	0.117
463.33	0.118
463.79	0.117
464.25	0.117
464.71	0.122
465.17	0.120
465.62	0.119
466.08	0.121
466.54	0.121
467.00	0.121
467.46	0.122
467.91	0.121
468.37	0.119
468.83	0.122
469.29	0.120
469.74	0.120
470.20	0.120
470.66	0.120
471.12	0.119
471.57	0.121
472.03	0.122
472.49	0.121
472.95	0.122
473.40	0.120
473.86	0.121
474.32	0.119
474.78	0.118
475.23	0.120
475.69	0.119
476.15	0.120
476.60	0.121
477.06	0.123
477.52	0.121
477.98	0.121
478.43	0.121
478.89	0.122
479.35	0.122
479.80	0.119
480.26	0.118
480.72	0.117
481.18	0.117
481.63	0.120
482.09	0.120
482.55	0.116
483.00	0.115
483.46	0.117
483.92	0.118
484.37	0.118
484.83	0.116
485.29	0.119
485.74	0.120
486.20	0.120
486.66	0.119
487.11	0.117
487.57	0.118
488.03	0.119
488.48	0.118
488.94	0.118
489.40	0.117
489.85	0.119
490.31	0.119
490.77	0.116
491.22	0.121
491.68	0.117
492.13	0.119
492.59	0.120
493.05	0.118
493.50	0.117
493.96	0.117
494.42	0.118
494.87	0.119
495.33	0.115
495.78	0.117
496.24	0.117
496.70	0.120
497.15	0.118
497.61	0.119
498.06	0.116
498.52	0.118
498.98	0.117
499.43	0.116
499.89	0.118
500.34	0.115
500.80	0.117
501.25	0.115
501.71	0.115
502.17	0.115
502.62	0.114
503.08	0.114
503.53	0.115
503.99	0.115
504.44	0.116
504.90	0.114
505.36	0.116
505.81	0.116
506.27	0.115
506.72	0.114
507.18	0.114
507.63	0.113
508.09	0.116
508.54	0.115
509.00	0.116
509.45	0.115
509.91	0.116
510.36	0.116
510.82	0.117
511.27	0.114
511.73	0.117
512.19	0.117
512.64	0.114
513.10	0.116
513.55	0.115
514.01	0.116
514.46	0.116
514.92	0.116
515.37	0.116
515.83	0.115
516.28	0.115
516.73	0.114
517.19	0.115
517.64	0.113
518.10	0.114
518.55	0.114
519.01	0.116
519.46	0.114
519.92	0.113
520.37	0.112
520.83	0.113
521.28	0.111
521.74	0.115
522.19	0.112
522.65	0.113
523.10	0.114
523.55	0.114
524.01	0.113
524.46	0.113
524.92	0.113
525.37	0.113
525.83	0.112
526.28	0.113
526.73	0.113
527.19	0.113
527.64	0.113
528.10	0.112
528.55	0.115
529.01	0.114
529.46	0.116
529.91	0.112
530.37	0.113
530.82	0.113
531.28	0.113
531.73	0.114
532.18	0.116
532.64	0.112
533.09	0.113
533.54	0.114
534.00	0.114
534.45	0.116
534.91	0.113
535.36	0.115
535.81	0.113
536.27	0.114
536.72	0.114
537.17	0.115
537.63	0.114
538.08	0.118
538.54	0.115
538.99	0.117
539.44	0.113
539.90	0.116
540.35	0.116
540.80	0.115
541.26	0.118
541.71	0.118
542.16	0.117
542.62	0.119
543.07	0.118
543.52	0.116
543.98	0.115
544.43	0.117
544.88	0.115
545.34	0.119
545.79	0.120
546.24	0.117
546.69	0.117
547.15	0.118
547.60	0.120
548.05	0.119
548.51	0.121
548.96	0.121
549.41	0.119
549.86	0.120
550.32	0.121
550.77	0.120
551.22	0.120
551.68	0.122
552.13	0.122
552.58	0.120
553.03	0.123
553.49	0.123
553.94	0.122
554.39	0.124
554.84	0.126
555.30	0.124
555.75	0.125
556.20	0.124
556.65	0.126
557.11	0.127
557.56	0.127
558.01	0.129
558.46	0.128
558.92	0.128
559.37	0.130
559.82	0.129
560.27	0.128
560.72	0.128
561.18	0.131
561.63	0.133
562.08	0.130
562.53	0.130
562.99	0.132
563.44	0.133
563.89	0.132
564.34	0.134
564.79	0.133
565.25	0.135
565.70	0.136
566.15	0.135
566.60	0.135
567.05	0.137
567.50	0.136
567.96	0.138
568.41	0.139
568.86	0.140
569.31	0.139
569.76	0.140
570.21	0.140
570.67	0.140
571.12	0.141
571.57	0.142
572.02	0.144
572.47	0.144
572.92	0.143
573.37	0.148
573.83	0.146
574.28	0.149
574.73	0.146
575.18	0.148
575.63	0.148
576.08	0.148
576.53	0.147
576.98	0.149
577.44	0.152
577.89	0.151
578.34	0.153
578.79	0.155
579.24	0.155
579.69	0.153
580.14	0.156
580.59	0.156
581.04	0.157
581.49	0.157
581.95	0.160
582.40	0.162
582.85	0.166
583.30	0.164
583.75	0.166
584.20	0.166
584.65	0.166
585.10	0.169
585.55	0.170
586.00	0.170
586.45	0.171
586.90	0.173
587.35	0.174
587.80	0.176
588.25	0.178
588.71	0.180
589.16	0.182
589.61	0.182
590.06	0.185
590.51	0.184
590.96	0.186
591.41	0.188
591.86	0.191
592.31	0.192
592.76	0.193
593.21	0.193
593.66	0.195
594.11	0.197
594.56	0.198
595.01	0.201
595.46	0.201
595.91	0.204
596.36	0.204
596.81	0.208
597.26	0.209
597.71	0.211
598.16	0.212
598.61	0.214
599.06	0.215
599.51	0.215
599.96	0.218
600.41	0.220
600.86	0.223
601.31	0.221
601.76	0.225
602.21	0.228
602.65	0.229
603.10	0.229
603.55	0.231
604.00	0.233
604.45	0.234
604.90	0.236
605.35	0.238
605.80	0.237
606.25	0.238
606.70	0.242
607.15	0.242
607.60	0.242
608.05	0.245
608.50	0.247
608.95	0.247
609.39	0.248
609.84	0.250
610.29	0.250
610.74	0.251
611.19	0.252
611.64	0.254
612.09	0.253
612.54	0.255
612.99	0.255
613.44	0.254
613.88	0.258
614.33	0.256
614.78	0.260
615.23	0.261
615.68	0.259
616.13	0.258
616.58	0.262
617.03	0.261
617.47	0.263
617.92	0.263
618.37	0.266
618.82	0.263
619.27	0.264
619.72	0.263
620.17	0.266
620.61	0.267
621.06	0.266
621.51	0.266
621.96	0.266
622.41	0.267
622.86	0.267
623.30	0.269
623.75	0.271
624.20	0.272
624.65	0.271
625.10	0.270
625.54	0.271
625.99	0.271
626.44	0.275
626.89	0.275
627.34	0.277
627.78	0.277
628.23	0.277
628.68	0.278
629.13	0.280
629.58	0.282
630.02	0.282
630.47	0.284
630.92	0.285
631.37	0.287
631.81	0.290
632.26	0.289
632.71	0.290
633.16	0.293
633.61	0.293
634.05	0.296
634.50	0.298
634.95	0.300
635.40	0.300
635.84	0.304
636.29	0.306
636.74	0.308
637.18	0.310
637.63	0.311
638.08	0.314
638.53	0.314
638.97	0.316
639.42	0.322
639.87	0.320
640.32	0.325
640.76	0.326
641.21	0.331
641.66	0.332
642.10	0.334
642.55	0.337
643.00	0.339
643.44	0.341
643.89	0.345
644.34	0.349
644.79	0.352
645.23	0.354
645.68	0.355
646.13	0.358
646.57	0.363
647.02	0.364
647.47	0.365
647.91	0.368
648.36	0.370
648.81	0.375
649.25	0.376
649.70	0.377
650.15	0.380
650.59	0.386
651.04	0.387
651.48	0.388
651.93	0.391
652.38	0.394
652.82	0.394
653.27	0.395
653.72	0.400
654.16	0.401
654.61	0.403
655.06	0.405
655.50	0.407
655.95	0.402
656.39	0.405
656.84	0.417
657.29	0.419
657.73	0.418
658.18	0.414
658.62	0.416
659.07	0.421
659.52	0.422
659.96	0.422
660.41	0.424
660.85	0.426
661.30	0.427
661.74	0.429
662.19	0.431
662.64	0.432
663.08	0.427
663.53	0.428
663.97	0.426
664.42	0.428
664.86	0.430
665.31	0.430
665.75	0.430
666.20	0.426
666.65	0.426
667.09	0.426
667.54	0.422
667.98	0.420
668.43	0.417
668.87	0.420
669.32	0.416
669.76	0.412
670.21	0.411
670.65	0.409
671.10	0.403
671.54	0.403
671.99	0.399
672.43	0.392
672.88	0.388
673.32	0.385
673.77	0.382
674.21	0.376
674.66	0.368
675.10	0.362
675.55	0.358
675.99	0.353
676.44	0.344
676.88	0.340
677.33	0.332
677.77	0.327
678.22	0.321
678.66	0.316
679.11	0.306
679.55	0.303
679.99	0.294
680.44	0.288
680.88	0.279
681.33	0.275
681.77	0.268
682.22	0.260
682.66	0.254
683.11	0.248
683.55	0.245
683.99	0.237
684.44	0.233
684.88	0.225
685.33	0.218
685.77	0.211
686.21	0.207
686.66	0.202
687.10	0.196
687.55	0.192
687.99	0.185
688.44	0.180
688.88	0.173
689.32	0.174
689.77	0.167
690.21	0.164
690.65	0.158
691.10	0.155
691.54	0.153
691.99	0.149
692.43	0.146
692.87	0.144
693.32	0.139
693.76	0.137
694.20	0.133
694.65	0.132
695.09	0.127
695.53	0.126
695.98	0.122
696.42	0.121
696.86	0.118
697.31	0.118
697.75	0.114
698.19	0.114
698.64	0.110
699.08	0.108
699.52	0.107
699.97	0.106
700.41	0.105
700.85	0.104
701.30	0.099
701.74	0.101
702.18	0.099
702.63	0.098
703.07	0.095
703.51	0.096
703.96	0.096
704.40	0.094
704.84	0.093
705.28	0.094
705.73	0.094
706.17	0.092
706.61	0.092
707.06	0.088
707.50	0.090
707.94	0.091
708.38	0.087
708.83	0.088
709.27	0.086
709.71	0.087
710.15	0.085
710.60	0.088
711.04	0.084
711.48	0.089
711.92	0.087
712.37	0.083
712.81	0.082
713.25	0.084
713.69	0.084
714.13	0.082
714.58	0.085
715.02	0.081
715.46	0.083
715.90	0.082
716.35	0.082
716.79	0.082
717.23	0.083
717.67	0.081
718.11	0.080
718.56	0.081
719.00	0.082
719.44	0.081
719.88	0.082
720.32	0.083
720.76	0.081
721.21	0.084
721.65	0.082
722.09	0.081
722.53	0.081
722.97	0.082
723.41	0.081
723.86	0.081
724.30	0.084
724.74	0.083
725.18	0.081
725.62	0.079
726.06	0.082
726.50	0.084
726.95	0.085
727.39	0.083
727.83	0.083
728.27	0.085
728.71	0.081
729.15	0.082
729.59	0.081
730.03	0.083
730.48	0.084
730.92	0.082
731.36	0.081
731.80	0.082
732.24	0.086
732.68	0.083
733.12	0.084
733.56	0.082
734.00	0.084
734.44	0.083
734.89	0.085
735.33	0.084
735.77	0.084
736.21	0.084
736.65	0.085
737.09	0.087
737.53	0.087
737.97	0.085
738.41	0.084
738.85	0.085
739.29	0.085
739.73	0.087
740.17	0.083
740.61	0.081
741.05	0.087
741.49	0.083
741.93	0.085
742.37	0.086
742.81	0.088
743.26	0.084
743.70	0.084
744.14	0.086
744.58	0.085
745.02	0.083
745.46	0.085
745.90	0.082
746.34	0.085
746.78	0.086
747.22	0.084
747.66	0.082
748.10	0.084
748.54	0.083
748.98	0.085
749.42	0.085
749.86	0.086
750.29	0.083
750.73	0.085
751.17	0.085
751.61	0.086
752.05	0.084
752.49	0.084
752.93	0.084
753.37	0.084
753.81	0.085
754.25	0.087
754.69	0.087
755.13	0.086
755.57	0.084
756.01	0.082
756.45	0.082
756.89	0.085
757.33	0.084
757.77	0.084
758.21	0.086
758.64	0.080
759.08	0.081
759.52	0.083
759.96	0.085
760.40	0.084
760.84	0.080
761.28	0.083
761.72	0.083
762.16	0.082
762.60	0.082
763.03	0.084
763.47	0.084
763.91	0.083
764.35	0.082
764.79	0.083
765.23	0.084
765.67	0.079
766.11	0.084
766.54	0.082
766.98	0.081
767.42	0.084
767.86	0.085
768.30	0.085
768.74	0.082
769.17	0.085
769.61	0.082
770.05	0.081
770.49	0.084
770.93	0.082
771.37	0.085
771.80	0.083
772.24	0.081
772.68	0.082
773.12	0.080
773.56	0.084
774.00	0.081
774.43	0.085
774.87	0.080
775.31	0.083
775.75	0.081
776.19	0.080
776.62	0.084
777.06	0.081
777.50	0.083
777.94	0.079
778.37	0.081
778.81	0.081
779.25	0.079
779.69	0.083
780.13	0.082
780.56	0.079
781.00	0.083
781.44	0.084
781.88	0.083
782.31	0.081
782.75	0.082
783.19	0.081
783.63	0.083
784.06	0.082
784.50	0.082
784.94	0.083
785.37	0.078
785.81	0.081
786.25	0.082
786.69	0.084
787.12	0.085
787.56	0.083
788.00	0.081
788.43	0.083
788.87	0.083
789.31	0.081
789.75	0.084
790.18	0.082
790.62	0.082
791.06	0.082
791.49	0.085
791.93	0.080
792.37	0.081
792.80	0.084
793.24	0.082
793.68	0.083
794.11	0.086
794.55	0.083
794.99	0.080
795.42	0.084
795.86	0.087
796.30	0.084
796.73	0.079
797.17	0.082
797.61	0.083
798.04	0.085
798.48	0.083
798.91	0.084
799.35	0.082
799.79	0.080
800.22	0.084
800.66	0.081
801.10	0.087
801.53	0.086
801.97	0.083
802.40	0.079
802.84	0.079
803.28	0.081
803.71	0.081
804.15	0.084
804.58	0.087
805.02	0.086
805.46	0.082
805.89	0.079
806.33	0.084
806.76	0.083
807.20	0.083
807.63	0.083
808.07	0.081
808.51	0.084
808.94	0.085
809.38	0.083
809.81	0.085
810.25	0.082
810.68	0.083
811.12	0.083
811.55	0.086
811.99	0.083
812.42	0.082
812.86	0.083
813.29	0.085
813.73	0.082
814.17	0.079
814.60	0.080
