SpectraSuite Data File
++++++++++++++++++++++++++++++++++++
Date: Wed May 04 16:57:26 CEST 2016
User: spectrasuite
Dark Spectrum Present: Yes
Reference Spectrum Present: Yes
Number of Sampled Component Spectra: 1
Spectrometers: HR+C0708
Integration Time (usec): 1000 (HR+C0708)
Spectra Averaged: 10 (HR+C0708)
Boxcar Smoothing: 0 (HR+C0708)
Correct for Electrical Dark: No (HR+C0708)
Strobe/Lamp Enabled: No (HR+C0708)
Correct for Detector Non-linearity: No (HR+C0708)
Correct for Stray Light: No (HR+C0708)
Number of Pixels in Processed Spectrum: 2048
>>>>>Begin Processed Spectral Data<<<<<
188.76	-0.000
189.23	-0.000
189.70	-0.000
190.17	-0.000
190.64	-0.000
191.12	-0.000
191.59	-0.000
192.06	-0.000
192.53	-0.000
193.01	-0.000
193.48	-0.000
193.95	-0.000
194.42	-0.000
194.90	-0.000
195.37	-0.000
195.84	-0.000
196.31	-0.000
196.78	-0.000
197.26	-0.000
197.73	-0.000
198.20	-0.000
198.67	-0.000
199.14	-0.000
199.62	-0.000
200.09	-0.000
200.56	-0.000
201.03	-0.000
201.50	-0.000
201.97	-0.000
202.45	-0.000
202.92	-0.000
203.39	-0.000
203.86	-0.000
204.33	-0.000
204.80	-0.000
205.28	-0.000
205.75	-0.000
206.22	-0.000
206.69	-0.000
207.16	-0.000
207.63	-0.000
208.11	-0.000
208.58	-0.000
209.05	-0.000
209.52	-0.000
209.99	-0.000
210.46	1.451
210.93	-0.000
211.41	-0.000
211.88	-0.000
212.35	-0.000
212.82	-0.000
213.29	-0.000
213.76	-0.000
214.23	-0.000
214.70	-0.000
215.18	-0.000
215.65	1.198
216.12	-0.000
216.59	-0.000
217.06	0.944
217.53	-0.000
218.00	-0.000
218.47	-0.000
218.94	-0.000
219.41	-0.000
219.89	-0.000
220.36	-0.000
220.83	-0.000
221.30	-0.000
221.77	-0.000
222.24	1.314
222.71	-0.000
223.18	1.399
223.65	1.435
224.12	1.138
224.59	1.257
225.06	-0.000
225.54	2.045
226.01	-0.000
226.48	-0.000
226.95	-0.000
227.42	-0.000
227.89	-0.000
228.36	-0.000
228.83	2.595
229.30	-0.000
229.77	-0.000
230.24	2.321
230.71	1.853
231.18	-0.000
231.65	-0.000
232.12	-0.000
232.59	-0.000
233.06	-0.000
233.53	-0.000
234.00	2.076
234.47	-0.000
234.94	-0.000
235.41	-0.000
235.88	-0.000
236.35	-0.000
236.82	-0.000
237.29	3.227
237.76	2.783
238.23	-0.000
238.70	-0.000
239.17	2.485
239.64	-0.000
240.11	-0.000
240.58	-0.000
241.05	-0.000
241.52	-0.000
241.99	3.285
242.46	2.728
242.93	2.462
243.40	-0.000
243.87	2.995
244.34	2.560
244.81	3.065
245.28	-0.000
245.75	-0.000
246.22	2.896
246.69	-0.000
247.16	2.880
247.63	3.295
248.10	3.100
248.57	-0.000
249.04	-0.000
249.51	3.097
249.98	-0.000
250.45	3.405
250.92	2.773
251.39	2.648
251.85	2.774
252.32	2.364
252.79	2.103
253.26	1.953
253.73	1.845
254.20	1.690
254.67	1.603
255.14	1.552
255.61	1.465
256.08	1.390
256.55	1.332
257.02	1.285
257.49	1.233
257.95	1.183
258.42	1.146
258.89	1.111
259.36	1.078
259.83	1.045
260.30	1.036
260.77	0.999
261.24	0.968
261.71	0.949
262.17	0.934
262.64	0.915
263.11	0.894
263.58	0.878
264.05	0.863
264.52	0.847
264.99	0.830
265.46	0.820
265.92	0.802
266.39	0.789
266.86	0.777
267.33	0.772
267.80	0.760
268.27	0.744
268.74	0.741
269.20	0.726
269.67	0.718
270.14	0.709
270.61	0.706
271.08	0.692
271.55	0.686
272.01	0.680
272.48	0.666
272.95	0.659
273.42	0.656
273.89	0.651
274.36	0.643
274.82	0.640
275.29	0.631
275.76	0.628
276.23	0.622
276.70	0.614
277.16	0.613
277.63	0.609
278.10	0.604
278.57	0.604
279.04	0.597
279.50	0.597
279.97	0.589
280.44	0.590
280.91	0.588
281.38	0.583
281.84	0.581
282.31	0.577
282.78	0.575
283.25	0.572
283.72	0.574
284.18	0.574
284.65	0.570
285.12	0.568
285.59	0.571
286.05	0.568
286.52	0.565
286.99	0.567
287.46	0.568
287.92	0.567
288.39	0.563
288.86	0.562
289.33	0.561
289.79	0.561
290.26	0.555
290.73	0.557
291.20	0.549
291.66	0.550
292.13	0.546
292.60	0.544
293.07	0.536
293.53	0.533
294.00	0.531
294.47	0.525
294.93	0.522
295.40	0.513
295.87	0.512
296.34	0.500
296.80	0.494
297.27	0.483
297.74	0.480
298.20	0.472
298.67	0.468
299.14	0.460
299.60	0.452
300.07	0.445
300.54	0.438
301.01	0.431
301.47	0.424
301.94	0.421
302.41	0.410
302.87	0.403
303.34	0.396
303.81	0.392
304.27	0.385
304.74	0.378
305.21	0.372
305.67	0.365
306.14	0.361
306.61	0.356
307.07	0.347
307.54	0.347
308.01	0.337
308.47	0.333
308.94	0.330
309.40	0.326
309.87	0.324
310.34	0.320
310.80	0.319
311.27	0.311
311.74	0.310
312.20	0.308
312.67	0.304
313.13	0.300
313.60	0.298
314.07	0.294
314.53	0.291
315.00	0.290
315.47	0.291
315.93	0.289
316.40	0.285
316.86	0.283
317.33	0.280
317.80	0.284
318.26	0.275
318.73	0.275
319.19	0.277
319.66	0.273
320.13	0.273
320.59	0.274
321.06	0.273
321.52	0.267
321.99	0.268
322.45	0.267
322.92	0.263
323.39	0.263
323.85	0.261
324.32	0.261
324.78	0.259
325.25	0.254
325.71	0.258
326.18	0.253
326.64	0.252
327.11	0.248
327.58	0.250
328.04	0.253
328.51	0.247
328.97	0.246
329.44	0.244
329.90	0.238
330.37	0.238
330.83	0.237
331.30	0.238
331.76	0.234
332.23	0.233
332.69	0.230
333.16	0.231
333.62	0.226
334.09	0.225
334.56	0.226
335.02	0.220
335.49	0.220
335.95	0.216
336.42	0.217
336.88	0.212
337.35	0.210
337.81	0.212
338.28	0.212
338.74	0.208
339.20	0.211
339.67	0.209
340.13	0.211
340.60	0.208
341.06	0.203
341.53	0.200
341.99	0.199
342.46	0.199
342.92	0.197
343.39	0.195
343.85	0.194
344.32	0.192
344.78	0.192
345.25	0.196
345.71	0.194
346.17	0.196
346.64	0.197
347.10	0.193
347.57	0.190
348.03	0.185
348.50	0.190
348.96	0.189
349.43	0.186
349.89	0.188
350.35	0.187
350.82	0.188
351.28	0.184
351.75	0.183
352.21	0.190
352.67	0.182
353.14	0.184
353.60	0.180
354.07	0.178
354.53	0.178
355.00	0.176
355.46	0.173
355.92	0.169
356.39	0.173
356.85	0.170
357.31	0.167
357.78	0.168
358.24	0.167
358.71	0.169
359.17	0.169
359.63	0.166
360.10	0.164
360.56	0.165
361.03	0.163
361.49	0.165
361.95	0.162
362.42	0.164
362.88	0.165
363.34	0.166
363.81	0.164
364.27	0.164
364.73	0.166
365.20	0.163
365.66	0.160
366.12	0.163
366.59	0.161
367.05	0.161
367.51	0.160
367.98	0.160
368.44	0.160
368.90	0.161
369.37	0.160
369.83	0.159
370.29	0.156
370.76	0.156
371.22	0.155
371.68	0.157
372.15	0.159
372.61	0.153
373.07	0.155
373.54	0.154
374.00	0.154
374.46	0.153
374.92	0.153
375.39	0.154
375.85	0.154
376.31	0.153
376.78	0.152
377.24	0.151
377.70	0.151
378.16	0.154
378.63	0.153
379.09	0.151
379.55	0.152
380.01	0.151
380.48	0.153
380.94	0.154
381.40	0.151
381.87	0.154
382.33	0.151
382.79	0.149
383.25	0.150
383.72	0.151
384.18	0.148
384.64	0.149
385.10	0.148
385.56	0.147
386.03	0.151
386.49	0.146
386.95	0.150
387.41	0.149
387.88	0.146
388.34	0.143
388.80	0.146
389.26	0.148
389.72	0.148
390.19	0.146
390.65	0.144
391.11	0.144
391.57	0.146
392.04	0.145
392.50	0.145
392.96	0.143
393.42	0.143
393.88	0.145
394.34	0.144
394.81	0.145
395.27	0.145
395.73	0.141
396.19	0.143
396.65	0.140
397.12	0.140
397.58	0.142
398.04	0.141
398.50	0.143
398.96	0.143
399.42	0.143
399.89	0.145
400.35	0.144
400.81	0.139
401.27	0.143
401.73	0.140
402.19	0.141
402.65	0.136
403.12	0.139
403.58	0.139
404.04	0.135
404.50	0.135
404.96	0.136
405.42	0.137
405.88	0.137
406.34	0.138
406.81	0.138
407.27	0.135
407.73	0.134
408.19	0.133
408.65	0.133
409.11	0.132
409.57	0.135
410.03	0.136
410.49	0.134
410.96	0.134
411.42	0.134
411.88	0.131
412.34	0.128
412.80	0.130
413.26	0.131
413.72	0.130
414.18	0.130
414.64	0.130
415.10	0.132
415.56	0.132
416.02	0.130
416.48	0.129
416.95	0.132
417.41	0.131
417.87	0.129
418.33	0.130
418.79	0.128
419.25	0.131
419.71	0.129
420.17	0.127
420.63	0.123
421.09	0.125
421.55	0.125
422.01	0.128
422.47	0.132
422.93	0.133
423.39	0.130
423.85	0.126
424.31	0.128
424.77	0.129
425.23	0.129
425.69	0.132
426.15	0.131
426.61	0.127
427.07	0.125
427.53	0.125
427.99	0.125
428.45	0.128
428.91	0.124
429.37	0.125
429.83	0.121
430.29	0.126
430.75	0.128
431.21	0.130
431.67	0.132
432.13	0.130
432.59	0.127
433.05	0.124
433.51	0.123
433.97	0.121
434.43	0.131
434.89	0.131
435.35	0.125
435.81	0.127
436.27	0.127
436.73	0.124
437.19	0.128
437.65	0.127
438.11	0.125
438.57	0.127
439.03	0.126
439.48	0.127
439.94	0.129
440.40	0.126
440.86	0.122
441.32	0.123
441.78	0.127
442.24	0.128
442.70	0.123
443.16	0.123
443.62	0.124
444.08	0.120
444.54	0.124
444.99	0.124
445.45	0.121
445.91	0.122
446.37	0.119
446.83	0.121
447.29	0.122
447.75	0.123
448.21	0.124
448.67	0.124
449.12	0.122
449.58	0.124
450.04	0.123
450.50	0.121
450.96	0.121
451.42	0.122
451.88	0.126
452.34	0.121
452.79	0.124
453.25	0.123
453.71	0.124
454.17	0.121
454.63	0.122
455.09	0.119
455.55	0.119
456.00	0.120
456.46	0.121
456.92	0.120
457.38	0.117
457.84	0.120
458.30	0.119
458.75	0.118
459.21	0.116
459.67	0.119
460.13	0.118
460.59	0.117
461.04	0.118
461.50	0.117
461.96	0.119
462.42	0.117
462.88	0.115
463.33	0.118
463.79	0.118
464.25	0.119
464.71	0.118
465.17	0.119
465.62	0.118
466.08	0.121
466.54	0.122
467.00	0.120
467.46	0.120
467.91	0.122
468.37	0.119
468.83	0.120
469.29	0.120
469.74	0.119
470.20	0.120
470.66	0.118
471.12	0.120
471.57	0.119
472.03	0.120
472.49	0.120
472.95	0.122
473.40	0.122
473.86	0.121
474.32	0.119
474.78	0.118
475.23	0.121
475.69	0.118
476.15	0.121
476.60	0.120
477.06	0.119
477.52	0.118
477.98	0.120
478.43	0.121
478.89	0.119
479.35	0.123
479.80	0.121
480.26	0.118
480.72	0.119
481.18	0.118
481.63	0.120
482.09	0.119
482.55	0.118
483.00	0.117
483.46	0.117
483.92	0.118
484.37	0.116
484.83	0.116
485.29	0.119
485.74	0.118
486.20	0.117
486.66	0.118
487.11	0.118
487.57	0.118
488.03	0.115
488.48	0.120
488.94	0.117
489.40	0.119
489.85	0.117
490.31	0.119
490.77	0.116
491.22	0.120
491.68	0.117
492.13	0.117
492.59	0.120
493.05	0.117
493.50	0.117
493.96	0.118
494.42	0.119
494.87	0.119
495.33	0.116
495.78	0.115
496.24	0.117
496.70	0.118
497.15	0.117
497.61	0.116
498.06	0.115
498.52	0.116
498.98	0.114
499.43	0.117
499.89	0.117
500.34	0.117
500.80	0.116
501.25	0.116
501.71	0.116
502.17	0.116
502.62	0.115
503.08	0.115
503.53	0.113
503.99	0.114
504.44	0.117
504.90	0.114
505.36	0.115
505.81	0.117
506.27	0.114
506.72	0.114
507.18	0.114
507.63	0.115
508.09	0.114
508.54	0.114
509.00	0.115
509.45	0.115
509.91	0.114
510.36	0.115
510.82	0.117
511.27	0.113
511.73	0.115
512.19	0.115
512.64	0.115
513.10	0.116
513.55	0.113
514.01	0.115
514.46	0.115
514.92	0.116
515.37	0.116
515.83	0.114
516.28	0.115
516.73	0.114
517.19	0.113
517.64	0.113
518.10	0.112
518.55	0.113
519.01	0.114
519.46	0.113
519.92	0.113
520.37	0.112
520.83	0.114
521.28	0.110
521.74	0.113
522.19	0.113
522.65	0.112
523.10	0.113
523.55	0.112
524.01	0.113
524.46	0.113
524.92	0.115
525.37	0.113
525.83	0.113
526.28	0.113
526.73	0.113
527.19	0.112
527.64	0.113
528.10	0.113
528.55	0.114
529.01	0.113
529.46	0.114
529.91	0.112
530.37	0.112
530.82	0.114
531.28	0.112
531.73	0.115
532.18	0.115
532.64	0.113
533.09	0.115
533.54	0.112
534.00	0.114
534.45	0.114
534.91	0.112
535.36	0.114
535.81	0.114
536.27	0.112
536.72	0.113
537.17	0.113
537.63	0.114
538.08	0.116
538.54	0.116
538.99	0.114
539.44	0.116
539.90	0.115
540.35	0.114
540.80	0.114
541.26	0.115
541.71	0.117
542.16	0.115
542.62	0.118
543.07	0.117
543.52	0.116
543.98	0.116
544.43	0.118
544.88	0.115
545.34	0.118
545.79	0.117
546.24	0.117
546.69	0.117
547.15	0.117
547.60	0.118
548.05	0.119
548.51	0.121
548.96	0.120
549.41	0.119
549.86	0.119
550.32	0.120
550.77	0.120
551.22	0.120
551.68	0.120
552.13	0.122
552.58	0.121
553.03	0.122
553.49	0.122
553.94	0.122
554.39	0.124
554.84	0.123
555.30	0.123
555.75	0.125
556.20	0.124
556.65	0.126
557.11	0.126
557.56	0.127
558.01	0.127
558.46	0.126
558.92	0.128
559.37	0.130
559.82	0.128
560.27	0.128
560.72	0.129
561.18	0.130
561.63	0.130
562.08	0.130
562.53	0.128
562.99	0.132
563.44	0.131
563.89	0.132
564.34	0.133
564.79	0.134
565.25	0.133
565.70	0.135
566.15	0.133
566.60	0.137
567.05	0.135
567.50	0.137
567.96	0.136
568.41	0.138
568.86	0.139
569.31	0.139
569.76	0.139
570.21	0.140
570.67	0.139
571.12	0.143
571.57	0.142
572.02	0.142
572.47	0.142
572.92	0.143
573.37	0.145
573.83	0.145
574.28	0.146
574.73	0.144
575.18	0.146
575.63	0.148
576.08	0.147
576.53	0.147
576.98	0.149
577.44	0.150
577.89	0.150
578.34	0.154
578.79	0.153
579.24	0.152
579.69	0.153
580.14	0.153
580.59	0.155
581.04	0.156
581.49	0.157
581.95	0.159
582.40	0.160
582.85	0.161
583.30	0.160
583.75	0.165
584.20	0.164
584.65	0.165
585.10	0.167
585.55	0.169
586.00	0.169
586.45	0.170
586.90	0.173
587.35	0.173
587.80	0.174
588.25	0.175
588.71	0.177
589.16	0.180
589.61	0.180
590.06	0.183
590.51	0.185
590.96	0.184
591.41	0.187
591.86	0.187
592.31	0.189
592.76	0.191
593.21	0.190
593.66	0.193
594.11	0.194
594.56	0.196
595.01	0.198
595.46	0.199
595.91	0.202
596.36	0.202
596.81	0.206
597.26	0.207
597.71	0.208
598.16	0.210
598.61	0.212
599.06	0.212
599.51	0.213
599.96	0.215
600.41	0.216
600.86	0.219
601.31	0.219
601.76	0.223
602.21	0.224
602.65	0.226
603.10	0.225
603.55	0.227
604.00	0.233
604.45	0.231
604.90	0.232
605.35	0.235
605.80	0.234
606.25	0.236
606.70	0.239
607.15	0.238
607.60	0.241
608.05	0.243
608.50	0.243
608.95	0.245
609.39	0.244
609.84	0.246
610.29	0.249
610.74	0.247
611.19	0.249
611.64	0.249
612.09	0.251
612.54	0.253
612.99	0.253
613.44	0.253
613.88	0.255
614.33	0.252
614.78	0.255
615.23	0.258
615.68	0.259
616.13	0.257
616.58	0.258
617.03	0.262
617.47	0.259
617.92	0.260
618.37	0.260
618.82	0.262
619.27	0.262
619.72	0.263
620.17	0.263
620.61	0.263
621.06	0.262
621.51	0.263
621.96	0.265
622.41	0.264
622.86	0.265
623.30	0.267
623.75	0.269
624.20	0.269
624.65	0.267
625.10	0.271
625.54	0.270
625.99	0.270
626.44	0.273
626.89	0.274
627.34	0.274
627.78	0.275
628.23	0.276
628.68	0.276
629.13	0.278
629.58	0.278
630.02	0.282
630.47	0.282
630.92	0.281
631.37	0.284
631.81	0.287
632.26	0.286
632.71	0.288
633.16	0.290
633.61	0.292
634.05	0.293
634.50	0.295
634.95	0.296
635.40	0.300
635.84	0.301
636.29	0.301
636.74	0.303
637.18	0.305
637.63	0.308
638.08	0.311
638.53	0.311
638.97	0.312
639.42	0.317
639.87	0.320
640.32	0.322
640.76	0.322
641.21	0.328
641.66	0.327
642.10	0.332
642.55	0.334
643.00	0.335
643.44	0.338
643.89	0.343
644.34	0.345
644.79	0.346
645.23	0.349
645.68	0.352
646.13	0.355
646.57	0.359
647.02	0.359
647.47	0.363
647.91	0.363
648.36	0.368
648.81	0.371
649.25	0.373
649.70	0.375
650.15	0.378
650.59	0.380
651.04	0.383
651.48	0.385
651.93	0.388
652.38	0.392
652.82	0.392
653.27	0.391
653.72	0.397
654.16	0.398
654.61	0.398
655.06	0.400
655.50	0.402
655.95	0.398
656.39	0.400
656.84	0.410
657.29	0.414
657.73	0.414
658.18	0.412
658.62	0.411
659.07	0.418
659.52	0.416
659.96	0.420
660.41	0.420
660.85	0.421
661.30	0.420
661.74	0.424
662.19	0.424
662.64	0.424
663.08	0.423
663.53	0.422
663.97	0.424
664.42	0.423
664.86	0.422
665.31	0.423
665.75	0.422
666.20	0.421
666.65	0.422
667.09	0.420
667.54	0.418
667.98	0.414
668.43	0.418
668.87	0.413
669.32	0.411
669.76	0.408
670.21	0.406
670.65	0.403
671.10	0.398
671.54	0.398
671.99	0.395
672.43	0.389
672.88	0.381
673.32	0.382
673.77	0.377
674.21	0.369
674.66	0.364
675.10	0.361
675.55	0.351
675.99	0.347
676.44	0.341
676.88	0.336
677.33	0.330
677.77	0.322
678.22	0.317
678.66	0.311
679.11	0.305
679.55	0.299
679.99	0.291
680.44	0.286
680.88	0.278
681.33	0.271
681.77	0.264
682.22	0.258
682.66	0.252
683.11	0.244
683.55	0.239
683.99	0.232
684.44	0.228
684.88	0.222
685.33	0.215
685.77	0.210
686.21	0.206
686.66	0.199
687.10	0.193
687.55	0.190
687.99	0.184
688.44	0.180
688.88	0.173
689.32	0.171
689.77	0.167
690.21	0.163
690.65	0.158
691.10	0.153
691.54	0.152
691.99	0.147
692.43	0.144
692.87	0.142
693.32	0.136
693.76	0.133
694.20	0.133
694.65	0.131
695.09	0.126
695.53	0.122
695.98	0.122
696.42	0.120
696.86	0.120
697.31	0.117
697.75	0.114
698.19	0.113
698.64	0.111
699.08	0.109
699.52	0.108
699.97	0.106
700.41	0.105
700.85	0.102
701.30	0.100
701.74	0.101
702.18	0.099
702.63	0.099
703.07	0.096
703.51	0.096
703.96	0.096
704.40	0.095
704.84	0.092
705.28	0.092
705.73	0.094
706.17	0.091
706.61	0.092
707.06	0.089
707.50	0.092
707.94	0.092
708.38	0.089
708.83	0.088
709.27	0.089
709.71	0.086
710.15	0.088
710.60	0.089
711.04	0.083
711.48	0.084
711.92	0.085
712.37	0.084
712.81	0.085
713.25	0.084
713.69	0.084
714.13	0.081
714.58	0.084
715.02	0.082
715.46	0.082
715.90	0.081
716.35	0.080
716.79	0.082
717.23	0.082
717.67	0.083
718.11	0.080
718.56	0.080
719.00	0.082
719.44	0.083
719.88	0.084
720.32	0.083
720.76	0.080
721.21	0.083
721.65	0.083
722.09	0.082
722.53	0.080
722.97	0.083
723.41	0.081
723.86	0.080
724.30	0.081
724.74	0.083
725.18	0.082
725.62	0.080
726.06	0.083
726.50	0.083
726.95	0.083
727.39	0.081
727.83	0.081
728.27	0.083
728.71	0.084
729.15	0.083
729.59	0.081
730.03	0.082
730.48	0.081
730.92	0.084
731.36	0.082
731.80	0.084
732.24	0.083
732.68	0.085
733.12	0.083
733.56	0.085
734.00	0.086
734.44	0.084
734.89	0.085
735.33	0.081
735.77	0.086
736.21	0.083
736.65	0.084
737.09	0.087
737.53	0.084
737.97	0.085
738.41	0.084
738.85	0.087
739.29	0.082
739.73	0.086
740.17	0.082
740.61	0.083
741.05	0.086
741.49	0.085
741.93	0.087
742.37	0.084
742.81	0.084
743.26	0.086
743.70	0.082
744.14	0.085
744.58	0.085
745.02	0.086
745.46	0.084
745.90	0.084
746.34	0.085
746.78	0.088
747.22	0.085
747.66	0.085
748.10	0.085
748.54	0.084
748.98	0.084
749.42	0.087
749.86	0.084
750.29	0.084
750.73	0.086
751.17	0.086
751.61	0.086
752.05	0.085
752.49	0.084
752.93	0.083
753.37	0.086
753.81	0.083
754.25	0.084
754.69	0.086
755.13	0.087
755.57	0.084
756.01	0.083
756.45	0.081
756.89	0.085
757.33	0.084
757.77	0.085
758.21	0.085
758.64	0.082
759.08	0.082
759.52	0.084
759.96	0.084
760.40	0.084
760.84	0.081
761.28	0.082
761.72	0.084
762.16	0.083
762.60	0.080
763.03	0.082
763.47	0.083
763.91	0.084
764.35	0.082
764.79	0.081
765.23	0.083
765.67	0.081
766.11	0.086
766.54	0.084
766.98	0.080
767.42	0.083
767.86	0.085
768.30	0.082
768.74	0.084
769.17	0.083
769.61	0.083
770.05	0.082
770.49	0.085
770.93	0.081
771.37	0.085
771.80	0.081
772.24	0.079
772.68	0.082
773.12	0.081
773.56	0.084
774.00	0.082
774.43	0.084
774.87	0.079
775.31	0.083
775.75	0.083
776.19	0.082
776.62	0.081
777.06	0.082
777.50	0.086
777.94	0.081
778.37	0.083
778.81	0.080
779.25	0.080
779.69	0.083
780.13	0.080
780.56	0.079
781.00	0.081
781.44	0.080
781.88	0.082
782.31	0.078
782.75	0.081
783.19	0.081
783.63	0.080
784.06	0.083
784.50	0.082
784.94	0.083
785.37	0.081
785.81	0.081
786.25	0.078
786.69	0.081
787.12	0.085
787.56	0.081
788.00	0.079
788.43	0.081
788.87	0.084
789.31	0.083
789.75	0.082
790.18	0.083
790.62	0.082
791.06	0.081
791.49	0.085
791.93	0.077
792.37	0.081
792.80	0.081
793.24	0.081
793.68	0.082
794.11	0.084
794.55	0.083
794.99	0.084
795.42	0.082
795.86	0.085
796.30	0.083
796.73	0.081
797.17	0.080
797.61	0.083
798.04	0.082
798.48	0.079
798.91	0.085
799.35	0.081
799.79	0.080
800.22	0.083
800.66	0.082
801.10	0.086
801.53	0.088
801.97	0.084
802.40	0.078
802.84	0.081
803.28	0.084
803.71	0.084
804.15	0.084
804.58	0.086
805.02	0.083
805.46	0.079
805.89	0.082
806.33	0.082
806.76	0.080
807.20	0.081
807.63	0.084
808.07	0.085
808.51	0.085
808.94	0.083
809.38	0.080
809.81	0.085
810.25	0.083
810.68	0.083
811.12	0.081
811.55	0.081
811.99	0.083
812.42	0.085
812.86	0.083
813.29	0.085
813.73	0.087
814.17	0.079
814.60	0.080
