SpectraSuite Data File
++++++++++++++++++++++++++++++++++++
Date: Sun Apr 24 14:46:28 CEST 2016
User: spectrasuite
Dark Spectrum Present: Yes
Reference Spectrum Present: Yes
Number of Sampled Component Spectra: 1
Spectrometers: HR+C0708
Integration Time (usec): 1000 (HR+C0708)
Spectra Averaged: 10 (HR+C0708)
Boxcar Smoothing: 0 (HR+C0708)
Correct for Electrical Dark: No (HR+C0708)
Strobe/Lamp Enabled: No (HR+C0708)
Correct for Detector Non-linearity: No (HR+C0708)
Correct for Stray Light: No (HR+C0708)
Number of Pixels in Processed Spectrum: 2048
>>>>>Begin Processed Spectral Data<<<<<
188.76	-0.000
189.23	-0.000
189.70	-0.000
190.17	-0.000
190.64	-0.000
191.12	-0.000
191.59	-0.000
192.06	-0.000
192.53	-0.000
193.01	-0.000
193.48	-0.000
193.95	-0.000
194.42	-0.000
194.90	-0.000
195.37	-0.000
195.84	-0.000
196.31	0.862
196.78	-0.000
197.26	-0.000
197.73	-0.000
198.20	-0.000
198.67	-0.000
199.14	0.437
199.62	-0.000
200.09	-0.000
200.56	-0.000
201.03	-0.000
201.50	1.106
201.97	-0.000
202.45	1.055
202.92	0.527
203.39	-0.000
203.86	2.236
204.33	-0.000
204.80	1.777
205.28	-0.000
205.75	-0.000
206.22	1.571
206.69	1.557
207.16	-0.000
207.63	0.987
208.11	0.692
208.58	-0.000
209.05	1.567
209.52	1.332
209.99	-0.000
210.46	-0.000
210.93	-0.000
211.41	1.048
211.88	1.422
212.35	-0.000
212.82	-0.000
213.29	0.640
213.76	1.343
214.23	1.179
214.70	-0.000
215.18	-0.000
215.65	1.840
216.12	-0.000
216.59	1.177
217.06	-0.000
217.53	1.377
218.00	2.776
218.47	0.753
218.94	-0.000
219.41	-0.000
219.89	0.796
220.36	-0.000
220.83	1.336
221.30	1.580
221.77	1.354
222.24	2.269
222.71	-0.000
223.18	-0.000
223.65	1.784
224.12	-0.000
224.59	-0.000
225.06	1.118
225.54	-0.000
226.01	1.152
226.48	1.261
226.95	-0.000
227.42	1.589
227.89	-0.000
228.36	1.692
228.83	1.707
229.30	-0.000
229.77	3.221
230.24	1.391
230.71	-0.000
231.18	2.517
231.65	2.375
232.12	1.882
232.59	2.250
233.06	2.962
233.53	2.246
234.00	1.957
234.47	-0.000
234.94	-0.000
235.41	2.050
235.88	-0.000
236.35	2.688
236.82	2.382
237.29	2.566
237.76	-0.000
238.23	-0.000
238.70	3.180
239.17	2.345
239.64	-0.000
240.11	3.815
240.58	2.351
241.05	3.773
241.52	3.353
241.99	2.699
242.46	2.801
242.93	-0.000
243.40	3.352
243.87	2.749
244.34	2.537
244.81	-0.000
245.28	-0.000
245.75	3.239
246.22	-0.000
246.69	3.636
247.16	2.678
247.63	4.687
248.10	2.748
248.57	3.181
249.04	3.200
249.51	3.228
249.98	-0.000
250.45	2.921
250.92	2.774
251.39	-0.000
251.85	-0.000
252.32	3.001
252.79	-0.000
253.26	2.620
253.73	3.134
254.20	2.895
254.67	3.099
255.14	-0.000
255.61	-0.000
256.08	3.835
256.55	-0.000
257.02	2.798
257.49	3.113
257.95	-0.000
258.42	2.977
258.89	2.823
259.36	3.014
259.83	3.935
260.30	-0.000
260.77	4.041
261.24	2.797
261.71	-0.000
262.17	3.228
262.64	2.815
263.11	3.610
263.58	-0.000
264.05	2.780
264.52	3.029
264.99	3.254
265.46	3.395
265.92	3.520
266.39	2.866
266.86	3.909
267.33	3.214
267.80	2.648
268.27	-0.000
268.74	3.403
269.20	3.106
269.67	-0.000
270.14	3.051
270.61	3.191
271.08	2.923
271.55	2.778
272.01	-0.000
272.48	3.016
272.95	2.674
273.42	4.147
273.89	2.954
274.36	2.753
274.82	2.815
275.29	2.727
275.76	2.741
276.23	2.914
276.70	2.820
277.16	2.982
277.63	2.708
278.10	2.646
278.57	2.986
279.04	2.569
279.50	2.619
279.97	2.935
280.44	2.487
280.91	2.498
281.38	2.621
281.84	2.690
282.31	2.946
282.78	2.853
283.25	2.466
283.72	2.633
284.18	2.579
284.65	2.498
285.12	2.648
285.59	2.492
286.05	2.591
286.52	2.512
286.99	2.541
287.46	2.604
287.92	2.473
288.39	2.447
288.86	2.702
289.33	2.454
289.79	2.556
290.26	2.621
290.73	2.478
291.20	2.346
291.66	2.491
292.13	2.399
292.60	2.339
293.07	2.324
293.53	2.259
294.00	2.455
294.47	2.356
294.93	2.296
295.40	2.441
295.87	2.357
296.34	2.314
296.80	2.259
297.27	2.329
297.74	2.297
298.20	2.348
298.67	2.276
299.14	2.315
299.60	2.272
300.07	2.173
300.54	2.270
301.01	2.293
301.47	2.159
301.94	2.254
302.41	2.230
302.87	2.265
303.34	2.273
303.81	2.160
304.27	2.261
304.74	2.205
305.21	2.097
305.67	2.170
306.14	2.110
306.61	2.147
307.07	2.151
307.54	2.116
308.01	2.139
308.47	2.133
308.94	2.105
309.40	2.145
309.87	2.112
310.34	2.091
310.80	2.203
311.27	2.137
311.74	2.049
312.20	2.143
312.67	2.072
313.13	2.031
313.60	2.145
314.07	2.096
314.53	2.086
315.00	2.033
315.47	2.060
315.93	2.086
316.40	2.023
316.86	1.994
317.33	2.039
317.80	2.006
318.26	2.013
318.73	2.018
319.19	1.979
319.66	1.979
320.13	1.979
320.59	1.974
321.06	2.006
321.52	1.987
321.99	1.936
322.45	1.961
322.92	1.935
323.39	1.922
323.85	1.938
324.32	1.954
324.78	1.919
325.25	1.933
325.71	1.888
326.18	1.880
326.64	1.883
327.11	1.833
327.58	1.861
328.04	1.820
328.51	1.831
328.97	1.829
329.44	1.804
329.90	1.787
330.37	1.786
330.83	1.752
331.30	1.798
331.76	1.706
332.23	1.713
332.69	1.729
333.16	1.683
333.62	1.651
334.09	1.659
334.56	1.611
335.02	1.598
335.49	1.583
335.95	1.544
336.42	1.527
336.88	1.489
337.35	1.479
337.81	1.468
338.28	1.444
338.74	1.416
339.20	1.413
339.67	1.365
340.13	1.342
340.60	1.327
341.06	1.277
341.53	1.259
341.99	1.239
342.46	1.196
342.92	1.183
343.39	1.155
343.85	1.118
344.32	1.117
344.78	1.084
345.25	1.065
345.71	1.048
346.17	1.026
346.64	1.001
347.10	0.974
347.57	0.942
348.03	0.924
348.50	0.900
348.96	0.876
349.43	0.866
349.89	0.841
350.35	0.819
350.82	0.815
351.28	0.802
351.75	0.788
352.21	0.772
352.67	0.748
353.14	0.743
353.60	0.730
354.07	0.707
354.53	0.701
355.00	0.691
355.46	0.674
355.92	0.665
356.39	0.654
356.85	0.648
357.31	0.638
357.78	0.634
358.24	0.619
358.71	0.610
359.17	0.604
359.63	0.603
360.10	0.594
360.56	0.592
361.03	0.584
361.49	0.579
361.95	0.575
362.42	0.570
362.88	0.563
363.34	0.564
363.81	0.557
364.27	0.555
364.73	0.555
365.20	0.549
365.66	0.547
366.12	0.542
366.59	0.541
367.05	0.538
367.51	0.538
367.98	0.535
368.44	0.532
368.90	0.530
369.37	0.527
369.83	0.528
370.29	0.523
370.76	0.517
371.22	0.523
371.68	0.517
372.15	0.513
372.61	0.511
373.07	0.506
373.54	0.509
374.00	0.509
374.46	0.504
374.92	0.504
375.39	0.501
375.85	0.498
376.31	0.501
376.78	0.496
377.24	0.495
377.70	0.497
378.16	0.490
378.63	0.491
379.09	0.488
379.55	0.491
380.01	0.490
380.48	0.484
380.94	0.483
381.40	0.483
381.87	0.477
382.33	0.476
382.79	0.479
383.25	0.473
383.72	0.477
384.18	0.472
384.64	0.471
385.10	0.467
385.56	0.468
386.03	0.465
386.49	0.467
386.95	0.461
387.41	0.462
387.88	0.463
388.34	0.458
388.80	0.459
389.26	0.454
389.72	0.456
390.19	0.457
390.65	0.455
391.11	0.451
391.57	0.451
392.04	0.449
392.50	0.448
392.96	0.444
393.42	0.447
393.88	0.445
394.34	0.445
394.81	0.441
395.27	0.442
395.73	0.438
396.19	0.436
396.65	0.435
397.12	0.435
397.58	0.430
398.04	0.433
398.50	0.431
398.96	0.428
399.42	0.430
399.89	0.426
400.35	0.427
400.81	0.424
401.27	0.428
401.73	0.422
402.19	0.420
402.65	0.421
403.12	0.416
403.58	0.417
404.04	0.416
404.50	0.417
404.96	0.414
405.42	0.413
405.88	0.415
406.34	0.411
406.81	0.410
407.27	0.407
407.73	0.407
408.19	0.406
408.65	0.409
409.11	0.402
409.57	0.405
410.03	0.401
410.49	0.401
410.96	0.401
411.42	0.403
411.88	0.397
412.34	0.396
412.80	0.398
413.26	0.393
413.72	0.393
414.18	0.393
414.64	0.392
415.10	0.394
415.56	0.391
416.02	0.391
416.48	0.384
416.95	0.384
417.41	0.385
417.87	0.385
418.33	0.384
418.79	0.380
419.25	0.381
419.71	0.380
420.17	0.378
420.63	0.376
421.09	0.378
421.55	0.378
422.01	0.378
422.47	0.373
422.93	0.375
423.39	0.373
423.85	0.371
424.31	0.372
424.77	0.373
425.23	0.373
425.69	0.370
426.15	0.372
426.61	0.366
427.07	0.366
427.53	0.366
427.99	0.365
428.45	0.365
428.91	0.363
429.37	0.362
429.83	0.362
430.29	0.361
430.75	0.361
431.21	0.362
431.67	0.359
432.13	0.360
432.59	0.355
433.05	0.357
433.51	0.352
433.97	0.354
434.43	0.353
434.89	0.355
435.35	0.350
435.81	0.350
436.27	0.350
436.73	0.347
437.19	0.348
437.65	0.351
438.11	0.349
438.57	0.351
439.03	0.345
439.48	0.343
439.94	0.346
440.40	0.345
440.86	0.346
441.32	0.339
441.78	0.341
442.24	0.341
442.70	0.338
443.16	0.338
443.62	0.336
444.08	0.337
444.54	0.337
444.99	0.336
445.45	0.334
445.91	0.335
446.37	0.337
446.83	0.332
447.29	0.331
447.75	0.329
448.21	0.332
448.67	0.328
449.12	0.327
449.58	0.328
450.04	0.325
450.50	0.327
450.96	0.327
451.42	0.325
451.88	0.321
452.34	0.322
452.79	0.323
453.25	0.325
453.71	0.323
454.17	0.320
454.63	0.321
455.09	0.321
455.55	0.320
456.00	0.314
456.46	0.318
456.92	0.317
457.38	0.317
457.84	0.314
458.30	0.311
458.75	0.316
459.21	0.310
459.67	0.313
460.13	0.312
460.59	0.309
461.04	0.306
461.50	0.312
461.96	0.309
462.42	0.309
462.88	0.310
463.33	0.308
463.79	0.306
464.25	0.307
464.71	0.306
465.17	0.306
465.62	0.305
466.08	0.304
466.54	0.307
467.00	0.304
467.46	0.304
467.91	0.301
468.37	0.302
468.83	0.300
469.29	0.296
469.74	0.299
470.20	0.298
470.66	0.296
471.12	0.292
471.57	0.295
472.03	0.296
472.49	0.293
472.95	0.296
473.40	0.293
473.86	0.291
474.32	0.289
474.78	0.292
475.23	0.293
475.69	0.291
476.15	0.286
476.60	0.290
477.06	0.289
477.52	0.286
477.98	0.284
478.43	0.286
478.89	0.285
479.35	0.285
479.80	0.287
480.26	0.284
480.72	0.280
481.18	0.283
481.63	0.284
482.09	0.282
482.55	0.282
483.00	0.278
483.46	0.279
483.92	0.279
484.37	0.278
484.83	0.276
485.29	0.277
485.74	0.277
486.20	0.278
486.66	0.278
487.11	0.277
487.57	0.273
488.03	0.275
488.48	0.274
488.94	0.272
489.40	0.274
489.85	0.272
490.31	0.273
490.77	0.273
491.22	0.272
491.68	0.272
492.13	0.271
492.59	0.270
493.05	0.271
493.50	0.270
493.96	0.267
494.42	0.268
494.87	0.264
495.33	0.265
495.78	0.266
496.24	0.266
496.70	0.265
497.15	0.264
497.61	0.266
498.06	0.264
498.52	0.261
498.98	0.261
499.43	0.264
499.89	0.261
500.34	0.262
500.80	0.262
501.25	0.262
501.71	0.259
502.17	0.258
502.62	0.259
503.08	0.259
503.53	0.256
503.99	0.257
504.44	0.257
504.90	0.258
505.36	0.257
505.81	0.257
506.27	0.255
506.72	0.254
507.18	0.251
507.63	0.252
508.09	0.254
508.54	0.249
509.00	0.252
509.45	0.253
509.91	0.252
510.36	0.251
510.82	0.251
511.27	0.249
511.73	0.250
512.19	0.248
512.64	0.247
513.10	0.249
513.55	0.249
514.01	0.245
514.46	0.245
514.92	0.244
515.37	0.245
515.83	0.247
516.28	0.243
516.73	0.244
517.19	0.243
517.64	0.242
518.10	0.244
518.55	0.242
519.01	0.242
519.46	0.242
519.92	0.241
520.37	0.239
520.83	0.242
521.28	0.239
521.74	0.240
522.19	0.239
522.65	0.237
523.10	0.238
523.55	0.236
524.01	0.239
524.46	0.238
524.92	0.234
525.37	0.234
525.83	0.236
526.28	0.236
526.73	0.237
527.19	0.236
527.64	0.237
528.10	0.233
528.55	0.234
529.01	0.234
529.46	0.232
529.91	0.231
530.37	0.231
530.82	0.231
531.28	0.228
531.73	0.231
532.18	0.231
532.64	0.233
533.09	0.229
533.54	0.229
534.00	0.230
534.45	0.231
534.91	0.229
535.36	0.228
535.81	0.228
536.27	0.224
536.72	0.227
537.17	0.228
537.63	0.223
538.08	0.223
538.54	0.226
538.99	0.223
539.44	0.224
539.90	0.223
540.35	0.223
540.80	0.224
541.26	0.222
541.71	0.221
542.16	0.224
542.62	0.220
543.07	0.221
543.52	0.220
543.98	0.220
544.43	0.219
544.88	0.218
545.34	0.219
545.79	0.220
546.24	0.220
546.69	0.218
547.15	0.218
547.60	0.219
548.05	0.220
548.51	0.216
548.96	0.216
549.41	0.217
549.86	0.214
550.32	0.215
550.77	0.214
551.22	0.216
551.68	0.212
552.13	0.211
552.58	0.213
553.03	0.213
553.49	0.212
553.94	0.212
554.39	0.212
554.84	0.211
555.30	0.212
555.75	0.211
556.20	0.210
556.65	0.209
557.11	0.209
557.56	0.209
558.01	0.210
558.46	0.211
558.92	0.208
559.37	0.207
559.82	0.208
560.27	0.208
560.72	0.209
561.18	0.207
561.63	0.204
562.08	0.204
562.53	0.204
562.99	0.205
563.44	0.205
563.89	0.204
564.34	0.205
564.79	0.204
565.25	0.203
565.70	0.201
566.15	0.203
566.60	0.199
567.05	0.201
567.50	0.200
567.96	0.200
568.41	0.202
568.86	0.200
569.31	0.198
569.76	0.198
570.21	0.199
570.67	0.200
571.12	0.198
571.57	0.198
572.02	0.197
572.47	0.197
572.92	0.197
573.37	0.195
573.83	0.195
574.28	0.196
574.73	0.196
575.18	0.196
575.63	0.196
576.08	0.193
576.53	0.193
576.98	0.196
577.44	0.191
577.89	0.193
578.34	0.193
578.79	0.191
579.24	0.191
579.69	0.191
580.14	0.190
580.59	0.189
581.04	0.188
581.49	0.188
581.95	0.190
582.40	0.190
582.85	0.188
583.30	0.189
583.75	0.187
584.20	0.187
584.65	0.188
585.10	0.188
585.55	0.188
586.00	0.187
586.45	0.186
586.90	0.188
587.35	0.187
587.80	0.186
588.25	0.186
588.71	0.184
589.16	0.185
589.61	0.185
590.06	0.183
590.51	0.184
590.96	0.183
591.41	0.184
591.86	0.183
592.31	0.184
592.76	0.181
593.21	0.182
593.66	0.184
594.11	0.184
594.56	0.182
595.01	0.182
595.46	0.181
595.91	0.182
596.36	0.182
596.81	0.181
597.26	0.179
597.71	0.179
598.16	0.181
598.61	0.180
599.06	0.180
599.51	0.181
599.96	0.181
600.41	0.180
600.86	0.180
601.31	0.179
601.76	0.179
602.21	0.179
602.65	0.180
603.10	0.179
603.55	0.177
604.00	0.179
604.45	0.177
604.90	0.177
605.35	0.175
605.80	0.177
606.25	0.179
606.70	0.176
607.15	0.176
607.60	0.175
608.05	0.174
608.50	0.174
608.95	0.171
609.39	0.177
609.84	0.175
610.29	0.174
610.74	0.174
611.19	0.172
611.64	0.174
612.09	0.171
612.54	0.173
612.99	0.171
613.44	0.169
613.88	0.172
614.33	0.172
614.78	0.169
615.23	0.169
615.68	0.169
616.13	0.172
616.58	0.169
617.03	0.169
617.47	0.171
617.92	0.169
618.37	0.169
618.82	0.170
619.27	0.169
619.72	0.169
620.17	0.166
620.61	0.166
621.06	0.168
621.51	0.166
621.96	0.164
622.41	0.166
622.86	0.165
623.30	0.163
623.75	0.165
624.20	0.164
624.65	0.164
625.10	0.165
625.54	0.166
625.99	0.167
626.44	0.165
626.89	0.164
627.34	0.165
627.78	0.163
628.23	0.163
628.68	0.163
629.13	0.162
629.58	0.163
630.02	0.162
630.47	0.163
630.92	0.163
631.37	0.161
631.81	0.163
632.26	0.160
632.71	0.161
633.16	0.160
633.61	0.160
634.05	0.159
634.50	0.159
634.95	0.160
635.40	0.162
635.84	0.160
636.29	0.160
636.74	0.161
637.18	0.161
637.63	0.160
638.08	0.158
638.53	0.158
638.97	0.158
639.42	0.158
639.87	0.157
640.32	0.157
640.76	0.158
641.21	0.158
641.66	0.158
642.10	0.158
642.55	0.156
643.00	0.155
643.44	0.157
643.89	0.159
644.34	0.155
644.79	0.156
645.23	0.156
645.68	0.156
646.13	0.155
646.57	0.154
647.02	0.153
647.47	0.156
647.91	0.156
648.36	0.156
648.81	0.156
649.25	0.153
649.70	0.152
650.15	0.152
650.59	0.154
651.04	0.152
651.48	0.156
651.93	0.154
652.38	0.149
652.82	0.151
653.27	0.152
653.72	0.152
654.16	0.150
654.61	0.154
655.06	0.151
655.50	0.150
655.95	0.148
656.39	0.144
656.84	0.146
657.29	0.153
657.73	0.150
658.18	0.149
658.62	0.150
659.07	0.150
659.52	0.150
659.96	0.151
660.41	0.151
660.85	0.147
661.30	0.149
661.74	0.149
662.19	0.149
662.64	0.149
663.08	0.148
663.53	0.149
663.97	0.147
664.42	0.148
664.86	0.148
665.31	0.147
665.75	0.147
666.20	0.146
666.65	0.146
667.09	0.145
667.54	0.146
667.98	0.145
668.43	0.146
668.87	0.146
669.32	0.145
669.76	0.147
670.21	0.147
670.65	0.143
671.10	0.145
671.54	0.143
671.99	0.142
672.43	0.143
672.88	0.145
673.32	0.145
673.77	0.142
674.21	0.142
674.66	0.144
675.10	0.143
675.55	0.140
675.99	0.145
676.44	0.142
676.88	0.144
677.33	0.144
677.77	0.142
678.22	0.141
678.66	0.141
679.11	0.140
679.55	0.142
679.99	0.141
680.44	0.141
680.88	0.141
681.33	0.140
681.77	0.140
682.22	0.143
682.66	0.142
683.11	0.139
683.55	0.141
683.99	0.139
684.44	0.138
684.88	0.138
685.33	0.141
685.77	0.140
686.21	0.138
686.66	0.138
687.10	0.138
687.55	0.138
687.99	0.140
688.44	0.139
688.88	0.137
689.32	0.140
689.77	0.137
690.21	0.138
690.65	0.137
691.10	0.137
691.54	0.137
691.99	0.138
692.43	0.135
692.87	0.136
693.32	0.139
693.76	0.137
694.20	0.137
694.65	0.136
695.09	0.138
695.53	0.137
695.98	0.137
696.42	0.137
696.86	0.137
697.31	0.133
697.75	0.135
698.19	0.136
698.64	0.135
699.08	0.137
699.52	0.135
699.97	0.136
700.41	0.135
700.85	0.137
701.30	0.132
701.74	0.136
702.18	0.134
702.63	0.132
703.07	0.134
703.51	0.135
703.96	0.134
704.40	0.135
704.84	0.136
705.28	0.134
705.73	0.134
706.17	0.135
706.61	0.132
707.06	0.132
707.50	0.132
707.94	0.133
708.38	0.133
708.83	0.134
709.27	0.134
709.71	0.134
710.15	0.136
710.60	0.132
711.04	0.130
711.48	0.133
711.92	0.133
712.37	0.130
712.81	0.132
713.25	0.131
713.69	0.132
714.13	0.132
714.58	0.132
715.02	0.132
715.46	0.130
715.90	0.130
716.35	0.130
716.79	0.133
717.23	0.133
717.67	0.133
718.11	0.132
718.56	0.132
719.00	0.132
719.44	0.132
719.88	0.131
720.32	0.130
720.76	0.132
721.21	0.133
721.65	0.128
722.09	0.132
722.53	0.132
722.97	0.132
723.41	0.129
723.86	0.131
724.30	0.130
724.74	0.133
725.18	0.133
725.62	0.130
726.06	0.134
726.50	0.129
726.95	0.131
727.39	0.132
727.83	0.131
728.27	0.132
728.71	0.131
729.15	0.133
729.59	0.132
730.03	0.129
730.48	0.132
730.92	0.131
731.36	0.132
731.80	0.133
732.24	0.133
732.68	0.131
733.12	0.130
733.56	0.130
734.00	0.128
734.44	0.131
734.89	0.133
735.33	0.132
735.77	0.134
736.21	0.132
736.65	0.130
737.09	0.133
737.53	0.135
737.97	0.133
738.41	0.134
738.85	0.135
739.29	0.133
739.73	0.130
740.17	0.132
740.61	0.132
741.05	0.132
741.49	0.131
741.93	0.132
742.37	0.128
742.81	0.130
743.26	0.133
743.70	0.130
744.14	0.130
744.58	0.130
745.02	0.130
745.46	0.132
745.90	0.129
746.34	0.130
746.78	0.131
747.22	0.131
747.66	0.130
748.10	0.130
748.54	0.127
748.98	0.130
749.42	0.130
749.86	0.130
750.29	0.127
750.73	0.127
751.17	0.128
751.61	0.126
752.05	0.131
752.49	0.126
752.93	0.127
753.37	0.127
753.81	0.126
754.25	0.128
754.69	0.123
755.13	0.127
755.57	0.128
756.01	0.128
756.45	0.129
756.89	0.127
757.33	0.129
757.77	0.125
758.21	0.126
758.64	0.124
759.08	0.124
759.52	0.125
759.96	0.128
760.40	0.125
760.84	0.125
761.28	0.127
761.72	0.128
762.16	0.125
762.60	0.125
763.03	0.124
763.47	0.122
763.91	0.126
764.35	0.123
764.79	0.122
765.23	0.123
765.67	0.125
766.11	0.124
766.54	0.124
766.98	0.125
767.42	0.123
767.86	0.123
768.30	0.124
768.74	0.124
769.17	0.125
769.61	0.123
770.05	0.125
770.49	0.125
770.93	0.124
771.37	0.121
771.80	0.122
772.24	0.126
772.68	0.121
773.12	0.122
773.56	0.121
774.00	0.121
774.43	0.119
774.87	0.120
775.31	0.122
775.75	0.122
776.19	0.122
776.62	0.120
777.06	0.123
777.50	0.121
777.94	0.120
778.37	0.120
778.81	0.120
779.25	0.123
779.69	0.122
780.13	0.122
780.56	0.121
781.00	0.120
781.44	0.120
781.88	0.124
782.31	0.116
782.75	0.118
783.19	0.124
783.63	0.119
784.06	0.118
784.50	0.122
784.94	0.119
785.37	0.123
785.81	0.121
786.25	0.120
786.69	0.118
787.12	0.121
787.56	0.118
788.00	0.121
788.43	0.120
788.87	0.114
789.31	0.117
789.75	0.121
790.18	0.116
790.62	0.120
791.06	0.121
791.49	0.119
791.93	0.113
792.37	0.119
792.80	0.117
793.24	0.119
793.68	0.118
794.11	0.120
794.55	0.123
794.99	0.119
795.42	0.118
795.86	0.119
796.30	0.120
796.73	0.116
797.17	0.118
797.61	0.117
798.04	0.119
798.48	0.116
798.91	0.117
799.35	0.116
799.79	0.118
800.22	0.118
800.66	0.116
801.10	0.117
801.53	0.116
801.97	0.121
802.40	0.120
802.84	0.115
803.28	0.110
803.71	0.118
804.15	0.114
804.58	0.114
805.02	0.116
805.46	0.117
805.89	0.116
806.33	0.117
806.76	0.114
807.20	0.119
807.63	0.116
808.07	0.119
808.51	0.118
808.94	0.113
809.38	0.115
809.81	0.117
810.25	0.118
810.68	0.118
811.12	0.119
811.55	0.117
811.99	0.115
812.42	0.116
812.86	0.114
813.29	0.116
813.73	0.115
814.17	0.111
814.60	0.115
815.04	0.116
815.47	0.113
