SpectraSuite Data File
++++++++++++++++++++++++++++++++++++
Date: Sun Apr 24 15:02:33 CEST 2016
User: spectrasuite
Dark Spectrum Present: Yes
Reference Spectrum Present: Yes
Number of Sampled Component Spectra: 1
Spectrometers: HR+C0708
Integration Time (usec): 1000 (HR+C0708)
Spectra Averaged: 10 (HR+C0708)
Boxcar Smoothing: 0 (HR+C0708)
Correct for Electrical Dark: No (HR+C0708)
Strobe/Lamp Enabled: No (HR+C0708)
Correct for Detector Non-linearity: No (HR+C0708)
Correct for Stray Light: No (HR+C0708)
Number of Pixels in Processed Spectrum: 2048
>>>>>Begin Processed Spectral Data<<<<<
188.76	-0.000
189.23	-0.000
189.70	-0.000
190.17	-0.000
190.64	-0.000
191.12	-0.000
191.59	-0.000
192.06	-0.000
192.53	-0.000
193.01	-0.000
193.48	-0.000
193.95	-0.000
194.42	-0.000
194.90	-0.000
195.37	-0.000
195.84	-0.000
196.31	-0.000
196.78	-0.000
197.26	-0.000
197.73	-0.000
198.20	-0.000
198.67	-0.000
199.14	-0.000
199.62	-0.000
200.09	-0.000
200.56	-0.000
201.03	-0.000
201.50	1.294
201.97	1.184
202.45	-0.000
202.92	0.992
203.39	0.818
203.86	1.759
204.33	-0.000
204.80	0.924
205.28	1.816
205.75	-0.000
206.22	-0.000
206.69	0.732
207.16	-0.000
207.63	1.194
208.11	1.188
208.58	1.669
209.05	-0.000
209.52	1.633
209.99	1.321
210.46	2.015
210.93	-0.000
211.41	1.378
211.88	1.555
212.35	-0.000
212.82	-0.000
213.29	1.076
213.76	0.919
214.23	-0.000
214.70	-0.000
215.18	1.072
215.65	-0.000
216.12	0.944
216.59	-0.000
217.06	1.462
217.53	2.137
218.00	-0.000
218.47	-0.000
218.94	1.623
219.41	-0.000
219.89	-0.000
220.36	-0.000
220.83	1.309
221.30	-0.000
221.77	-0.000
222.24	1.340
222.71	-0.000
223.18	-0.000
223.65	1.374
224.12	-0.000
224.59	-0.000
225.06	1.408
225.54	1.229
226.01	1.710
226.48	-0.000
226.95	1.421
227.42	1.973
227.89	-0.000
228.36	1.552
228.83	1.664
229.30	2.392
229.77	1.540
230.24	1.910
230.71	3.139
231.18	2.885
231.65	2.199
232.12	1.796
232.59	2.165
233.06	2.485
233.53	1.931
234.00	1.859
234.47	2.197
234.94	-0.000
235.41	2.117
235.88	2.936
236.35	-0.000
236.82	3.080
237.29	2.331
237.76	3.261
238.23	-0.000
238.70	2.293
239.17	2.157
239.64	2.786
240.11	-0.000
240.58	2.798
241.05	2.748
241.52	2.876
241.99	-0.000
242.46	2.595
242.93	3.310
243.40	-0.000
243.87	2.588
244.34	2.567
244.81	2.777
245.28	-0.000
245.75	2.862
246.22	-0.000
246.69	3.501
247.16	2.887
247.63	2.719
248.10	3.614
248.57	4.000
249.04	-0.000
249.51	-0.000
249.98	-0.000
250.45	3.169
250.92	2.851
251.39	3.083
251.85	3.069
252.32	-0.000
252.79	3.045
253.26	-0.000
253.73	-0.000
254.20	2.744
254.67	2.905
255.14	3.707
255.61	-0.000
256.08	3.172
256.55	-0.000
257.02	3.044
257.49	3.099
257.95	3.080
258.42	3.832
258.89	3.164
259.36	2.770
259.83	3.730
260.30	3.475
260.77	3.903
261.24	3.005
261.71	-0.000
262.17	-0.000
262.64	2.936
263.11	3.265
263.58	-0.000
264.05	3.196
264.52	2.910
264.99	3.019
265.46	3.160
265.92	3.113
266.39	2.991
266.86	3.758
267.33	3.331
267.80	2.875
268.27	4.083
268.74	3.640
269.20	3.342
269.67	2.882
270.14	2.772
270.61	2.831
271.08	2.936
271.55	2.701
272.01	2.750
272.48	2.795
272.95	3.055
273.42	2.846
273.89	2.992
274.36	2.847
274.82	2.616
275.29	2.685
275.76	2.786
276.23	2.620
276.70	2.762
277.16	2.558
277.63	2.568
278.10	2.537
278.57	2.620
279.04	2.740
279.50	2.539
279.97	2.616
280.44	2.545
280.91	2.762
281.38	2.541
281.84	2.527
282.31	2.628
282.78	2.743
283.25	2.489
283.72	2.551
284.18	2.626
284.65	2.517
285.12	2.470
285.59	2.380
286.05	2.586
286.52	2.429
286.99	2.491
287.46	2.453
287.92	2.426
288.39	2.341
288.86	2.451
289.33	2.366
289.79	2.395
290.26	2.429
290.73	2.381
291.20	2.341
291.66	2.396
292.13	2.364
292.60	2.280
293.07	2.329
293.53	2.228
294.00	2.338
294.47	2.346
294.93	2.300
295.40	2.323
295.87	2.359
296.34	2.301
296.80	2.209
297.27	2.266
297.74	2.275
298.20	2.227
298.67	2.181
299.14	2.234
299.60	2.212
300.07	2.186
300.54	2.254
301.01	2.156
301.47	2.130
301.94	2.130
302.41	2.182
302.87	2.148
303.34	2.232
303.81	2.099
304.27	2.145
304.74	2.062
305.21	2.091
305.67	2.087
306.14	2.063
306.61	2.100
307.07	2.054
307.54	2.106
308.01	2.069
308.47	2.072
308.94	2.083
309.40	2.088
309.87	2.060
310.34	2.037
310.80	2.102
311.27	2.053
311.74	2.046
312.20	2.074
312.67	2.014
313.13	2.008
313.60	2.032
314.07	2.049
314.53	2.002
315.00	1.989
315.47	2.024
315.93	2.039
316.40	1.982
316.86	1.938
317.33	1.934
317.80	1.944
318.26	1.971
318.73	1.945
319.19	1.943
319.66	1.900
320.13	1.913
320.59	1.915
321.06	1.911
321.52	1.927
321.99	1.889
322.45	1.862
322.92	1.855
323.39	1.888
323.85	1.853
324.32	1.848
324.78	1.850
325.25	1.849
325.71	1.853
326.18	1.797
326.64	1.850
327.11	1.803
327.58	1.783
328.04	1.763
328.51	1.803
328.97	1.763
329.44	1.754
329.90	1.729
330.37	1.728
330.83	1.703
331.30	1.721
331.76	1.689
332.23	1.680
332.69	1.688
333.16	1.628
333.62	1.630
334.09	1.614
334.56	1.584
335.02	1.588
335.49	1.577
335.95	1.512
336.42	1.498
336.88	1.506
337.35	1.478
337.81	1.462
338.28	1.435
338.74	1.414
339.20	1.388
339.67	1.365
340.13	1.354
340.60	1.322
341.06	1.295
341.53	1.263
341.99	1.257
342.46	1.226
342.92	1.193
343.39	1.175
343.85	1.151
344.32	1.125
344.78	1.114
345.25	1.098
345.71	1.081
346.17	1.056
346.64	1.029
347.10	0.998
347.57	0.978
348.03	0.963
348.50	0.930
348.96	0.910
349.43	0.896
349.89	0.874
350.35	0.855
350.82	0.848
351.28	0.825
351.75	0.816
352.21	0.805
352.67	0.788
353.14	0.776
353.60	0.762
354.07	0.749
354.53	0.728
355.00	0.719
355.46	0.714
355.92	0.696
356.39	0.692
356.85	0.682
357.31	0.666
357.78	0.664
358.24	0.656
358.71	0.645
359.17	0.639
359.63	0.635
360.10	0.631
360.56	0.623
361.03	0.621
361.49	0.611
361.95	0.609
362.42	0.603
362.88	0.599
363.34	0.593
363.81	0.590
364.27	0.589
364.73	0.584
365.20	0.587
365.66	0.578
366.12	0.577
366.59	0.574
367.05	0.573
367.51	0.572
367.98	0.566
368.44	0.565
368.90	0.566
369.37	0.562
369.83	0.560
370.29	0.557
370.76	0.555
371.22	0.559
371.68	0.549
372.15	0.545
372.61	0.540
373.07	0.543
373.54	0.540
374.00	0.540
374.46	0.533
374.92	0.534
375.39	0.531
375.85	0.533
376.31	0.534
376.78	0.532
377.24	0.530
377.70	0.521
378.16	0.526
378.63	0.520
379.09	0.521
379.55	0.520
380.01	0.521
380.48	0.517
380.94	0.513
381.40	0.512
381.87	0.509
382.33	0.511
382.79	0.508
383.25	0.505
383.72	0.507
384.18	0.503
384.64	0.501
385.10	0.497
385.56	0.498
386.03	0.495
386.49	0.494
386.95	0.493
387.41	0.492
387.88	0.490
388.34	0.485
388.80	0.487
389.26	0.489
389.72	0.487
390.19	0.485
390.65	0.481
391.11	0.480
391.57	0.478
392.04	0.478
392.50	0.476
392.96	0.474
393.42	0.471
393.88	0.473
394.34	0.468
394.81	0.468
395.27	0.467
395.73	0.468
396.19	0.467
396.65	0.466
397.12	0.464
397.58	0.462
398.04	0.460
398.50	0.459
398.96	0.456
399.42	0.458
399.89	0.456
400.35	0.456
400.81	0.453
401.27	0.453
401.73	0.454
402.19	0.450
402.65	0.445
403.12	0.445
403.58	0.445
404.04	0.446
404.50	0.444
404.96	0.443
405.42	0.440
405.88	0.437
406.34	0.437
406.81	0.435
407.27	0.435
407.73	0.433
408.19	0.430
408.65	0.429
409.11	0.428
409.57	0.431
410.03	0.431
410.49	0.432
410.96	0.425
411.42	0.426
411.88	0.424
412.34	0.425
412.80	0.424
413.26	0.420
413.72	0.420
414.18	0.418
414.64	0.415
415.10	0.420
415.56	0.414
416.02	0.416
416.48	0.413
416.95	0.412
417.41	0.409
417.87	0.410
418.33	0.410
418.79	0.407
419.25	0.405
419.71	0.406
420.17	0.406
420.63	0.398
421.09	0.401
421.55	0.396
422.01	0.400
422.47	0.399
422.93	0.397
423.39	0.400
423.85	0.400
424.31	0.396
424.77	0.397
425.23	0.399
425.69	0.397
426.15	0.393
426.61	0.392
427.07	0.389
427.53	0.388
427.99	0.388
428.45	0.388
428.91	0.385
429.37	0.383
429.83	0.384
430.29	0.384
430.75	0.387
431.21	0.384
431.67	0.386
432.13	0.384
432.59	0.378
433.05	0.380
433.51	0.378
433.97	0.377
434.43	0.377
434.89	0.377
435.35	0.376
435.81	0.372
436.27	0.370
436.73	0.375
437.19	0.370
437.65	0.373
438.11	0.372
438.57	0.368
439.03	0.371
439.48	0.367
439.94	0.365
440.40	0.368
440.86	0.364
441.32	0.363
441.78	0.365
442.24	0.363
442.70	0.361
443.16	0.360
443.62	0.356
444.08	0.357
444.54	0.356
444.99	0.357
445.45	0.357
445.91	0.355
446.37	0.356
446.83	0.353
447.29	0.354
447.75	0.352
448.21	0.353
448.67	0.352
449.12	0.349
449.58	0.348
450.04	0.345
450.50	0.346
450.96	0.351
451.42	0.342
451.88	0.341
452.34	0.347
452.79	0.342
453.25	0.344
453.71	0.343
454.17	0.340
454.63	0.341
455.09	0.343
455.55	0.339
456.00	0.337
456.46	0.338
456.92	0.338
457.38	0.336
457.84	0.334
458.30	0.330
458.75	0.335
459.21	0.330
459.67	0.334
460.13	0.332
460.59	0.331
461.04	0.328
461.50	0.331
461.96	0.329
462.42	0.329
462.88	0.326
463.33	0.325
463.79	0.326
464.25	0.325
464.71	0.324
465.17	0.324
465.62	0.326
466.08	0.323
466.54	0.324
467.00	0.322
467.46	0.322
467.91	0.321
468.37	0.320
468.83	0.321
469.29	0.317
469.74	0.317
470.20	0.317
470.66	0.317
471.12	0.313
471.57	0.316
472.03	0.312
472.49	0.316
472.95	0.313
473.40	0.311
473.86	0.312
474.32	0.309
474.78	0.311
475.23	0.306
475.69	0.309
476.15	0.307
476.60	0.312
477.06	0.305
477.52	0.306
477.98	0.307
478.43	0.301
478.89	0.305
479.35	0.303
479.80	0.306
480.26	0.303
480.72	0.302
481.18	0.303
481.63	0.299
482.09	0.301
482.55	0.300
483.00	0.299
483.46	0.297
483.92	0.298
484.37	0.297
484.83	0.297
485.29	0.294
485.74	0.296
486.20	0.295
486.66	0.296
487.11	0.294
487.57	0.293
488.03	0.293
488.48	0.292
488.94	0.290
489.40	0.289
489.85	0.292
490.31	0.292
490.77	0.286
491.22	0.290
491.68	0.288
492.13	0.286
492.59	0.287
493.05	0.287
493.50	0.286
493.96	0.285
494.42	0.284
494.87	0.281
495.33	0.280
495.78	0.283
496.24	0.284
496.70	0.281
497.15	0.281
497.61	0.282
498.06	0.280
498.52	0.279
498.98	0.279
499.43	0.280
499.89	0.277
500.34	0.277
500.80	0.277
501.25	0.276
501.71	0.276
502.17	0.276
502.62	0.278
503.08	0.276
503.53	0.272
503.99	0.271
504.44	0.274
504.90	0.274
505.36	0.272
505.81	0.273
506.27	0.271
506.72	0.272
507.18	0.270
507.63	0.270
508.09	0.270
508.54	0.268
509.00	0.268
509.45	0.267
509.91	0.266
510.36	0.267
510.82	0.267
511.27	0.267
511.73	0.267
512.19	0.265
512.64	0.263
513.10	0.265
513.55	0.265
514.01	0.263
514.46	0.264
514.92	0.260
515.37	0.260
515.83	0.261
516.28	0.257
516.73	0.260
517.19	0.260
517.64	0.258
518.10	0.259
518.55	0.257
519.01	0.254
519.46	0.257
519.92	0.257
520.37	0.255
520.83	0.254
521.28	0.256
521.74	0.255
522.19	0.256
522.65	0.253
523.10	0.253
523.55	0.253
524.01	0.254
524.46	0.252
524.92	0.250
525.37	0.252
525.83	0.250
526.28	0.252
526.73	0.251
527.19	0.252
527.64	0.251
528.10	0.248
528.55	0.247
529.01	0.251
529.46	0.247
529.91	0.248
530.37	0.246
530.82	0.249
531.28	0.244
531.73	0.244
532.18	0.245
532.64	0.246
533.09	0.243
533.54	0.242
534.00	0.242
534.45	0.245
534.91	0.243
535.36	0.244
535.81	0.240
536.27	0.240
536.72	0.243
537.17	0.237
537.63	0.238
538.08	0.239
538.54	0.242
538.99	0.238
539.44	0.239
539.90	0.239
540.35	0.239
540.80	0.235
541.26	0.236
541.71	0.236
542.16	0.238
542.62	0.237
543.07	0.234
543.52	0.235
543.98	0.236
544.43	0.235
544.88	0.233
545.34	0.235
545.79	0.232
546.24	0.233
546.69	0.231
547.15	0.231
547.60	0.232
548.05	0.232
548.51	0.227
548.96	0.230
549.41	0.231
549.86	0.230
550.32	0.230
550.77	0.230
551.22	0.229
551.68	0.226
552.13	0.227
552.58	0.227
553.03	0.227
553.49	0.225
553.94	0.223
554.39	0.225
554.84	0.228
555.30	0.223
555.75	0.224
556.20	0.222
556.65	0.223
557.11	0.224
557.56	0.221
558.01	0.223
558.46	0.222
558.92	0.221
559.37	0.219
559.82	0.221
560.27	0.219
560.72	0.220
561.18	0.219
561.63	0.219
562.08	0.217
562.53	0.219
562.99	0.219
563.44	0.218
563.89	0.216
564.34	0.218
564.79	0.217
565.25	0.216
565.70	0.215
566.15	0.216
566.60	0.214
567.05	0.214
567.50	0.216
567.96	0.214
568.41	0.212
568.86	0.213
569.31	0.211
569.76	0.212
570.21	0.213
570.67	0.211
571.12	0.212
571.57	0.210
572.02	0.210
572.47	0.209
572.92	0.210
573.37	0.209
573.83	0.208
574.28	0.210
574.73	0.208
575.18	0.209
575.63	0.209
576.08	0.206
576.53	0.205
576.98	0.207
577.44	0.202
577.89	0.206
578.34	0.205
578.79	0.205
579.24	0.204
579.69	0.206
580.14	0.202
580.59	0.203
581.04	0.202
581.49	0.199
581.95	0.201
582.40	0.201
582.85	0.202
583.30	0.198
583.75	0.198
584.20	0.199
584.65	0.200
585.10	0.199
585.55	0.200
586.00	0.201
586.45	0.199
586.90	0.200
587.35	0.199
587.80	0.198
588.25	0.197
588.71	0.198
589.16	0.198
589.61	0.197
590.06	0.196
590.51	0.197
590.96	0.195
591.41	0.194
591.86	0.195
592.31	0.194
592.76	0.195
593.21	0.193
593.66	0.196
594.11	0.195
594.56	0.193
595.01	0.195
595.46	0.193
595.91	0.193
596.36	0.193
596.81	0.193
597.26	0.191
597.71	0.192
598.16	0.192
598.61	0.190
599.06	0.191
599.51	0.192
599.96	0.190
600.41	0.192
600.86	0.191
601.31	0.193
601.76	0.190
602.21	0.190
602.65	0.191
603.10	0.190
603.55	0.186
604.00	0.189
604.45	0.188
604.90	0.188
605.35	0.186
605.80	0.187
606.25	0.188
606.70	0.188
607.15	0.186
607.60	0.186
608.05	0.186
608.50	0.185
608.95	0.182
609.39	0.187
609.84	0.185
610.29	0.184
610.74	0.184
611.19	0.182
611.64	0.184
612.09	0.183
612.54	0.183
612.99	0.184
613.44	0.182
613.88	0.183
614.33	0.182
614.78	0.182
615.23	0.181
615.68	0.180
616.13	0.181
616.58	0.180
617.03	0.181
617.47	0.180
617.92	0.180
618.37	0.180
618.82	0.180
619.27	0.178
619.72	0.178
620.17	0.178
620.61	0.178
621.06	0.176
621.51	0.178
621.96	0.176
622.41	0.176
622.86	0.177
623.30	0.175
623.75	0.177
624.20	0.176
624.65	0.176
625.10	0.176
625.54	0.175
625.99	0.176
626.44	0.174
626.89	0.174
627.34	0.175
627.78	0.172
628.23	0.172
628.68	0.173
629.13	0.173
629.58	0.174
630.02	0.174
630.47	0.172
630.92	0.172
631.37	0.171
631.81	0.172
632.26	0.172
632.71	0.171
633.16	0.171
633.61	0.171
634.05	0.169
634.50	0.170
634.95	0.168
635.40	0.171
635.84	0.172
636.29	0.171
636.74	0.170
637.18	0.170
637.63	0.171
638.08	0.169
638.53	0.167
638.97	0.167
639.42	0.170
639.87	0.169
640.32	0.166
640.76	0.168
641.21	0.168
641.66	0.166
642.10	0.168
642.55	0.167
643.00	0.166
643.44	0.166
643.89	0.168
644.34	0.164
644.79	0.165
645.23	0.166
645.68	0.167
646.13	0.166
646.57	0.166
647.02	0.164
647.47	0.166
647.91	0.164
648.36	0.165
648.81	0.164
649.25	0.162
649.70	0.162
650.15	0.160
650.59	0.162
651.04	0.164
651.48	0.165
651.93	0.163
652.38	0.161
652.82	0.163
653.27	0.159
653.72	0.162
654.16	0.161
654.61	0.164
655.06	0.160
655.50	0.160
655.95	0.159
656.39	0.155
656.84	0.157
657.29	0.161
657.73	0.161
658.18	0.160
658.62	0.160
659.07	0.159
659.52	0.159
659.96	0.159
660.41	0.162
660.85	0.156
661.30	0.157
661.74	0.157
662.19	0.157
662.64	0.157
663.08	0.156
663.53	0.157
663.97	0.155
664.42	0.158
664.86	0.158
665.31	0.157
665.75	0.156
666.20	0.157
666.65	0.157
667.09	0.155
667.54	0.155
667.98	0.156
668.43	0.153
668.87	0.155
669.32	0.153
669.76	0.154
670.21	0.156
670.65	0.152
671.10	0.154
671.54	0.154
671.99	0.154
672.43	0.153
672.88	0.152
673.32	0.153
673.77	0.150
674.21	0.151
674.66	0.151
675.10	0.153
675.55	0.149
675.99	0.152
676.44	0.153
676.88	0.153
677.33	0.151
677.77	0.150
678.22	0.152
678.66	0.150
679.11	0.151
679.55	0.152
679.99	0.150
680.44	0.152
680.88	0.149
681.33	0.148
681.77	0.149
682.22	0.151
682.66	0.151
683.11	0.150
683.55	0.149
683.99	0.150
684.44	0.148
684.88	0.145
685.33	0.148
685.77	0.150
686.21	0.149
686.66	0.147
687.10	0.147
687.55	0.145
687.99	0.150
688.44	0.148
688.88	0.147
689.32	0.149
689.77	0.147
690.21	0.147
690.65	0.146
691.10	0.146
691.54	0.146
691.99	0.147
692.43	0.144
692.87	0.142
693.32	0.146
693.76	0.146
694.20	0.146
694.65	0.147
695.09	0.147
695.53	0.144
695.98	0.146
696.42	0.146
696.86	0.143
697.31	0.144
697.75	0.144
698.19	0.144
698.64	0.144
699.08	0.143
699.52	0.141
699.97	0.144
700.41	0.143
700.85	0.142
701.30	0.141
701.74	0.142
702.18	0.144
702.63	0.142
703.07	0.144
703.51	0.145
703.96	0.145
704.40	0.143
704.84	0.143
705.28	0.140
705.73	0.141
706.17	0.142
706.61	0.143
707.06	0.141
707.50	0.141
707.94	0.140
708.38	0.139
708.83	0.142
709.27	0.141
709.71	0.140
710.15	0.141
710.60	0.140
711.04	0.140
711.48	0.143
711.92	0.143
712.37	0.138
712.81	0.142
713.25	0.141
713.69	0.141
714.13	0.141
714.58	0.141
715.02	0.139
715.46	0.138
715.90	0.138
716.35	0.138
716.79	0.143
717.23	0.140
717.67	0.140
718.11	0.142
718.56	0.139
719.00	0.140
719.44	0.142
719.88	0.139
720.32	0.139
720.76	0.138
721.21	0.139
721.65	0.138
722.09	0.140
722.53	0.138
722.97	0.140
723.41	0.139
723.86	0.140
724.30	0.138
724.74	0.139
725.18	0.139
725.62	0.139
726.06	0.140
726.50	0.140
726.95	0.139
727.39	0.140
727.83	0.137
728.27	0.140
728.71	0.139
729.15	0.142
729.59	0.141
730.03	0.138
730.48	0.139
730.92	0.138
731.36	0.137
731.80	0.139
732.24	0.142
732.68	0.139
733.12	0.138
733.56	0.139
734.00	0.139
734.44	0.139
734.89	0.138
735.33	0.140
735.77	0.141
736.21	0.139
736.65	0.137
737.09	0.139
737.53	0.139
737.97	0.139
738.41	0.139
738.85	0.143
739.29	0.140
739.73	0.137
740.17	0.140
740.61	0.138
741.05	0.141
741.49	0.139
741.93	0.140
742.37	0.136
742.81	0.139
743.26	0.140
743.70	0.139
744.14	0.140
744.58	0.135
745.02	0.138
745.46	0.140
745.90	0.137
746.34	0.140
746.78	0.138
747.22	0.137
747.66	0.137
748.10	0.139
748.54	0.136
748.98	0.136
749.42	0.138
749.86	0.138
750.29	0.138
750.73	0.135
751.17	0.135
751.61	0.135
752.05	0.136
752.49	0.133
752.93	0.133
753.37	0.132
753.81	0.132
754.25	0.134
754.69	0.132
755.13	0.134
755.57	0.136
756.01	0.136
756.45	0.134
756.89	0.135
757.33	0.136
757.77	0.134
758.21	0.133
758.64	0.130
759.08	0.131
759.52	0.134
759.96	0.135
760.40	0.134
760.84	0.133
761.28	0.132
761.72	0.133
762.16	0.133
762.60	0.133
763.03	0.133
763.47	0.131
763.91	0.132
764.35	0.133
764.79	0.133
765.23	0.129
765.67	0.129
766.11	0.128
766.54	0.129
766.98	0.131
767.42	0.130
767.86	0.130
768.30	0.130
768.74	0.131
769.17	0.132
769.61	0.132
770.05	0.129
770.49	0.132
770.93	0.131
771.37	0.129
771.80	0.132
772.24	0.129
772.68	0.126
773.12	0.125
773.56	0.129
774.00	0.129
774.43	0.125
774.87	0.128
775.31	0.128
775.75	0.128
776.19	0.127
776.62	0.127
777.06	0.130
777.50	0.129
777.94	0.127
778.37	0.127
778.81	0.126
779.25	0.128
779.69	0.126
780.13	0.128
780.56	0.125
781.00	0.127
781.44	0.129
781.88	0.127
782.31	0.124
782.75	0.127
783.19	0.127
783.63	0.127
784.06	0.125
784.50	0.127
784.94	0.126
785.37	0.125
785.81	0.126
786.25	0.128
786.69	0.124
787.12	0.128
787.56	0.123
788.00	0.128
788.43	0.127
788.87	0.124
789.31	0.125
789.75	0.127
790.18	0.123
790.62	0.124
791.06	0.125
791.49	0.124
791.93	0.122
792.37	0.128
792.80	0.122
793.24	0.125
793.68	0.124
794.11	0.123
794.55	0.127
794.99	0.129
795.42	0.124
795.86	0.128
796.30	0.125
796.73	0.125
797.17	0.123
797.61	0.125
798.04	0.127
798.48	0.124
798.91	0.124
799.35	0.123
799.79	0.127
800.22	0.123
800.66	0.121
801.10	0.127
801.53	0.125
801.97	0.123
802.40	0.125
802.84	0.124
803.28	0.118
803.71	0.127
804.15	0.123
804.58	0.123
805.02	0.120
805.46	0.120
805.89	0.122
806.33	0.124
806.76	0.123
807.20	0.123
807.63	0.123
808.07	0.123
808.51	0.124
808.94	0.118
809.38	0.121
809.81	0.122
810.25	0.124
810.68	0.124
811.12	0.121
811.55	0.124
811.99	0.121
812.42	0.121
812.86	0.122
813.29	0.121
813.73	0.124
814.17	0.120
814.60	0.124
815.04	0.120
815.47	0.121
