SpectraSuite Data File
++++++++++++++++++++++++++++++++++++
Date: Sun Apr 24 18:00:23 CEST 2016
User: spectrasuite
Dark Spectrum Present: Yes
Reference Spectrum Present: Yes
Number of Sampled Component Spectra: 1
Spectrometers: HR+C0708
Integration Time (usec): 1000 (HR+C0708)
Spectra Averaged: 10 (HR+C0708)
Boxcar Smoothing: 0 (HR+C0708)
Correct for Electrical Dark: No (HR+C0708)
Strobe/Lamp Enabled: No (HR+C0708)
Correct for Detector Non-linearity: No (HR+C0708)
Correct for Stray Light: No (HR+C0708)
Number of Pixels in Processed Spectrum: 2048
>>>>>Begin Processed Spectral Data<<<<<
188.76	-0.000
189.23	-0.000
189.70	-0.000
190.17	-0.000
190.64	-0.000
191.12	-0.000
191.59	-0.000
192.06	-0.000
192.53	-0.000
193.01	-0.000
193.48	-0.000
193.95	-0.000
194.42	-0.000
194.90	-0.000
195.37	-0.000
195.84	-0.000
196.31	-0.000
196.78	-0.000
197.26	-0.000
197.73	-0.000
198.20	-0.000
198.67	-0.000
199.14	-0.000
199.62	-0.000
200.09	-0.000
200.56	-0.000
201.03	-0.000
201.50	-0.000
201.97	-0.000
202.45	-0.000
202.92	-0.000
203.39	1.533
203.86	-0.000
204.33	-0.000
204.80	-0.000
205.28	-0.000
205.75	-0.000
206.22	-0.000
206.69	1.416
207.16	-0.000
207.63	1.084
208.11	0.893
208.58	1.264
209.05	-0.000
209.52	-0.000
209.99	-0.000
210.46	-0.000
210.93	-0.000
211.41	1.398
211.88	-0.000
212.35	-0.000
212.82	-0.000
213.29	1.321
213.76	-0.000
214.23	2.220
214.70	-0.000
215.18	-0.000
215.65	-0.000
216.12	-0.000
216.59	-0.000
217.06	1.940
217.53	-0.000
218.00	0.907
218.47	-0.000
218.94	-0.000
219.41	-0.000
219.89	-0.000
220.36	-0.000
220.83	1.079
221.30	-0.000
221.77	-0.000
222.24	-0.000
222.71	-0.000
223.18	-0.000
223.65	-0.000
224.12	-0.000
224.59	-0.000
225.06	-0.000
225.54	1.360
226.01	1.384
226.48	-0.000
226.95	1.988
227.42	-0.000
227.89	-0.000
228.36	1.820
228.83	-0.000
229.30	-0.000
229.77	-0.000
230.24	-0.000
230.71	-0.000
231.18	-0.000
231.65	2.676
232.12	2.121
232.59	2.614
233.06	2.360
233.53	1.949
234.00	2.212
234.47	-0.000
234.94	-0.000
235.41	2.256
235.88	-0.000
236.35	-0.000
236.82	2.513
237.29	2.504
237.76	-0.000
238.23	-0.000
238.70	-0.000
239.17	2.501
239.64	-0.000
240.11	-0.000
240.58	-0.000
241.05	2.954
241.52	3.353
241.99	-0.000
242.46	2.915
242.93	-0.000
243.40	-0.000
243.87	3.299
244.34	2.714
244.81	3.181
245.28	-0.000
245.75	-0.000
246.22	-0.000
246.69	3.473
247.16	-0.000
247.63	3.085
248.10	3.392
248.57	-0.000
249.04	-0.000
249.51	-0.000
249.98	-0.000
250.45	-0.000
250.92	3.046
251.39	3.093
251.85	-0.000
252.32	-0.000
252.79	-0.000
253.26	-0.000
253.73	-0.000
254.20	2.715
254.67	3.030
255.14	3.255
255.61	3.159
256.08	3.009
256.55	3.816
257.02	2.648
257.49	3.562
257.95	2.698
258.42	2.589
258.89	2.783
259.36	2.572
259.83	2.579
260.30	2.831
260.77	2.783
261.24	2.437
261.71	2.597
262.17	2.529
262.64	2.426
263.11	2.412
263.58	2.501
264.05	2.452
264.52	2.322
264.99	2.303
265.46	2.307
265.92	2.263
266.39	2.243
266.86	2.309
267.33	2.241
267.80	2.180
268.27	2.230
268.74	2.165
269.20	2.194
269.67	2.074
270.14	2.114
270.61	2.087
271.08	2.079
271.55	2.068
272.01	2.080
272.48	2.074
272.95	1.992
273.42	2.009
273.89	2.005
274.36	1.988
274.82	1.895
275.29	1.929
275.76	1.926
276.23	1.930
276.70	1.918
277.16	1.860
277.63	1.854
278.10	1.827
278.57	1.833
279.04	1.826
279.50	1.842
279.97	1.806
280.44	1.784
280.91	1.777
281.38	1.766
281.84	1.768
282.31	1.775
282.78	1.778
283.25	1.741
283.72	1.733
284.18	1.729
284.65	1.721
285.12	1.706
285.59	1.676
286.05	1.694
286.52	1.651
286.99	1.655
287.46	1.642
287.92	1.658
288.39	1.631
288.86	1.624
289.33	1.613
289.79	1.608
290.26	1.610
290.73	1.594
291.20	1.603
291.66	1.579
292.13	1.569
292.60	1.562
293.07	1.542
293.53	1.528
294.00	1.520
294.47	1.519
294.93	1.511
295.40	1.515
295.87	1.492
296.34	1.491
296.80	1.472
297.27	1.473
297.74	1.458
298.20	1.469
298.67	1.431
299.14	1.442
299.60	1.442
300.07	1.422
300.54	1.423
301.01	1.409
301.47	1.411
301.94	1.390
302.41	1.386
302.87	1.375
303.34	1.387
303.81	1.363
304.27	1.359
304.74	1.349
305.21	1.337
305.67	1.338
306.14	1.311
306.61	1.328
307.07	1.311
307.54	1.300
308.01	1.301
308.47	1.293
308.94	1.295
309.40	1.288
309.87	1.276
310.34	1.272
310.80	1.268
311.27	1.272
311.74	1.249
312.20	1.246
312.67	1.238
313.13	1.239
313.60	1.238
314.07	1.234
314.53	1.214
315.00	1.215
315.47	1.221
315.93	1.209
316.40	1.198
316.86	1.201
317.33	1.193
317.80	1.181
318.26	1.177
318.73	1.176
319.19	1.170
319.66	1.169
320.13	1.159
320.59	1.155
321.06	1.151
321.52	1.154
321.99	1.144
322.45	1.126
322.92	1.126
323.39	1.132
323.85	1.123
324.32	1.116
324.78	1.116
325.25	1.110
325.71	1.102
326.18	1.099
326.64	1.110
327.11	1.096
327.58	1.087
328.04	1.078
328.51	1.081
328.97	1.078
329.44	1.068
329.90	1.068
330.37	1.063
330.83	1.057
331.30	1.058
331.76	1.050
332.23	1.046
332.69	1.042
333.16	1.033
333.62	1.036
334.09	1.030
334.56	1.027
335.02	1.013
335.49	1.017
335.95	1.011
336.42	1.000
336.88	1.005
337.35	0.994
337.81	0.990
338.28	0.990
338.74	0.989
339.20	0.984
339.67	0.977
340.13	0.975
340.60	0.967
341.06	0.956
341.53	0.959
341.99	0.956
342.46	0.951
342.92	0.945
343.39	0.937
343.85	0.937
344.32	0.926
344.78	0.923
345.25	0.917
345.71	0.914
346.17	0.915
346.64	0.904
347.10	0.900
347.57	0.884
348.03	0.885
348.50	0.874
348.96	0.864
349.43	0.860
349.89	0.856
350.35	0.845
350.82	0.841
351.28	0.842
351.75	0.837
352.21	0.830
352.67	0.815
353.14	0.808
353.60	0.793
354.07	0.796
354.53	0.793
355.00	0.775
355.46	0.773
355.92	0.757
356.39	0.746
356.85	0.745
357.31	0.733
357.78	0.727
358.24	0.724
358.71	0.714
359.17	0.706
359.63	0.702
360.10	0.698
360.56	0.694
361.03	0.687
361.49	0.685
361.95	0.676
362.42	0.668
362.88	0.667
363.34	0.662
363.81	0.656
364.27	0.653
364.73	0.648
365.20	0.649
365.66	0.643
366.12	0.639
366.59	0.642
367.05	0.638
367.51	0.634
367.98	0.626
368.44	0.625
368.90	0.626
369.37	0.617
369.83	0.613
370.29	0.615
370.76	0.613
371.22	0.613
371.68	0.610
372.15	0.603
372.61	0.601
373.07	0.601
373.54	0.601
374.00	0.599
374.46	0.594
374.92	0.595
375.39	0.593
375.85	0.590
376.31	0.589
376.78	0.590
377.24	0.586
377.70	0.585
378.16	0.576
378.63	0.574
379.09	0.580
379.55	0.577
380.01	0.573
380.48	0.571
380.94	0.568
381.40	0.570
381.87	0.564
382.33	0.564
382.79	0.562
383.25	0.560
383.72	0.562
384.18	0.558
384.64	0.554
385.10	0.555
385.56	0.555
386.03	0.552
386.49	0.549
386.95	0.545
387.41	0.548
387.88	0.546
388.34	0.541
388.80	0.540
389.26	0.540
389.72	0.540
390.19	0.542
390.65	0.538
391.11	0.536
391.57	0.532
392.04	0.528
392.50	0.527
392.96	0.526
393.42	0.525
393.88	0.526
394.34	0.524
394.81	0.524
395.27	0.519
395.73	0.518
396.19	0.516
396.65	0.516
397.12	0.514
397.58	0.514
398.04	0.511
398.50	0.509
398.96	0.507
399.42	0.508
399.89	0.505
400.35	0.507
400.81	0.501
401.27	0.500
401.73	0.501
402.19	0.498
402.65	0.497
403.12	0.493
403.58	0.491
404.04	0.490
404.50	0.495
404.96	0.488
405.42	0.490
405.88	0.492
406.34	0.488
406.81	0.485
407.27	0.486
407.73	0.482
408.19	0.481
408.65	0.480
409.11	0.478
409.57	0.479
410.03	0.476
410.49	0.478
410.96	0.473
411.42	0.474
411.88	0.471
412.34	0.467
412.80	0.470
413.26	0.460
413.72	0.466
414.18	0.462
414.64	0.465
415.10	0.463
415.56	0.463
416.02	0.461
416.48	0.460
416.95	0.455
417.41	0.452
417.87	0.451
418.33	0.455
418.79	0.450
419.25	0.449
419.71	0.449
420.17	0.448
420.63	0.447
421.09	0.444
421.55	0.445
422.01	0.447
422.47	0.444
422.93	0.445
423.39	0.443
423.85	0.443
424.31	0.440
424.77	0.440
425.23	0.440
425.69	0.441
426.15	0.436
426.61	0.434
427.07	0.431
427.53	0.430
427.99	0.429
428.45	0.429
428.91	0.428
429.37	0.425
429.83	0.426
430.29	0.425
430.75	0.426
431.21	0.423
431.67	0.425
432.13	0.422
432.59	0.419
433.05	0.417
433.51	0.415
433.97	0.418
434.43	0.420
434.89	0.419
435.35	0.415
435.81	0.413
436.27	0.411
436.73	0.409
437.19	0.410
437.65	0.413
438.11	0.409
438.57	0.409
439.03	0.410
439.48	0.406
439.94	0.407
440.40	0.405
440.86	0.407
441.32	0.402
441.78	0.404
442.24	0.403
442.70	0.399
443.16	0.401
443.62	0.395
444.08	0.396
444.54	0.397
444.99	0.391
445.45	0.391
445.91	0.392
446.37	0.394
446.83	0.389
447.29	0.390
447.75	0.390
448.21	0.390
448.67	0.385
449.12	0.385
449.58	0.388
450.04	0.385
450.50	0.384
450.96	0.385
451.42	0.381
451.88	0.379
452.34	0.382
452.79	0.380
453.25	0.381
453.71	0.377
454.17	0.377
454.63	0.376
455.09	0.380
455.55	0.377
456.00	0.374
456.46	0.370
456.92	0.372
457.38	0.373
457.84	0.368
458.30	0.368
458.75	0.366
459.21	0.364
459.67	0.368
460.13	0.365
460.59	0.364
461.04	0.363
461.50	0.364
461.96	0.364
462.42	0.363
462.88	0.363
463.33	0.360
463.79	0.357
464.25	0.358
464.71	0.358
465.17	0.357
465.62	0.356
466.08	0.357
466.54	0.358
467.00	0.354
467.46	0.356
467.91	0.354
468.37	0.354
468.83	0.354
469.29	0.352
469.74	0.351
470.20	0.349
470.66	0.350
471.12	0.347
471.57	0.348
472.03	0.345
472.49	0.348
472.95	0.348
473.40	0.346
473.86	0.343
474.32	0.341
474.78	0.340
475.23	0.341
475.69	0.342
476.15	0.339
476.60	0.343
477.06	0.338
477.52	0.338
477.98	0.336
478.43	0.336
478.89	0.337
479.35	0.334
479.80	0.338
480.26	0.333
480.72	0.333
481.18	0.334
481.63	0.332
482.09	0.331
482.55	0.331
483.00	0.327
483.46	0.330
483.92	0.328
484.37	0.329
484.83	0.327
485.29	0.325
485.74	0.325
486.20	0.325
486.66	0.325
487.11	0.325
487.57	0.324
488.03	0.324
488.48	0.323
488.94	0.321
489.40	0.322
489.85	0.322
490.31	0.322
490.77	0.321
491.22	0.320
491.68	0.317
492.13	0.317
492.59	0.316
493.05	0.317
493.50	0.317
493.96	0.316
494.42	0.316
494.87	0.314
495.33	0.311
495.78	0.315
496.24	0.316
496.70	0.313
497.15	0.312
497.61	0.310
498.06	0.308
498.52	0.310
498.98	0.309
499.43	0.311
499.89	0.308
500.34	0.307
500.80	0.306
501.25	0.307
501.71	0.305
502.17	0.303
502.62	0.307
503.08	0.302
503.53	0.301
503.99	0.300
504.44	0.302
504.90	0.302
505.36	0.298
505.81	0.302
506.27	0.300
506.72	0.301
507.18	0.298
507.63	0.298
508.09	0.298
508.54	0.296
509.00	0.297
509.45	0.298
509.91	0.296
510.36	0.294
510.82	0.295
511.27	0.294
511.73	0.296
512.19	0.293
512.64	0.291
513.10	0.292
513.55	0.291
514.01	0.291
514.46	0.291
514.92	0.289
515.37	0.289
515.83	0.288
516.28	0.288
516.73	0.286
517.19	0.286
517.64	0.283
518.10	0.286
518.55	0.286
519.01	0.284
519.46	0.284
519.92	0.285
520.37	0.280
520.83	0.283
521.28	0.283
521.74	0.282
522.19	0.280
522.65	0.279
523.10	0.280
523.55	0.280
524.01	0.282
524.46	0.280
524.92	0.276
525.37	0.279
525.83	0.277
526.28	0.277
526.73	0.276
527.19	0.279
527.64	0.279
528.10	0.276
528.55	0.274
529.01	0.276
529.46	0.275
529.91	0.272
530.37	0.273
530.82	0.274
531.28	0.271
531.73	0.271
532.18	0.271
532.64	0.273
533.09	0.269
533.54	0.269
534.00	0.268
534.45	0.272
534.91	0.272
535.36	0.269
535.81	0.269
536.27	0.266
536.72	0.270
537.17	0.269
537.63	0.268
538.08	0.265
538.54	0.267
538.99	0.267
539.44	0.265
539.90	0.266
540.35	0.264
540.80	0.262
541.26	0.264
541.71	0.262
542.16	0.262
542.62	0.262
543.07	0.263
543.52	0.261
543.98	0.262
544.43	0.261
544.88	0.258
545.34	0.260
545.79	0.260
546.24	0.259
546.69	0.263
547.15	0.260
547.60	0.258
548.05	0.261
548.51	0.258
548.96	0.258
549.41	0.260
549.86	0.256
550.32	0.257
550.77	0.260
551.22	0.257
551.68	0.255
552.13	0.255
552.58	0.254
553.03	0.255
553.49	0.256
553.94	0.257
554.39	0.254
554.84	0.254
555.30	0.254
555.75	0.252
556.20	0.253
556.65	0.251
557.11	0.253
557.56	0.251
558.01	0.253
558.46	0.253
558.92	0.252
559.37	0.251
559.82	0.252
560.27	0.251
560.72	0.249
561.18	0.249
561.63	0.248
562.08	0.248
562.53	0.251
562.99	0.251
563.44	0.249
563.89	0.249
564.34	0.249
564.79	0.247
565.25	0.246
565.70	0.248
566.15	0.245
566.60	0.245
567.05	0.247
567.50	0.246
567.96	0.245
568.41	0.246
568.86	0.245
569.31	0.243
569.76	0.243
570.21	0.245
570.67	0.245
571.12	0.246
571.57	0.243
572.02	0.244
572.47	0.242
572.92	0.244
573.37	0.243
573.83	0.241
574.28	0.241
574.73	0.240
575.18	0.242
575.63	0.241
576.08	0.239
576.53	0.239
576.98	0.241
577.44	0.238
577.89	0.241
578.34	0.240
578.79	0.239
579.24	0.238
579.69	0.239
580.14	0.237
580.59	0.235
581.04	0.238
581.49	0.237
581.95	0.237
582.40	0.235
582.85	0.237
583.30	0.236
583.75	0.236
584.20	0.238
584.65	0.237
585.10	0.236
585.55	0.238
586.00	0.236
586.45	0.237
586.90	0.237
587.35	0.236
587.80	0.235
588.25	0.236
588.71	0.235
589.16	0.236
589.61	0.234
590.06	0.235
590.51	0.237
590.96	0.236
591.41	0.235
591.86	0.235
592.31	0.234
592.76	0.237
593.21	0.235
593.66	0.237
594.11	0.235
594.56	0.235
595.01	0.235
595.46	0.235
595.91	0.235
596.36	0.234
596.81	0.234
597.26	0.235
597.71	0.237
598.16	0.235
598.61	0.234
599.06	0.235
599.51	0.235
599.96	0.236
600.41	0.235
600.86	0.233
601.31	0.233
601.76	0.233
602.21	0.235
602.65	0.236
603.10	0.235
603.55	0.234
604.00	0.236
604.45	0.235
604.90	0.234
605.35	0.232
605.80	0.235
606.25	0.235
606.70	0.234
607.15	0.233
607.60	0.231
608.05	0.232
608.50	0.232
608.95	0.232
609.39	0.235
609.84	0.233
610.29	0.234
610.74	0.232
611.19	0.231
611.64	0.231
612.09	0.231
612.54	0.233
612.99	0.232
613.44	0.229
613.88	0.232
614.33	0.231
614.78	0.229
615.23	0.230
615.68	0.229
616.13	0.231
616.58	0.229
617.03	0.230
617.47	0.231
617.92	0.230
618.37	0.228
618.82	0.231
619.27	0.230
619.72	0.229
620.17	0.227
620.61	0.229
621.06	0.228
621.51	0.228
621.96	0.228
622.41	0.229
622.86	0.229
623.30	0.225
623.75	0.229
624.20	0.227
624.65	0.227
625.10	0.227
625.54	0.227
625.99	0.227
626.44	0.227
626.89	0.228
627.34	0.228
627.78	0.227
628.23	0.225
628.68	0.225
629.13	0.227
629.58	0.225
630.02	0.227
630.47	0.226
630.92	0.227
631.37	0.227
631.81	0.226
632.26	0.226
632.71	0.226
633.16	0.226
633.61	0.225
634.05	0.223
634.50	0.225
634.95	0.226
635.40	0.227
635.84	0.226
636.29	0.228
636.74	0.228
637.18	0.227
637.63	0.226
638.08	0.225
638.53	0.226
638.97	0.226
639.42	0.227
639.87	0.228
640.32	0.226
640.76	0.228
641.21	0.228
641.66	0.227
642.10	0.227
642.55	0.226
643.00	0.226
643.44	0.229
643.89	0.227
644.34	0.227
644.79	0.227
645.23	0.228
645.68	0.227
646.13	0.228
646.57	0.229
647.02	0.225
647.47	0.229
647.91	0.228
648.36	0.227
648.81	0.229
649.25	0.227
649.70	0.228
650.15	0.227
650.59	0.228
651.04	0.228
651.48	0.230
651.93	0.229
652.38	0.226
652.82	0.228
653.27	0.227
653.72	0.229
654.16	0.226
654.61	0.227
655.06	0.227
655.50	0.225
655.95	0.223
656.39	0.218
656.84	0.225
657.29	0.229
657.73	0.226
658.18	0.225
658.62	0.225
659.07	0.225
659.52	0.223
659.96	0.227
660.41	0.227
660.85	0.225
661.30	0.226
661.74	0.222
662.19	0.224
662.64	0.224
663.08	0.223
663.53	0.222
663.97	0.223
664.42	0.221
664.86	0.220
665.31	0.221
665.75	0.219
666.20	0.220
666.65	0.221
667.09	0.218
667.54	0.220
667.98	0.217
668.43	0.216
668.87	0.217
669.32	0.212
669.76	0.212
670.21	0.215
670.65	0.213
671.10	0.211
671.54	0.210
671.99	0.209
672.43	0.208
672.88	0.208
673.32	0.207
673.77	0.203
674.21	0.206
674.66	0.205
675.10	0.202
675.55	0.200
675.99	0.201
676.44	0.198
676.88	0.201
677.33	0.200
677.77	0.197
678.22	0.196
678.66	0.192
679.11	0.193
679.55	0.194
679.99	0.191
680.44	0.193
680.88	0.190
681.33	0.188
681.77	0.187
682.22	0.187
682.66	0.186
683.11	0.185
683.55	0.182
683.99	0.182
684.44	0.180
684.88	0.179
685.33	0.177
685.77	0.177
686.21	0.175
686.66	0.176
687.10	0.174
687.55	0.173
687.99	0.174
688.44	0.174
688.88	0.173
689.32	0.173
689.77	0.170
690.21	0.168
690.65	0.168
691.10	0.168
691.54	0.168
691.99	0.169
692.43	0.166
692.87	0.165
693.32	0.167
693.76	0.166
694.20	0.164
694.65	0.165
695.09	0.164
695.53	0.163
695.98	0.163
696.42	0.162
696.86	0.162
697.31	0.159
697.75	0.159
698.19	0.160
698.64	0.159
699.08	0.159
699.52	0.159
699.97	0.160
700.41	0.159
700.85	0.160
701.30	0.156
701.74	0.157
702.18	0.158
702.63	0.157
703.07	0.157
703.51	0.157
703.96	0.157
704.40	0.156
704.84	0.157
705.28	0.155
705.73	0.155
706.17	0.156
706.61	0.155
707.06	0.155
707.50	0.154
707.94	0.155
708.38	0.152
708.83	0.156
709.27	0.154
709.71	0.153
710.15	0.154
710.60	0.151
711.04	0.150
711.48	0.152
711.92	0.152
712.37	0.152
712.81	0.155
713.25	0.152
713.69	0.152
714.13	0.155
714.58	0.153
715.02	0.150
715.46	0.149
715.90	0.149
716.35	0.149
716.79	0.150
717.23	0.152
717.67	0.150
718.11	0.151
718.56	0.150
719.00	0.150
719.44	0.152
719.88	0.152
720.32	0.150
720.76	0.152
721.21	0.149
721.65	0.149
722.09	0.151
722.53	0.151
722.97	0.152
723.41	0.150
723.86	0.151
724.30	0.150
724.74	0.151
725.18	0.149
725.62	0.150
726.06	0.152
726.50	0.149
726.95	0.148
727.39	0.150
727.83	0.148
728.27	0.149
728.71	0.147
729.15	0.151
729.59	0.148
730.03	0.147
730.48	0.148
730.92	0.149
731.36	0.149
731.80	0.150
732.24	0.151
732.68	0.146
733.12	0.146
733.56	0.147
734.00	0.148
734.44	0.149
734.89	0.147
735.33	0.148
735.77	0.153
736.21	0.150
736.65	0.147
737.09	0.150
737.53	0.150
737.97	0.151
738.41	0.151
738.85	0.152
739.29	0.151
739.73	0.148
740.17	0.150
740.61	0.148
741.05	0.152
741.49	0.150
741.93	0.149
742.37	0.147
742.81	0.148
743.26	0.151
743.70	0.150
744.14	0.146
744.58	0.145
745.02	0.147
745.46	0.148
745.90	0.146
746.34	0.147
746.78	0.148
747.22	0.148
747.66	0.148
748.10	0.148
748.54	0.145
748.98	0.144
749.42	0.144
749.86	0.147
750.29	0.143
750.73	0.143
751.17	0.144
751.61	0.144
752.05	0.147
752.49	0.142
752.93	0.142
753.37	0.143
753.81	0.142
754.25	0.142
754.69	0.140
755.13	0.143
755.57	0.145
756.01	0.142
756.45	0.144
756.89	0.143
757.33	0.143
757.77	0.142
758.21	0.143
758.64	0.143
759.08	0.140
759.52	0.142
759.96	0.146
760.40	0.141
760.84	0.140
761.28	0.140
761.72	0.141
762.16	0.141
762.60	0.139
763.03	0.138
763.47	0.140
763.91	0.143
764.35	0.139
764.79	0.141
765.23	0.140
765.67	0.141
766.11	0.137
766.54	0.137
766.98	0.140
767.42	0.139
767.86	0.137
768.30	0.139
768.74	0.140
769.17	0.143
769.61	0.141
770.05	0.139
770.49	0.139
770.93	0.139
771.37	0.136
771.80	0.137
772.24	0.137
772.68	0.136
773.12	0.134
773.56	0.139
774.00	0.137
774.43	0.134
774.87	0.137
775.31	0.135
775.75	0.135
776.19	0.135
776.62	0.134
777.06	0.138
777.50	0.136
777.94	0.134
778.37	0.136
778.81	0.136
779.25	0.139
779.69	0.135
780.13	0.137
780.56	0.136
781.00	0.135
781.44	0.131
781.88	0.136
782.31	0.136
782.75	0.134
783.19	0.138
783.63	0.137
784.06	0.132
784.50	0.137
784.94	0.136
785.37	0.138
785.81	0.136
786.25	0.134
786.69	0.134
787.12	0.136
787.56	0.131
788.00	0.134
788.43	0.137
788.87	0.133
789.31	0.134
789.75	0.133
790.18	0.132
790.62	0.132
791.06	0.135
791.49	0.134
791.93	0.131
792.37	0.137
792.80	0.131
793.24	0.134
793.68	0.133
794.11	0.132
794.55	0.132
794.99	0.134
795.42	0.132
795.86	0.136
796.30	0.131
796.73	0.131
797.17	0.133
797.61	0.131
798.04	0.132
798.48	0.131
798.91	0.131
799.35	0.130
799.79	0.134
800.22	0.130
800.66	0.130
801.10	0.134
801.53	0.131
801.97	0.136
802.40	0.133
802.84	0.132
803.28	0.127
803.71	0.130
804.15	0.128
804.58	0.132
805.02	0.131
805.46	0.129
805.89	0.132
806.33	0.131
806.76	0.127
807.20	0.133
807.63	0.128
808.07	0.134
808.51	0.131
808.94	0.127
809.38	0.127
809.81	0.128
810.25	0.133
810.68	0.132
811.12	0.130
811.55	0.134
811.99	0.128
812.42	0.130
812.86	0.127
813.29	0.126
813.73	0.130
814.17	0.129
814.60	0.128
