SpectraSuite Data File
++++++++++++++++++++++++++++++++++++
Date: Sun Apr 24 15:05:33 CEST 2016
User: spectrasuite
Dark Spectrum Present: Yes
Reference Spectrum Present: Yes
Number of Sampled Component Spectra: 1
Spectrometers: HR+C0708
Integration Time (usec): 1000 (HR+C0708)
Spectra Averaged: 10 (HR+C0708)
Boxcar Smoothing: 0 (HR+C0708)
Correct for Electrical Dark: No (HR+C0708)
Strobe/Lamp Enabled: No (HR+C0708)
Correct for Detector Non-linearity: No (HR+C0708)
Correct for Stray Light: No (HR+C0708)
Number of Pixels in Processed Spectrum: 2048
>>>>>Begin Processed Spectral Data<<<<<
188.76	-0.000
189.23	-0.000
189.70	-0.000
190.17	-0.000
190.64	-0.000
191.12	-0.000
191.59	-0.000
192.06	-0.000
192.53	-0.000
193.01	-0.000
193.48	-0.000
193.95	-0.000
194.42	-0.000
194.90	-0.000
195.37	-0.000
195.84	-0.000
196.31	-0.000
196.78	-0.000
197.26	-0.000
197.73	-0.000
198.20	-0.000
198.67	-0.000
199.14	-0.000
199.62	-0.000
200.09	-0.000
200.56	-0.000
201.03	-0.000
201.50	-0.000
201.97	1.962
202.45	1.008
202.92	0.936
203.39	0.952
203.86	1.458
204.33	1.288
204.80	-0.000
205.28	1.441
205.75	-0.000
206.22	-0.000
206.69	1.273
207.16	-0.000
207.63	-0.000
208.11	0.971
208.58	1.440
209.05	1.633
209.52	-0.000
209.99	1.117
210.46	1.090
210.93	-0.000
211.41	1.419
211.88	1.470
212.35	1.319
212.82	-0.000
213.29	1.678
213.76	2.059
214.23	-0.000
214.70	-0.000
215.18	1.353
215.65	1.120
216.12	-0.000
216.59	-0.000
217.06	-0.000
217.53	0.919
218.00	2.475
218.47	1.295
218.94	-0.000
219.41	-0.000
219.89	-0.000
220.36	1.138
220.83	-0.000
221.30	-0.000
221.77	1.497
222.24	-0.000
222.71	-0.000
223.18	-0.000
223.65	1.350
224.12	-0.000
224.59	-0.000
225.06	2.128
225.54	1.277
226.01	1.979
226.48	1.767
226.95	1.730
227.42	2.650
227.89	-0.000
228.36	1.365
228.83	2.251
229.30	2.009
229.77	2.292
230.24	1.960
230.71	-0.000
231.18	-0.000
231.65	2.105
232.12	1.923
232.59	-0.000
233.06	3.087
233.53	-0.000
234.00	1.957
234.47	2.695
234.94	-0.000
235.41	2.929
235.88	2.459
236.35	2.920
236.82	2.571
237.29	2.220
237.76	-0.000
238.23	-0.000
238.70	2.770
239.17	2.501
239.64	2.973
240.11	-0.000
240.58	2.717
241.05	2.603
241.52	3.499
241.99	-0.000
242.46	2.425
242.93	3.787
243.40	-0.000
243.87	2.454
244.34	2.382
244.81	2.759
245.28	-0.000
245.75	-0.000
246.22	3.588
246.69	2.929
247.16	2.909
247.63	3.044
248.10	2.985
248.57	-0.000
249.04	-0.000
249.51	2.934
249.98	-0.000
250.45	3.169
250.92	3.140
251.39	-0.000
251.85	-0.000
252.32	-0.000
252.79	3.594
253.26	3.010
253.73	-0.000
254.20	3.149
254.67	2.911
255.14	2.987
255.61	2.993
256.08	-0.000
256.55	3.234
257.02	2.995
257.49	3.221
257.95	3.048
258.42	3.179
258.89	3.022
259.36	2.889
259.83	-0.000
260.30	4.160
260.77	-0.000
261.24	3.418
261.71	3.413
262.17	3.245
262.64	3.183
263.11	3.023
263.58	-0.000
264.05	3.196
264.52	2.953
264.99	3.029
265.46	-0.000
265.92	3.329
266.39	3.148
266.86	3.646
267.33	3.260
267.80	2.688
268.27	3.187
268.74	3.033
269.20	3.268
269.67	3.085
270.14	2.884
270.61	2.928
271.08	3.197
271.55	2.775
272.01	2.725
272.48	2.845
272.95	2.877
273.42	2.825
273.89	2.906
274.36	2.836
274.82	2.741
275.29	2.559
275.76	2.744
276.23	2.779
276.70	2.657
277.16	2.645
277.63	2.708
278.10	2.606
278.57	2.570
279.04	2.648
279.50	2.819
279.97	2.761
280.44	2.549
280.91	2.547
281.38	2.558
281.84	2.634
282.31	2.763
282.78	2.670
283.25	2.454
283.72	2.466
284.18	2.599
284.65	2.593
285.12	2.504
285.59	2.414
286.05	2.580
286.52	2.482
286.99	2.460
287.46	2.489
287.92	2.438
288.39	2.342
288.86	2.450
289.33	2.395
289.79	2.439
290.26	2.421
290.73	2.344
291.20	2.445
291.66	2.409
292.13	2.380
292.60	2.326
293.07	2.329
293.53	2.259
294.00	2.307
294.47	2.302
294.93	2.351
295.40	2.341
295.87	2.266
296.34	2.279
296.80	2.210
297.27	2.244
297.74	2.248
298.20	2.243
298.67	2.187
299.14	2.284
299.60	2.234
300.07	2.214
300.54	2.177
301.01	2.183
301.47	2.125
301.94	2.097
302.41	2.145
302.87	2.185
303.34	2.237
303.81	2.100
304.27	2.143
304.74	2.081
305.21	2.062
305.67	2.102
306.14	2.100
306.61	2.108
307.07	2.081
307.54	2.063
308.01	2.095
308.47	2.015
308.94	2.096
309.40	2.095
309.87	2.033
310.34	2.026
310.80	2.025
311.27	2.009
311.74	2.046
312.20	2.035
312.67	2.016
313.13	2.003
313.60	2.016
314.07	2.023
314.53	1.987
315.00	1.944
315.47	2.018
315.93	1.998
316.40	1.983
316.86	1.970
317.33	1.950
317.80	1.948
318.26	1.971
318.73	1.941
319.19	1.953
319.66	1.927
320.13	1.936
320.59	1.930
321.06	1.910
321.52	1.930
321.99	1.901
322.45	1.880
322.92	1.864
323.39	1.878
323.85	1.871
324.32	1.900
324.78	1.851
325.25	1.857
325.71	1.819
326.18	1.792
326.64	1.843
327.11	1.836
327.58	1.808
328.04	1.795
328.51	1.791
328.97	1.782
329.44	1.790
329.90	1.744
330.37	1.728
330.83	1.693
331.30	1.749
331.76	1.708
332.23	1.697
332.69	1.666
333.16	1.650
333.62	1.655
334.09	1.628
334.56	1.588
335.02	1.587
335.49	1.575
335.95	1.531
336.42	1.509
336.88	1.501
337.35	1.505
337.81	1.464
338.28	1.458
338.74	1.430
339.20	1.410
339.67	1.380
340.13	1.378
340.60	1.332
341.06	1.305
341.53	1.290
341.99	1.267
342.46	1.236
342.92	1.212
343.39	1.191
343.85	1.166
344.32	1.142
344.78	1.134
345.25	1.116
345.71	1.089
346.17	1.068
346.64	1.045
347.10	1.021
347.57	0.984
348.03	0.963
348.50	0.942
348.96	0.921
349.43	0.905
349.89	0.881
350.35	0.877
350.82	0.860
351.28	0.843
351.75	0.823
352.21	0.812
352.67	0.786
353.14	0.780
353.60	0.767
354.07	0.753
354.53	0.738
355.00	0.731
355.46	0.711
355.92	0.700
356.39	0.687
356.85	0.687
357.31	0.680
357.78	0.670
358.24	0.659
358.71	0.653
359.17	0.648
359.63	0.639
360.10	0.634
360.56	0.628
361.03	0.625
361.49	0.617
361.95	0.608
362.42	0.607
362.88	0.601
363.34	0.597
363.81	0.596
364.27	0.590
364.73	0.586
365.20	0.584
365.66	0.582
366.12	0.578
366.59	0.577
367.05	0.576
367.51	0.571
367.98	0.567
368.44	0.562
368.90	0.562
369.37	0.563
369.83	0.559
370.29	0.559
370.76	0.553
371.22	0.554
371.68	0.546
372.15	0.543
372.61	0.541
373.07	0.542
373.54	0.540
374.00	0.536
374.46	0.539
374.92	0.537
375.39	0.534
375.85	0.531
376.31	0.532
376.78	0.529
377.24	0.528
377.70	0.526
378.16	0.521
378.63	0.522
379.09	0.521
379.55	0.516
380.01	0.520
380.48	0.517
380.94	0.514
381.40	0.508
381.87	0.510
382.33	0.509
382.79	0.505
383.25	0.505
383.72	0.507
384.18	0.502
384.64	0.501
385.10	0.498
385.56	0.496
386.03	0.497
386.49	0.493
386.95	0.490
387.41	0.491
387.88	0.490
388.34	0.487
388.80	0.485
389.26	0.486
389.72	0.485
390.19	0.488
390.65	0.484
391.11	0.481
391.57	0.480
392.04	0.476
392.50	0.472
392.96	0.473
393.42	0.473
393.88	0.472
394.34	0.472
394.81	0.470
395.27	0.467
395.73	0.468
396.19	0.465
396.65	0.462
397.12	0.460
397.58	0.463
398.04	0.459
398.50	0.459
398.96	0.457
399.42	0.458
399.89	0.454
400.35	0.457
400.81	0.450
401.27	0.454
401.73	0.451
402.19	0.445
402.65	0.449
403.12	0.447
403.58	0.444
404.04	0.445
404.50	0.444
404.96	0.441
405.42	0.444
405.88	0.439
406.34	0.436
406.81	0.436
407.27	0.438
407.73	0.434
408.19	0.434
408.65	0.431
409.11	0.430
409.57	0.432
410.03	0.431
410.49	0.430
410.96	0.428
411.42	0.426
411.88	0.424
412.34	0.424
412.80	0.424
413.26	0.418
413.72	0.419
414.18	0.420
414.64	0.417
415.10	0.416
415.56	0.417
416.02	0.415
416.48	0.414
416.95	0.412
417.41	0.411
417.87	0.410
418.33	0.409
418.79	0.407
419.25	0.405
419.71	0.404
420.17	0.406
420.63	0.405
421.09	0.399
421.55	0.399
422.01	0.399
422.47	0.398
422.93	0.402
423.39	0.402
423.85	0.401
424.31	0.400
424.77	0.396
425.23	0.401
425.69	0.395
426.15	0.393
426.61	0.391
427.07	0.392
427.53	0.390
427.99	0.387
428.45	0.387
428.91	0.388
429.37	0.386
429.83	0.386
430.29	0.383
430.75	0.386
431.21	0.382
431.67	0.384
432.13	0.383
432.59	0.377
433.05	0.379
433.51	0.376
433.97	0.375
434.43	0.378
434.89	0.379
435.35	0.373
435.81	0.373
436.27	0.369
436.73	0.372
437.19	0.371
437.65	0.372
438.11	0.368
438.57	0.373
439.03	0.371
439.48	0.367
439.94	0.367
440.40	0.368
440.86	0.368
441.32	0.363
441.78	0.366
442.24	0.362
442.70	0.365
443.16	0.362
443.62	0.354
444.08	0.357
444.54	0.360
444.99	0.359
445.45	0.355
445.91	0.353
446.37	0.352
446.83	0.353
447.29	0.350
447.75	0.350
448.21	0.353
448.67	0.350
449.12	0.350
449.58	0.350
450.04	0.347
450.50	0.349
450.96	0.347
451.42	0.346
451.88	0.342
452.34	0.344
452.79	0.346
453.25	0.344
453.71	0.342
454.17	0.339
454.63	0.343
455.09	0.340
455.55	0.342
456.00	0.336
456.46	0.337
456.92	0.336
457.38	0.336
457.84	0.332
458.30	0.333
458.75	0.336
459.21	0.330
459.67	0.336
460.13	0.331
460.59	0.329
461.04	0.330
461.50	0.328
461.96	0.327
462.42	0.328
462.88	0.325
463.33	0.326
463.79	0.326
464.25	0.328
464.71	0.325
465.17	0.324
465.62	0.322
466.08	0.323
466.54	0.323
467.00	0.323
467.46	0.323
467.91	0.320
468.37	0.322
468.83	0.317
469.29	0.319
469.74	0.319
470.20	0.319
470.66	0.314
471.12	0.313
471.57	0.315
472.03	0.314
472.49	0.313
472.95	0.312
473.40	0.311
473.86	0.310
474.32	0.309
474.78	0.310
475.23	0.308
475.69	0.311
476.15	0.307
476.60	0.309
477.06	0.308
477.52	0.305
477.98	0.304
478.43	0.306
478.89	0.306
479.35	0.303
479.80	0.304
480.26	0.304
480.72	0.300
481.18	0.305
481.63	0.299
482.09	0.302
482.55	0.299
483.00	0.298
483.46	0.299
483.92	0.296
484.37	0.297
484.83	0.292
485.29	0.296
485.74	0.296
486.20	0.295
486.66	0.294
487.11	0.295
487.57	0.292
488.03	0.293
488.48	0.291
488.94	0.289
489.40	0.291
489.85	0.291
490.31	0.290
490.77	0.288
491.22	0.290
491.68	0.287
492.13	0.287
492.59	0.288
493.05	0.287
493.50	0.287
493.96	0.285
494.42	0.283
494.87	0.281
495.33	0.280
495.78	0.284
496.24	0.284
496.70	0.283
497.15	0.283
497.61	0.281
498.06	0.281
498.52	0.278
498.98	0.279
499.43	0.280
499.89	0.278
500.34	0.278
500.80	0.279
501.25	0.276
501.71	0.276
502.17	0.275
502.62	0.279
503.08	0.275
503.53	0.273
503.99	0.273
504.44	0.275
504.90	0.271
505.36	0.270
505.81	0.271
506.27	0.270
506.72	0.271
507.18	0.272
507.63	0.270
508.09	0.270
508.54	0.269
509.00	0.269
509.45	0.268
509.91	0.267
510.36	0.266
510.82	0.266
511.27	0.268
511.73	0.266
512.19	0.264
512.64	0.265
513.10	0.264
513.55	0.265
514.01	0.262
514.46	0.262
514.92	0.262
515.37	0.259
515.83	0.262
516.28	0.260
516.73	0.259
517.19	0.258
517.64	0.256
518.10	0.257
518.55	0.256
519.01	0.256
519.46	0.255
519.92	0.256
520.37	0.254
520.83	0.254
521.28	0.254
521.74	0.253
522.19	0.254
522.65	0.255
523.10	0.255
523.55	0.253
524.01	0.253
524.46	0.252
524.92	0.250
525.37	0.249
525.83	0.251
526.28	0.251
526.73	0.251
527.19	0.252
527.64	0.252
528.10	0.247
528.55	0.247
529.01	0.252
529.46	0.249
529.91	0.247
530.37	0.246
530.82	0.245
531.28	0.245
531.73	0.244
532.18	0.245
532.64	0.247
533.09	0.244
533.54	0.240
534.00	0.241
534.45	0.243
534.91	0.244
535.36	0.243
535.81	0.243
536.27	0.241
536.72	0.242
537.17	0.241
537.63	0.242
538.08	0.236
538.54	0.242
538.99	0.239
539.44	0.241
539.90	0.238
540.35	0.236
540.80	0.238
541.26	0.238
541.71	0.236
542.16	0.236
542.62	0.233
543.07	0.235
543.52	0.236
543.98	0.235
544.43	0.234
544.88	0.232
545.34	0.232
545.79	0.232
546.24	0.231
546.69	0.233
547.15	0.230
547.60	0.229
548.05	0.232
548.51	0.229
548.96	0.229
549.41	0.233
549.86	0.229
550.32	0.229
550.77	0.231
551.22	0.229
551.68	0.224
552.13	0.225
552.58	0.226
553.03	0.226
553.49	0.226
553.94	0.224
554.39	0.226
554.84	0.226
555.30	0.225
555.75	0.224
556.20	0.224
556.65	0.222
557.11	0.223
557.56	0.221
558.01	0.224
558.46	0.222
558.92	0.222
559.37	0.220
559.82	0.221
560.27	0.221
560.72	0.220
561.18	0.219
561.63	0.219
562.08	0.218
562.53	0.219
562.99	0.220
563.44	0.217
563.89	0.218
564.34	0.216
564.79	0.217
565.25	0.217
565.70	0.214
566.15	0.214
566.60	0.214
567.05	0.213
567.50	0.214
567.96	0.214
568.41	0.214
568.86	0.213
569.31	0.211
569.76	0.210
570.21	0.212
570.67	0.212
571.12	0.213
571.57	0.211
572.02	0.209
572.47	0.208
572.92	0.208
573.37	0.210
573.83	0.209
574.28	0.209
574.73	0.206
575.18	0.209
575.63	0.208
576.08	0.206
576.53	0.207
576.98	0.207
577.44	0.204
577.89	0.205
578.34	0.206
578.79	0.204
579.24	0.204
579.69	0.204
580.14	0.202
580.59	0.203
581.04	0.202
581.49	0.202
581.95	0.200
582.40	0.201
582.85	0.201
583.30	0.198
583.75	0.199
584.20	0.202
584.65	0.198
585.10	0.198
585.55	0.200
586.00	0.199
586.45	0.198
586.90	0.199
587.35	0.198
587.80	0.197
588.25	0.196
588.71	0.198
589.16	0.198
589.61	0.196
590.06	0.196
590.51	0.197
590.96	0.194
591.41	0.195
591.86	0.197
592.31	0.194
592.76	0.195
593.21	0.194
593.66	0.194
594.11	0.193
594.56	0.193
595.01	0.194
595.46	0.192
595.91	0.193
596.36	0.194
596.81	0.192
597.26	0.192
597.71	0.192
598.16	0.191
598.61	0.191
599.06	0.191
599.51	0.193
599.96	0.190
600.41	0.191
600.86	0.190
601.31	0.191
601.76	0.191
602.21	0.190
602.65	0.192
603.10	0.189
603.55	0.188
604.00	0.188
604.45	0.186
604.90	0.189
605.35	0.188
605.80	0.187
606.25	0.189
606.70	0.186
607.15	0.184
607.60	0.187
608.05	0.184
608.50	0.186
608.95	0.184
609.39	0.187
609.84	0.184
610.29	0.185
610.74	0.184
611.19	0.184
611.64	0.183
612.09	0.184
612.54	0.182
612.99	0.182
613.44	0.182
613.88	0.183
614.33	0.183
614.78	0.181
615.23	0.180
615.68	0.181
616.13	0.182
616.58	0.182
617.03	0.182
617.47	0.181
617.92	0.181
618.37	0.177
618.82	0.180
619.27	0.179
619.72	0.179
620.17	0.175
620.61	0.176
621.06	0.176
621.51	0.177
621.96	0.175
622.41	0.176
622.86	0.177
623.30	0.176
623.75	0.176
624.20	0.177
624.65	0.176
625.10	0.175
625.54	0.173
625.99	0.176
626.44	0.175
626.89	0.175
627.34	0.176
627.78	0.174
628.23	0.173
628.68	0.173
629.13	0.173
629.58	0.172
630.02	0.172
630.47	0.172
630.92	0.173
631.37	0.172
631.81	0.173
632.26	0.171
632.71	0.172
633.16	0.169
633.61	0.170
634.05	0.170
634.50	0.170
634.95	0.171
635.40	0.170
635.84	0.170
636.29	0.167
636.74	0.170
637.18	0.172
637.63	0.169
638.08	0.168
638.53	0.168
638.97	0.169
639.42	0.170
639.87	0.169
640.32	0.168
640.76	0.169
641.21	0.168
641.66	0.167
642.10	0.167
642.55	0.166
643.00	0.164
643.44	0.165
643.89	0.167
644.34	0.166
644.79	0.166
645.23	0.166
645.68	0.166
646.13	0.166
646.57	0.164
647.02	0.164
647.47	0.167
647.91	0.165
648.36	0.164
648.81	0.164
649.25	0.162
649.70	0.162
650.15	0.161
650.59	0.163
651.04	0.161
651.48	0.165
651.93	0.162
652.38	0.161
652.82	0.162
653.27	0.162
653.72	0.163
654.16	0.161
654.61	0.162
655.06	0.159
655.50	0.160
655.95	0.159
656.39	0.154
656.84	0.157
657.29	0.162
657.73	0.159
658.18	0.158
658.62	0.160
659.07	0.159
659.52	0.158
659.96	0.159
660.41	0.161
660.85	0.157
661.30	0.155
661.74	0.158
662.19	0.157
662.64	0.159
663.08	0.158
663.53	0.156
663.97	0.156
664.42	0.156
664.86	0.158
665.31	0.156
665.75	0.154
666.20	0.157
666.65	0.156
667.09	0.156
667.54	0.156
667.98	0.156
668.43	0.155
668.87	0.153
669.32	0.154
669.76	0.155
670.21	0.155
670.65	0.151
671.10	0.156
671.54	0.155
671.99	0.152
672.43	0.152
672.88	0.153
673.32	0.153
673.77	0.152
674.21	0.151
674.66	0.152
675.10	0.150
675.55	0.150
675.99	0.152
676.44	0.151
676.88	0.152
677.33	0.152
677.77	0.151
678.22	0.150
678.66	0.150
679.11	0.149
679.55	0.151
679.99	0.149
680.44	0.152
680.88	0.149
681.33	0.150
681.77	0.148
682.22	0.150
682.66	0.151
683.11	0.150
683.55	0.148
683.99	0.151
684.44	0.149
684.88	0.148
685.33	0.149
685.77	0.148
686.21	0.148
686.66	0.148
687.10	0.148
687.55	0.147
687.99	0.148
688.44	0.150
688.88	0.148
689.32	0.149
689.77	0.145
690.21	0.145
690.65	0.145
691.10	0.146
691.54	0.147
691.99	0.147
692.43	0.145
692.87	0.146
693.32	0.146
693.76	0.147
694.20	0.147
694.65	0.146
695.09	0.147
695.53	0.147
695.98	0.145
696.42	0.146
696.86	0.144
697.31	0.143
697.75	0.144
698.19	0.142
698.64	0.145
699.08	0.143
699.52	0.143
699.97	0.144
700.41	0.143
700.85	0.144
701.30	0.142
701.74	0.145
702.18	0.142
702.63	0.141
703.07	0.141
703.51	0.143
703.96	0.141
704.40	0.142
704.84	0.145
705.28	0.141
705.73	0.144
706.17	0.142
706.61	0.141
707.06	0.140
707.50	0.140
707.94	0.143
708.38	0.139
708.83	0.143
709.27	0.141
709.71	0.140
710.15	0.142
710.60	0.141
711.04	0.139
711.48	0.142
711.92	0.141
712.37	0.139
712.81	0.141
713.25	0.139
713.69	0.139
714.13	0.142
714.58	0.141
715.02	0.139
715.46	0.137
715.90	0.138
716.35	0.136
716.79	0.141
717.23	0.141
717.67	0.141
718.11	0.140
718.56	0.140
719.00	0.140
719.44	0.141
719.88	0.140
720.32	0.140
720.76	0.138
721.21	0.138
721.65	0.139
722.09	0.140
722.53	0.140
722.97	0.140
723.41	0.138
723.86	0.139
724.30	0.139
724.74	0.141
725.18	0.140
725.62	0.138
726.06	0.139
726.50	0.137
726.95	0.139
727.39	0.140
727.83	0.138
728.27	0.139
728.71	0.139
729.15	0.139
729.59	0.140
730.03	0.138
730.48	0.138
730.92	0.140
731.36	0.138
731.80	0.138
732.24	0.142
732.68	0.137
733.12	0.136
733.56	0.139
734.00	0.137
734.44	0.138
734.89	0.140
735.33	0.142
735.77	0.141
736.21	0.141
736.65	0.138
737.09	0.140
737.53	0.140
737.97	0.140
738.41	0.138
738.85	0.143
739.29	0.139
739.73	0.137
740.17	0.139
740.61	0.139
741.05	0.140
741.49	0.139
741.93	0.138
742.37	0.137
742.81	0.138
743.26	0.139
743.70	0.140
744.14	0.138
744.58	0.136
745.02	0.139
745.46	0.138
745.90	0.138
746.34	0.138
746.78	0.140
747.22	0.138
747.66	0.137
748.10	0.137
748.54	0.138
748.98	0.137
749.42	0.136
749.86	0.137
750.29	0.137
750.73	0.135
751.17	0.135
751.61	0.136
752.05	0.139
752.49	0.134
752.93	0.134
753.37	0.135
753.81	0.135
754.25	0.133
754.69	0.135
755.13	0.132
755.57	0.136
756.01	0.136
756.45	0.136
756.89	0.134
757.33	0.135
757.77	0.134
758.21	0.135
758.64	0.132
759.08	0.132
759.52	0.133
759.96	0.136
760.40	0.134
760.84	0.132
761.28	0.133
761.72	0.132
762.16	0.133
762.60	0.131
763.03	0.133
763.47	0.130
763.91	0.131
764.35	0.128
764.79	0.131
765.23	0.129
765.67	0.131
766.11	0.127
766.54	0.127
766.98	0.133
767.42	0.132
767.86	0.127
768.30	0.129
768.74	0.134
769.17	0.133
769.61	0.131
770.05	0.132
770.49	0.131
770.93	0.134
771.37	0.130
771.80	0.127
772.24	0.130
772.68	0.130
773.12	0.129
773.56	0.128
774.00	0.128
774.43	0.129
774.87	0.128
775.31	0.127
775.75	0.129
776.19	0.129
776.62	0.129
777.06	0.129
777.50	0.128
777.94	0.128
778.37	0.125
778.81	0.126
779.25	0.130
779.69	0.129
780.13	0.129
780.56	0.125
781.00	0.126
781.44	0.130
781.88	0.123
782.31	0.127
782.75	0.126
783.19	0.128
783.63	0.125
784.06	0.128
784.50	0.127
784.94	0.129
785.37	0.126
785.81	0.126
786.25	0.127
786.69	0.125
787.12	0.126
787.56	0.125
788.00	0.125
788.43	0.130
788.87	0.125
789.31	0.122
789.75	0.124
790.18	0.125
790.62	0.125
791.06	0.124
791.49	0.127
791.93	0.122
792.37	0.126
792.80	0.124
793.24	0.125
793.68	0.126
794.11	0.125
794.55	0.128
794.99	0.126
795.42	0.125
795.86	0.127
796.30	0.128
796.73	0.126
797.17	0.124
797.61	0.121
798.04	0.124
798.48	0.127
798.91	0.123
799.35	0.121
799.79	0.128
800.22	0.125
800.66	0.122
801.10	0.124
801.53	0.124
801.97	0.127
802.40	0.123
802.84	0.123
803.28	0.121
803.71	0.123
804.15	0.121
804.58	0.120
805.02	0.124
805.46	0.126
805.89	0.122
806.33	0.122
806.76	0.121
807.20	0.124
807.63	0.122
808.07	0.124
808.51	0.120
808.94	0.122
809.38	0.120
809.81	0.120
810.25	0.124
810.68	0.124
811.12	0.124
811.55	0.124
811.99	0.119
812.42	0.125
812.86	0.121
813.29	0.119
813.73	0.123
814.17	0.120
814.60	0.121
815.04	0.120
815.47	0.119
