SpectraSuite Data File
++++++++++++++++++++++++++++++++++++
Date: Sun Apr 24 18:18:28 CEST 2016
User: spectrasuite
Dark Spectrum Present: Yes
Reference Spectrum Present: Yes
Number of Sampled Component Spectra: 1
Spectrometers: HR+C0708
Integration Time (usec): 1000 (HR+C0708)
Spectra Averaged: 10 (HR+C0708)
Boxcar Smoothing: 0 (HR+C0708)
Correct for Electrical Dark: No (HR+C0708)
Strobe/Lamp Enabled: No (HR+C0708)
Correct for Detector Non-linearity: No (HR+C0708)
Correct for Stray Light: No (HR+C0708)
Number of Pixels in Processed Spectrum: 2048
>>>>>Begin Processed Spectral Data<<<<<
188.76	-0.000
189.23	-0.000
189.70	-0.000
190.17	-0.000
190.64	-0.000
191.12	-0.000
191.59	-0.000
192.06	-0.000
192.53	-0.000
193.01	-0.000
193.48	-0.000
193.95	-0.000
194.42	-0.000
194.90	-0.000
195.37	-0.000
195.84	-0.000
196.31	-0.000
196.78	-0.000
197.26	-0.000
197.73	-0.000
198.20	-0.000
198.67	-0.000
199.14	-0.000
199.62	-0.000
200.09	-0.000
200.56	-0.000
201.03	-0.000
201.50	-0.000
201.97	-0.000
202.45	-0.000
202.92	1.037
203.39	-0.000
203.86	-0.000
204.33	-0.000
204.80	-0.000
205.28	-0.000
205.75	-0.000
206.22	-0.000
206.69	-0.000
207.16	-0.000
207.63	-0.000
208.11	0.649
208.58	-0.000
209.05	1.868
209.52	-0.000
209.99	-0.000
210.46	-0.000
210.93	-0.000
211.41	1.679
211.88	-0.000
212.35	-0.000
212.82	-0.000
213.29	1.096
213.76	-0.000
214.23	-0.000
214.70	-0.000
215.18	-0.000
215.65	2.141
216.12	0.820
216.59	-0.000
217.06	-0.000
217.53	-0.000
218.00	-0.000
218.47	1.268
218.94	-0.000
219.41	-0.000
219.89	-0.000
220.36	-0.000
220.83	1.713
221.30	-0.000
221.77	1.745
222.24	-0.000
222.71	-0.000
223.18	-0.000
223.65	-0.000
224.12	-0.000
224.59	-0.000
225.06	-0.000
225.54	-0.000
226.01	-0.000
226.48	2.846
226.95	-0.000
227.42	-0.000
227.89	-0.000
228.36	1.632
228.83	-0.000
229.30	2.517
229.77	-0.000
230.24	1.709
230.71	-0.000
231.18	-0.000
231.65	2.094
232.12	2.172
232.59	-0.000
233.06	-0.000
233.53	-0.000
234.00	2.018
234.47	2.741
234.94	-0.000
235.41	2.496
235.88	-0.000
236.35	-0.000
236.82	2.964
237.29	-0.000
237.76	-0.000
238.23	-0.000
238.70	2.864
239.17	2.659
239.64	-0.000
240.11	-0.000
240.58	2.829
241.05	-0.000
241.52	3.084
241.99	2.795
242.46	2.723
242.93	-0.000
243.40	3.503
243.87	3.322
244.34	2.644
244.81	-0.000
245.28	-0.000
245.75	-0.000
246.22	-0.000
246.69	-0.000
247.16	2.687
247.63	3.457
248.10	-0.000
248.57	-0.000
249.04	-0.000
249.51	-0.000
249.98	-0.000
250.45	3.458
250.92	3.708
251.39	-0.000
251.85	3.758
252.32	-0.000
252.79	-0.000
253.26	3.270
253.73	-0.000
254.20	3.263
254.67	3.038
255.14	4.008
255.61	3.609
256.08	3.029
256.55	3.051
257.02	2.841
257.49	2.847
257.95	2.592
258.42	2.664
258.89	2.549
259.36	2.473
259.83	2.556
260.30	2.526
260.77	2.559
261.24	2.327
261.71	2.502
262.17	2.315
262.64	2.276
263.11	2.335
263.58	2.417
264.05	2.244
264.52	2.222
264.99	2.223
265.46	2.201
265.92	2.194
266.39	2.171
266.86	2.218
267.33	2.149
267.80	2.027
268.27	2.146
268.74	2.063
269.20	2.064
269.67	2.086
270.14	2.038
270.61	1.979
271.08	1.977
271.55	1.964
272.01	1.966
272.48	1.946
272.95	1.909
273.42	1.898
273.89	1.903
274.36	1.880
274.82	1.863
275.29	1.850
275.76	1.849
276.23	1.873
276.70	1.851
277.16	1.790
277.63	1.796
278.10	1.766
278.57	1.791
279.04	1.788
279.50	1.757
279.97	1.752
280.44	1.724
280.91	1.726
281.38	1.710
281.84	1.721
282.31	1.696
282.78	1.701
283.25	1.688
283.72	1.651
284.18	1.653
284.65	1.654
285.12	1.631
285.59	1.636
286.05	1.623
286.52	1.609
286.99	1.606
287.46	1.585
287.92	1.579
288.39	1.573
288.86	1.576
289.33	1.553
289.79	1.548
290.26	1.558
290.73	1.527
291.20	1.530
291.66	1.521
292.13	1.518
292.60	1.499
293.07	1.484
293.53	1.476
294.00	1.472
294.47	1.464
294.93	1.462
295.40	1.471
295.87	1.440
296.34	1.438
296.80	1.424
297.27	1.418
297.74	1.398
298.20	1.407
298.67	1.389
299.14	1.386
299.60	1.366
300.07	1.357
300.54	1.349
301.01	1.343
301.47	1.330
301.94	1.327
302.41	1.321
302.87	1.318
303.34	1.328
303.81	1.303
304.27	1.293
304.74	1.285
305.21	1.275
305.67	1.280
306.14	1.254
306.61	1.253
307.07	1.244
307.54	1.237
308.01	1.233
308.47	1.238
308.94	1.230
309.40	1.216
309.87	1.207
310.34	1.206
310.80	1.203
311.27	1.191
311.74	1.186
312.20	1.190
312.67	1.174
313.13	1.165
313.60	1.167
314.07	1.160
314.53	1.148
315.00	1.142
315.47	1.144
315.93	1.135
316.40	1.129
316.86	1.124
317.33	1.121
317.80	1.120
318.26	1.107
318.73	1.110
319.19	1.094
319.66	1.091
320.13	1.091
320.59	1.089
321.06	1.083
321.52	1.081
321.99	1.075
322.45	1.069
322.92	1.061
323.39	1.059
323.85	1.058
324.32	1.054
324.78	1.049
325.25	1.042
325.71	1.037
326.18	1.027
326.64	1.035
327.11	1.031
327.58	1.027
328.04	1.025
328.51	1.016
328.97	1.018
329.44	1.001
329.90	0.996
330.37	0.999
330.83	0.995
331.30	0.999
331.76	0.989
332.23	0.981
332.69	0.978
333.16	0.967
333.62	0.967
334.09	0.964
334.56	0.967
335.02	0.961
335.49	0.945
335.95	0.944
336.42	0.940
336.88	0.935
337.35	0.939
337.81	0.935
338.28	0.929
338.74	0.918
339.20	0.920
339.67	0.921
340.13	0.912
340.60	0.904
341.06	0.901
341.53	0.895
341.99	0.896
342.46	0.891
342.92	0.885
343.39	0.883
343.85	0.870
344.32	0.872
344.78	0.868
345.25	0.868
345.71	0.869
346.17	0.863
346.64	0.861
347.10	0.853
347.57	0.843
348.03	0.837
348.50	0.829
348.96	0.824
349.43	0.822
349.89	0.814
350.35	0.803
350.82	0.806
351.28	0.799
351.75	0.794
352.21	0.794
352.67	0.787
353.14	0.774
353.60	0.764
354.07	0.761
354.53	0.763
355.00	0.747
355.46	0.748
355.92	0.737
356.39	0.734
356.85	0.728
357.31	0.714
357.78	0.721
358.24	0.706
358.71	0.702
359.17	0.701
359.63	0.697
360.10	0.689
360.56	0.682
361.03	0.682
361.49	0.673
361.95	0.669
362.42	0.668
362.88	0.662
363.34	0.650
363.81	0.655
364.27	0.651
364.73	0.649
365.20	0.644
365.66	0.640
366.12	0.639
366.59	0.633
367.05	0.626
367.51	0.633
367.98	0.624
368.44	0.622
368.90	0.622
369.37	0.621
369.83	0.612
370.29	0.612
370.76	0.608
371.22	0.608
371.68	0.607
372.15	0.598
372.61	0.597
373.07	0.596
373.54	0.599
374.00	0.595
374.46	0.592
374.92	0.589
375.39	0.591
375.85	0.586
376.31	0.589
376.78	0.583
377.24	0.579
377.70	0.581
378.16	0.580
378.63	0.575
379.09	0.578
379.55	0.571
380.01	0.570
380.48	0.568
380.94	0.569
381.40	0.564
381.87	0.564
382.33	0.560
382.79	0.565
383.25	0.558
383.72	0.562
384.18	0.558
384.64	0.551
385.10	0.553
385.56	0.554
386.03	0.552
386.49	0.547
386.95	0.546
387.41	0.546
387.88	0.541
388.34	0.541
388.80	0.538
389.26	0.539
389.72	0.540
390.19	0.536
390.65	0.535
391.11	0.534
391.57	0.530
392.04	0.526
392.50	0.524
392.96	0.527
393.42	0.523
393.88	0.524
394.34	0.522
394.81	0.520
395.27	0.516
395.73	0.517
396.19	0.514
396.65	0.515
397.12	0.510
397.58	0.510
398.04	0.507
398.50	0.509
398.96	0.507
399.42	0.509
399.89	0.506
400.35	0.503
400.81	0.502
401.27	0.502
401.73	0.500
402.19	0.496
402.65	0.498
403.12	0.498
403.58	0.492
404.04	0.493
404.50	0.492
404.96	0.488
405.42	0.488
405.88	0.487
406.34	0.483
406.81	0.484
407.27	0.480
407.73	0.481
408.19	0.480
408.65	0.477
409.11	0.475
409.57	0.480
410.03	0.472
410.49	0.474
410.96	0.476
411.42	0.471
411.88	0.466
412.34	0.468
412.80	0.467
413.26	0.463
413.72	0.460
414.18	0.463
414.64	0.462
415.10	0.464
415.56	0.461
416.02	0.459
416.48	0.458
416.95	0.453
417.41	0.454
417.87	0.455
418.33	0.454
418.79	0.450
419.25	0.449
419.71	0.450
420.17	0.449
420.63	0.445
421.09	0.445
421.55	0.440
422.01	0.446
422.47	0.444
422.93	0.446
423.39	0.443
423.85	0.443
424.31	0.437
424.77	0.436
425.23	0.438
425.69	0.435
426.15	0.436
426.61	0.436
427.07	0.429
427.53	0.428
427.99	0.427
428.45	0.428
428.91	0.427
429.37	0.426
429.83	0.424
430.29	0.423
430.75	0.423
431.21	0.424
431.67	0.422
432.13	0.424
432.59	0.419
433.05	0.422
433.51	0.415
433.97	0.417
434.43	0.416
434.89	0.418
435.35	0.415
435.81	0.414
436.27	0.411
436.73	0.412
437.19	0.408
437.65	0.410
438.11	0.408
438.57	0.411
439.03	0.406
439.48	0.402
439.94	0.406
440.40	0.403
440.86	0.405
441.32	0.401
441.78	0.405
442.24	0.400
442.70	0.402
443.16	0.397
443.62	0.393
444.08	0.396
444.54	0.400
444.99	0.393
445.45	0.389
445.91	0.391
446.37	0.394
446.83	0.389
447.29	0.387
447.75	0.389
448.21	0.390
448.67	0.385
449.12	0.385
449.58	0.385
450.04	0.385
450.50	0.385
450.96	0.384
451.42	0.380
451.88	0.379
452.34	0.379
452.79	0.378
453.25	0.382
453.71	0.376
454.17	0.377
454.63	0.379
455.09	0.376
455.55	0.376
456.00	0.377
456.46	0.374
456.92	0.373
457.38	0.370
457.84	0.369
458.30	0.368
458.75	0.370
459.21	0.365
459.67	0.367
460.13	0.365
460.59	0.365
461.04	0.366
461.50	0.362
461.96	0.363
462.42	0.363
462.88	0.360
463.33	0.361
463.79	0.359
464.25	0.359
464.71	0.359
465.17	0.359
465.62	0.356
466.08	0.356
466.54	0.357
467.00	0.356
467.46	0.356
467.91	0.352
468.37	0.352
468.83	0.352
469.29	0.351
469.74	0.351
470.20	0.350
470.66	0.348
471.12	0.347
471.57	0.349
472.03	0.346
472.49	0.346
472.95	0.346
473.40	0.343
473.86	0.343
474.32	0.340
474.78	0.343
475.23	0.341
475.69	0.345
476.15	0.341
476.60	0.345
477.06	0.340
477.52	0.339
477.98	0.337
478.43	0.338
478.89	0.338
479.35	0.338
479.80	0.336
480.26	0.335
480.72	0.333
481.18	0.334
481.63	0.334
482.09	0.332
482.55	0.334
483.00	0.331
483.46	0.331
483.92	0.330
484.37	0.330
484.83	0.328
485.29	0.325
485.74	0.327
486.20	0.327
486.66	0.328
487.11	0.326
487.57	0.324
488.03	0.324
488.48	0.324
488.94	0.322
489.40	0.322
489.85	0.325
490.31	0.322
490.77	0.321
491.22	0.321
491.68	0.320
492.13	0.319
492.59	0.319
493.05	0.318
493.50	0.317
493.96	0.318
494.42	0.318
494.87	0.315
495.33	0.314
495.78	0.318
496.24	0.315
496.70	0.311
497.15	0.311
497.61	0.314
498.06	0.311
498.52	0.309
498.98	0.308
499.43	0.311
499.89	0.309
500.34	0.310
500.80	0.311
501.25	0.309
501.71	0.307
502.17	0.305
502.62	0.307
503.08	0.307
503.53	0.301
503.99	0.303
504.44	0.303
504.90	0.305
505.36	0.303
505.81	0.303
506.27	0.304
506.72	0.303
507.18	0.303
507.63	0.300
508.09	0.301
508.54	0.299
509.00	0.298
509.45	0.301
509.91	0.297
510.36	0.298
510.82	0.296
511.27	0.297
511.73	0.295
512.19	0.295
512.64	0.296
513.10	0.293
513.55	0.294
514.01	0.292
514.46	0.292
514.92	0.291
515.37	0.291
515.83	0.292
516.28	0.290
516.73	0.289
517.19	0.292
517.64	0.288
518.10	0.287
518.55	0.287
519.01	0.290
519.46	0.286
519.92	0.287
520.37	0.284
520.83	0.283
521.28	0.286
521.74	0.284
522.19	0.284
522.65	0.283
523.10	0.284
523.55	0.282
524.01	0.285
524.46	0.283
524.92	0.282
525.37	0.281
525.83	0.281
526.28	0.280
526.73	0.282
527.19	0.282
527.64	0.282
528.10	0.279
528.55	0.280
529.01	0.282
529.46	0.279
529.91	0.277
530.37	0.276
530.82	0.278
531.28	0.277
531.73	0.273
532.18	0.274
532.64	0.276
533.09	0.274
533.54	0.274
534.00	0.271
534.45	0.276
534.91	0.274
535.36	0.275
535.81	0.273
536.27	0.270
536.72	0.274
537.17	0.273
537.63	0.271
538.08	0.268
538.54	0.271
538.99	0.270
539.44	0.272
539.90	0.269
540.35	0.270
540.80	0.268
541.26	0.270
541.71	0.267
542.16	0.269
542.62	0.266
543.07	0.267
543.52	0.269
543.98	0.268
544.43	0.266
544.88	0.265
545.34	0.269
545.79	0.266
546.24	0.265
546.69	0.267
547.15	0.266
547.60	0.265
548.05	0.266
548.51	0.264
548.96	0.265
549.41	0.267
549.86	0.265
550.32	0.266
550.77	0.266
551.22	0.265
551.68	0.263
552.13	0.264
552.58	0.261
553.03	0.262
553.49	0.261
553.94	0.262
554.39	0.262
554.84	0.261
555.30	0.262
555.75	0.261
556.20	0.261
556.65	0.261
557.11	0.263
557.56	0.260
558.01	0.262
558.46	0.261
558.92	0.259
559.37	0.261
559.82	0.259
560.27	0.259
560.72	0.261
561.18	0.259
561.63	0.258
562.08	0.258
562.53	0.260
562.99	0.258
563.44	0.259
563.89	0.259
564.34	0.259
564.79	0.260
565.25	0.260
565.70	0.256
566.15	0.257
566.60	0.257
567.05	0.256
567.50	0.257
567.96	0.257
568.41	0.257
568.86	0.256
569.31	0.254
569.76	0.255
570.21	0.257
570.67	0.259
571.12	0.256
571.57	0.258
572.02	0.255
572.47	0.254
572.92	0.257
573.37	0.256
573.83	0.254
574.28	0.256
574.73	0.255
575.18	0.256
575.63	0.255
576.08	0.254
576.53	0.254
576.98	0.255
577.44	0.251
577.89	0.254
578.34	0.254
578.79	0.251
579.24	0.254
579.69	0.255
580.14	0.252
580.59	0.253
581.04	0.254
581.49	0.253
581.95	0.254
582.40	0.255
582.85	0.254
583.30	0.252
583.75	0.254
584.20	0.254
584.65	0.254
585.10	0.254
585.55	0.253
586.00	0.256
586.45	0.254
586.90	0.256
587.35	0.255
587.80	0.256
588.25	0.255
588.71	0.255
589.16	0.257
589.61	0.257
590.06	0.258
590.51	0.257
590.96	0.256
591.41	0.257
591.86	0.256
592.31	0.259
592.76	0.257
593.21	0.258
593.66	0.259
594.11	0.257
594.56	0.259
595.01	0.259
595.46	0.258
595.91	0.260
596.36	0.260
596.81	0.259
597.26	0.262
597.71	0.261
598.16	0.260
598.61	0.260
599.06	0.262
599.51	0.263
599.96	0.262
600.41	0.261
600.86	0.264
601.31	0.262
601.76	0.261
602.21	0.262
602.65	0.263
603.10	0.263
603.55	0.262
604.00	0.262
604.45	0.264
604.90	0.263
605.35	0.262
605.80	0.265
606.25	0.264
606.70	0.263
607.15	0.263
607.60	0.263
608.05	0.264
608.50	0.264
608.95	0.261
609.39	0.265
609.84	0.264
610.29	0.263
610.74	0.263
611.19	0.264
611.64	0.264
612.09	0.265
612.54	0.265
612.99	0.266
613.44	0.264
613.88	0.267
614.33	0.265
614.78	0.265
615.23	0.262
615.68	0.264
616.13	0.263
616.58	0.263
617.03	0.265
617.47	0.265
617.92	0.266
618.37	0.264
618.82	0.264
619.27	0.264
619.72	0.263
620.17	0.263
620.61	0.261
621.06	0.263
621.51	0.263
621.96	0.263
622.41	0.266
622.86	0.265
623.30	0.263
623.75	0.264
624.20	0.264
624.65	0.263
625.10	0.263
625.54	0.266
625.99	0.264
626.44	0.263
626.89	0.267
627.34	0.266
627.78	0.265
628.23	0.266
628.68	0.265
629.13	0.264
629.58	0.265
630.02	0.265
630.47	0.264
630.92	0.267
631.37	0.265
631.81	0.267
632.26	0.268
632.71	0.267
633.16	0.266
633.61	0.266
634.05	0.266
634.50	0.268
634.95	0.269
635.40	0.269
635.84	0.268
636.29	0.270
636.74	0.270
637.18	0.270
637.63	0.272
638.08	0.270
638.53	0.271
638.97	0.270
639.42	0.273
639.87	0.274
640.32	0.271
640.76	0.274
641.21	0.274
641.66	0.275
642.10	0.274
642.55	0.274
643.00	0.274
643.44	0.274
643.89	0.275
644.34	0.276
644.79	0.275
645.23	0.277
645.68	0.277
646.13	0.277
646.57	0.278
647.02	0.278
647.47	0.279
647.91	0.279
648.36	0.279
648.81	0.279
649.25	0.278
649.70	0.279
650.15	0.280
650.59	0.281
651.04	0.282
651.48	0.284
651.93	0.284
652.38	0.281
652.82	0.281
653.27	0.282
653.72	0.284
654.16	0.282
654.61	0.282
655.06	0.281
655.50	0.280
655.95	0.279
656.39	0.274
656.84	0.279
657.29	0.284
657.73	0.282
658.18	0.280
658.62	0.281
659.07	0.280
659.52	0.283
659.96	0.280
660.41	0.281
660.85	0.280
661.30	0.279
661.74	0.282
662.19	0.280
662.64	0.278
663.08	0.278
663.53	0.275
663.97	0.275
664.42	0.274
664.86	0.277
665.31	0.274
665.75	0.273
666.20	0.273
666.65	0.273
667.09	0.272
667.54	0.270
667.98	0.270
668.43	0.267
668.87	0.268
669.32	0.266
669.76	0.265
670.21	0.263
670.65	0.261
671.10	0.262
671.54	0.258
671.99	0.258
672.43	0.255
672.88	0.254
673.32	0.252
673.77	0.252
674.21	0.248
674.66	0.248
675.10	0.244
675.55	0.242
675.99	0.240
676.44	0.239
676.88	0.238
677.33	0.234
677.77	0.236
678.22	0.232
678.66	0.229
679.11	0.228
679.55	0.228
679.99	0.226
680.44	0.226
680.88	0.220
681.33	0.218
681.77	0.215
682.22	0.214
682.66	0.214
683.11	0.210
683.55	0.208
683.99	0.208
684.44	0.203
684.88	0.201
685.33	0.200
685.77	0.201
686.21	0.199
686.66	0.196
687.10	0.194
687.55	0.193
687.99	0.194
688.44	0.193
688.88	0.189
689.32	0.188
689.77	0.186
690.21	0.185
690.65	0.182
691.10	0.183
691.54	0.181
691.99	0.179
692.43	0.179
692.87	0.175
693.32	0.178
693.76	0.177
694.20	0.175
694.65	0.174
695.09	0.176
695.53	0.170
695.98	0.172
696.42	0.171
696.86	0.170
697.31	0.167
697.75	0.168
698.19	0.166
698.64	0.165
699.08	0.167
699.52	0.166
699.97	0.165
700.41	0.164
700.85	0.165
701.30	0.163
701.74	0.162
702.18	0.163
702.63	0.160
703.07	0.162
703.51	0.163
703.96	0.159
704.40	0.159
704.84	0.160
705.28	0.159
705.73	0.158
706.17	0.161
706.61	0.157
707.06	0.155
707.50	0.157
707.94	0.156
708.38	0.154
708.83	0.159
709.27	0.157
709.71	0.155
710.15	0.157
710.60	0.155
711.04	0.152
711.48	0.154
711.92	0.154
712.37	0.153
712.81	0.154
713.25	0.153
713.69	0.154
714.13	0.157
714.58	0.152
715.02	0.153
715.46	0.151
715.90	0.151
716.35	0.148
716.79	0.153
717.23	0.153
717.67	0.152
718.11	0.153
718.56	0.152
719.00	0.154
719.44	0.151
719.88	0.151
720.32	0.154
720.76	0.152
721.21	0.150
721.65	0.150
722.09	0.151
722.53	0.150
722.97	0.151
723.41	0.150
723.86	0.152
724.30	0.152
724.74	0.150
725.18	0.150
725.62	0.150
726.06	0.150
726.50	0.149
726.95	0.148
727.39	0.150
727.83	0.147
728.27	0.148
728.71	0.149
729.15	0.152
729.59	0.147
730.03	0.147
730.48	0.150
730.92	0.148
731.36	0.148
731.80	0.149
732.24	0.150
732.68	0.145
733.12	0.146
733.56	0.150
734.00	0.148
734.44	0.149
734.89	0.149
735.33	0.151
735.77	0.150
736.21	0.149
736.65	0.145
737.09	0.148
737.53	0.151
737.97	0.147
738.41	0.147
738.85	0.153
739.29	0.149
739.73	0.147
740.17	0.148
740.61	0.148
741.05	0.148
741.49	0.149
741.93	0.146
742.37	0.147
742.81	0.148
743.26	0.148
743.70	0.147
744.14	0.147
744.58	0.147
745.02	0.148
745.46	0.146
745.90	0.146
746.34	0.150
746.78	0.147
747.22	0.147
747.66	0.148
748.10	0.146
748.54	0.144
748.98	0.144
749.42	0.146
749.86	0.145
750.29	0.143
750.73	0.143
751.17	0.145
751.61	0.143
752.05	0.146
752.49	0.143
752.93	0.142
753.37	0.143
753.81	0.142
754.25	0.144
754.69	0.142
755.13	0.141
755.57	0.142
756.01	0.141
756.45	0.143
756.89	0.144
757.33	0.144
757.77	0.141
758.21	0.143
758.64	0.139
759.08	0.138
759.52	0.140
759.96	0.144
760.40	0.141
760.84	0.140
761.28	0.138
761.72	0.143
762.16	0.144
762.60	0.140
763.03	0.139
763.47	0.140
763.91	0.139
764.35	0.137
764.79	0.138
765.23	0.136
765.67	0.138
766.11	0.136
766.54	0.137
766.98	0.140
767.42	0.139
767.86	0.137
768.30	0.138
768.74	0.139
769.17	0.141
769.61	0.137
770.05	0.139
770.49	0.142
770.93	0.139
771.37	0.137
771.80	0.138
772.24	0.134
772.68	0.136
773.12	0.136
773.56	0.137
774.00	0.134
774.43	0.135
774.87	0.137
775.31	0.136
775.75	0.135
776.19	0.136
776.62	0.134
777.06	0.136
777.50	0.136
777.94	0.134
778.37	0.133
778.81	0.136
779.25	0.138
779.69	0.132
780.13	0.135
780.56	0.136
781.00	0.135
781.44	0.135
781.88	0.133
782.31	0.134
782.75	0.135
783.19	0.135
783.63	0.131
784.06	0.133
784.50	0.135
784.94	0.133
785.37	0.131
785.81	0.138
786.25	0.134
786.69	0.132
787.12	0.133
787.56	0.131
788.00	0.133
788.43	0.136
788.87	0.137
789.31	0.133
789.75	0.136
790.18	0.131
790.62	0.130
791.06	0.130
791.49	0.131
791.93	0.129
792.37	0.134
792.80	0.132
793.24	0.133
793.68	0.130
794.11	0.129
794.55	0.134
794.99	0.133
795.42	0.133
795.86	0.133
796.30	0.128
796.73	0.134
797.17	0.133
797.61	0.129
798.04	0.132
798.48	0.132
798.91	0.132
799.35	0.131
799.79	0.134
800.22	0.131
800.66	0.128
801.10	0.131
801.53	0.134
801.97	0.133
802.40	0.130
802.84	0.127
803.28	0.125
803.71	0.129
804.15	0.128
804.58	0.131
805.02	0.130
805.46	0.132
805.89	0.129
806.33	0.131
806.76	0.131
807.20	0.131
807.63	0.129
808.07	0.132
808.51	0.128
808.94	0.128
809.38	0.130
809.81	0.127
810.25	0.129
810.68	0.128
811.12	0.130
811.55	0.130
811.99	0.130
812.42	0.129
812.86	0.127
813.29	0.125
813.73	0.129
814.17	0.125
814.60	0.127
