SpectraSuite Data File
++++++++++++++++++++++++++++++++++++
Date: Sun Apr 24 15:56:48 CEST 2016
User: spectrasuite
Dark Spectrum Present: Yes
Reference Spectrum Present: Yes
Number of Sampled Component Spectra: 1
Spectrometers: HR+C0708
Integration Time (usec): 1000 (HR+C0708)
Spectra Averaged: 10 (HR+C0708)
Boxcar Smoothing: 0 (HR+C0708)
Correct for Electrical Dark: No (HR+C0708)
Strobe/Lamp Enabled: No (HR+C0708)
Correct for Detector Non-linearity: No (HR+C0708)
Correct for Stray Light: No (HR+C0708)
Number of Pixels in Processed Spectrum: 2048
>>>>>Begin Processed Spectral Data<<<<<
188.76	-0.000
189.23	-0.000
189.70	-0.000
190.17	-0.000
190.64	-0.000
191.12	-0.000
191.59	-0.000
192.06	-0.000
192.53	-0.000
193.01	-0.000
193.48	-0.000
193.95	-0.000
194.42	-0.000
194.90	-0.000
195.37	-0.000
195.84	-0.000
196.31	-0.000
196.78	-0.000
197.26	-0.000
197.73	-0.000
198.20	-0.000
198.67	-0.000
199.14	-0.000
199.62	-0.000
200.09	-0.000
200.56	-0.000
201.03	-0.000
201.50	1.633
201.97	-0.000
202.45	-0.000
202.92	1.168
203.39	0.945
203.86	-0.000
204.33	-0.000
204.80	-0.000
205.28	-0.000
205.75	-0.000
206.22	-0.000
206.69	-0.000
207.16	1.693
207.63	1.042
208.11	0.774
208.58	1.027
209.05	-0.000
209.52	-0.000
209.99	-0.000
210.46	2.111
210.93	-0.000
211.41	-0.000
211.88	-0.000
212.35	-0.000
212.82	-0.000
213.29	-0.000
213.76	1.855
214.23	-0.000
214.70	-0.000
215.18	-0.000
215.65	1.898
216.12	1.284
216.59	1.818
217.06	-0.000
217.53	-0.000
218.00	-0.000
218.47	2.009
218.94	2.225
219.41	-0.000
219.89	-0.000
220.36	1.916
220.83	-0.000
221.30	-0.000
221.77	1.291
222.24	1.491
222.71	-0.000
223.18	-0.000
223.65	-0.000
224.12	-0.000
224.59	-0.000
225.06	2.429
225.54	1.444
226.01	1.678
226.48	-0.000
226.95	2.590
227.42	1.775
227.89	-0.000
228.36	1.859
228.83	-0.000
229.30	1.781
229.77	3.045
230.24	-0.000
230.71	-0.000
231.18	-0.000
231.65	-0.000
232.12	2.130
232.59	2.704
233.06	2.285
233.53	2.160
234.00	2.120
234.47	3.042
234.94	-0.000
235.41	2.714
235.88	2.621
236.35	-0.000
236.82	2.541
237.29	2.164
237.76	-0.000
238.23	-0.000
238.70	3.548
239.17	2.358
239.64	3.184
240.11	-0.000
240.58	3.596
241.05	2.765
241.52	-0.000
241.99	-0.000
242.46	2.609
242.93	-0.000
243.40	2.858
243.87	2.830
244.34	2.864
244.81	2.777
245.28	-0.000
245.75	-0.000
246.22	3.491
246.69	-0.000
247.16	3.344
247.63	2.779
248.10	2.873
248.57	-0.000
249.04	-0.000
249.51	4.228
249.98	-0.000
250.45	-0.000
250.92	3.009
251.39	-0.000
251.85	-0.000
252.32	-0.000
252.79	3.328
253.26	-0.000
253.73	-0.000
254.20	2.876
254.67	3.231
255.14	3.015
255.61	-0.000
256.08	-0.000
256.55	-0.000
257.02	2.946
257.49	3.629
257.95	3.002
258.42	-0.000
258.89	3.187
259.36	3.130
259.83	-0.000
260.30	-0.000
260.77	-0.000
261.24	2.932
261.71	3.118
262.17	3.393
262.64	3.110
263.11	3.153
263.58	3.461
264.05	4.282
264.52	2.881
264.99	3.065
265.46	3.246
265.92	3.074
266.39	3.023
266.86	2.993
267.33	3.214
267.80	2.734
268.27	3.037
268.74	2.937
269.20	3.197
269.67	2.652
270.14	2.902
270.61	2.709
271.08	2.919
271.55	2.632
272.01	2.694
272.48	2.658
272.95	2.665
273.42	2.607
273.89	2.765
274.36	2.636
274.82	2.447
275.29	2.625
275.76	2.545
276.23	2.469
276.70	2.502
277.16	2.423
277.63	2.370
278.10	2.519
278.57	2.353
279.04	2.335
279.50	2.471
279.97	2.356
280.44	2.405
280.91	2.407
281.38	2.292
281.84	2.390
282.31	2.349
282.78	2.405
283.25	2.346
283.72	2.300
284.18	2.307
284.65	2.306
285.12	2.216
285.59	2.206
286.05	2.309
286.52	2.226
286.99	2.251
287.46	2.206
287.92	2.215
288.39	2.164
288.86	2.148
289.33	2.163
289.79	2.196
290.26	2.137
290.73	2.154
291.20	2.179
291.66	2.120
292.13	2.108
292.60	2.094
293.07	2.072
293.53	2.038
294.00	2.083
294.47	2.106
294.93	2.097
295.40	2.052
295.87	2.058
296.34	2.102
296.80	1.978
297.27	2.012
297.74	1.998
298.20	2.007
298.67	1.987
299.14	1.992
299.60	1.978
300.07	1.969
300.54	1.936
301.01	1.940
301.47	1.912
301.94	1.892
302.41	1.927
302.87	1.903
303.34	1.925
303.81	1.925
304.27	1.923
304.74	1.879
305.21	1.892
305.67	1.905
306.14	1.869
306.61	1.874
307.07	1.817
307.54	1.847
308.01	1.883
308.47	1.850
308.94	1.918
309.40	1.844
309.87	1.811
310.34	1.823
310.80	1.791
311.27	1.816
311.74	1.800
312.20	1.810
312.67	1.799
313.13	1.770
313.60	1.787
314.07	1.782
314.53	1.753
315.00	1.751
315.47	1.771
315.93	1.761
316.40	1.748
316.86	1.739
317.33	1.718
317.80	1.720
318.26	1.715
318.73	1.713
319.19	1.718
319.66	1.677
320.13	1.709
320.59	1.708
321.06	1.686
321.52	1.678
321.99	1.669
322.45	1.655
322.92	1.638
323.39	1.648
323.85	1.649
324.32	1.644
324.78	1.637
325.25	1.654
325.71	1.624
326.18	1.593
326.64	1.617
327.11	1.591
327.58	1.585
328.04	1.566
328.51	1.588
328.97	1.550
329.44	1.557
329.90	1.553
330.37	1.539
330.83	1.527
331.30	1.537
331.76	1.518
332.23	1.507
332.69	1.481
333.16	1.467
333.62	1.462
334.09	1.448
334.56	1.434
335.02	1.426
335.49	1.416
335.95	1.404
336.42	1.383
336.88	1.369
337.35	1.354
337.81	1.344
338.28	1.329
338.74	1.324
339.20	1.296
339.67	1.282
340.13	1.275
340.60	1.253
341.06	1.232
341.53	1.211
341.99	1.214
342.46	1.188
342.92	1.167
343.39	1.157
343.85	1.136
344.32	1.114
344.78	1.101
345.25	1.099
345.71	1.075
346.17	1.062
346.64	1.043
347.10	1.028
347.57	1.001
348.03	0.979
348.50	0.962
348.96	0.948
349.43	0.932
349.89	0.917
350.35	0.909
350.82	0.891
351.28	0.879
351.75	0.861
352.21	0.855
352.67	0.831
353.14	0.829
353.60	0.817
354.07	0.795
354.53	0.784
355.00	0.774
355.46	0.765
355.92	0.750
356.39	0.740
356.85	0.740
357.31	0.730
357.78	0.723
358.24	0.707
358.71	0.703
359.17	0.696
359.63	0.692
360.10	0.683
360.56	0.683
361.03	0.672
361.49	0.665
361.95	0.662
362.42	0.660
362.88	0.653
363.34	0.647
363.81	0.645
364.27	0.641
364.73	0.638
365.20	0.636
365.66	0.633
366.12	0.625
366.59	0.621
367.05	0.618
367.51	0.621
367.98	0.615
368.44	0.614
368.90	0.613
369.37	0.608
369.83	0.601
370.29	0.607
370.76	0.602
371.22	0.599
371.68	0.596
372.15	0.595
372.61	0.589
373.07	0.591
373.54	0.585
374.00	0.585
374.46	0.584
374.92	0.585
375.39	0.581
375.85	0.578
376.31	0.575
376.78	0.577
377.24	0.576
377.70	0.570
378.16	0.567
378.63	0.567
379.09	0.567
379.55	0.564
380.01	0.564
380.48	0.556
380.94	0.559
381.40	0.557
381.87	0.555
382.33	0.553
382.79	0.549
383.25	0.553
383.72	0.549
384.18	0.545
384.64	0.546
385.10	0.544
385.56	0.543
386.03	0.542
386.49	0.536
386.95	0.538
387.41	0.534
387.88	0.535
388.34	0.530
388.80	0.529
389.26	0.529
389.72	0.528
390.19	0.527
390.65	0.525
391.11	0.521
391.57	0.520
392.04	0.520
392.50	0.518
392.96	0.515
393.42	0.517
393.88	0.517
394.34	0.513
394.81	0.513
395.27	0.510
395.73	0.506
396.19	0.508
396.65	0.504
397.12	0.500
397.58	0.504
398.04	0.501
398.50	0.501
398.96	0.501
399.42	0.500
399.89	0.497
400.35	0.496
400.81	0.489
401.27	0.495
401.73	0.490
402.19	0.489
402.65	0.487
403.12	0.484
403.58	0.483
404.04	0.484
404.50	0.482
404.96	0.478
405.42	0.481
405.88	0.479
406.34	0.479
406.81	0.477
407.27	0.475
407.73	0.472
408.19	0.469
408.65	0.469
409.11	0.471
409.57	0.468
410.03	0.466
410.49	0.469
410.96	0.466
411.42	0.466
411.88	0.460
412.34	0.460
412.80	0.460
413.26	0.454
413.72	0.459
414.18	0.454
414.64	0.453
415.10	0.456
415.56	0.454
416.02	0.453
416.48	0.450
416.95	0.447
417.41	0.450
417.87	0.446
418.33	0.447
418.79	0.443
419.25	0.441
419.71	0.442
420.17	0.441
420.63	0.443
421.09	0.436
421.55	0.436
422.01	0.437
422.47	0.436
422.93	0.436
423.39	0.436
423.85	0.432
424.31	0.432
424.77	0.428
425.23	0.430
425.69	0.431
426.15	0.429
426.61	0.429
427.07	0.424
427.53	0.423
427.99	0.419
428.45	0.427
428.91	0.423
429.37	0.419
429.83	0.417
430.29	0.418
430.75	0.422
431.21	0.418
431.67	0.417
432.13	0.417
432.59	0.410
433.05	0.414
433.51	0.411
433.97	0.412
434.43	0.410
434.89	0.410
435.35	0.411
435.81	0.404
436.27	0.408
436.73	0.406
437.19	0.403
437.65	0.405
438.11	0.401
438.57	0.401
439.03	0.400
439.48	0.400
439.94	0.395
440.40	0.396
440.86	0.397
441.32	0.395
441.78	0.394
442.24	0.395
442.70	0.391
443.16	0.389
443.62	0.391
444.08	0.393
444.54	0.391
444.99	0.386
445.45	0.386
445.91	0.389
446.37	0.387
446.83	0.385
447.29	0.384
447.75	0.384
448.21	0.386
448.67	0.380
449.12	0.383
449.58	0.380
450.04	0.378
450.50	0.375
450.96	0.381
451.42	0.375
451.88	0.372
452.34	0.377
452.79	0.375
453.25	0.377
453.71	0.370
454.17	0.372
454.63	0.372
455.09	0.369
455.55	0.372
456.00	0.367
456.46	0.365
456.92	0.366
457.38	0.364
457.84	0.362
458.30	0.363
458.75	0.362
459.21	0.359
459.67	0.363
460.13	0.358
460.59	0.356
461.04	0.357
461.50	0.360
461.96	0.357
462.42	0.354
462.88	0.353
463.33	0.358
463.79	0.352
464.25	0.352
464.71	0.353
465.17	0.352
465.62	0.353
466.08	0.351
466.54	0.351
467.00	0.350
467.46	0.351
467.91	0.348
468.37	0.349
468.83	0.349
469.29	0.345
469.74	0.345
470.20	0.348
470.66	0.344
471.12	0.338
471.57	0.343
472.03	0.341
472.49	0.339
472.95	0.340
473.40	0.340
473.86	0.337
474.32	0.333
474.78	0.339
475.23	0.335
475.69	0.339
476.15	0.336
476.60	0.336
477.06	0.333
477.52	0.334
477.98	0.330
478.43	0.331
478.89	0.331
479.35	0.330
479.80	0.330
480.26	0.329
480.72	0.330
481.18	0.329
481.63	0.325
482.09	0.327
482.55	0.326
483.00	0.325
483.46	0.324
483.92	0.321
484.37	0.322
484.83	0.319
485.29	0.319
485.74	0.321
486.20	0.321
486.66	0.319
487.11	0.320
487.57	0.319
488.03	0.319
488.48	0.317
488.94	0.315
489.40	0.316
489.85	0.318
490.31	0.316
490.77	0.313
491.22	0.312
491.68	0.314
492.13	0.313
492.59	0.310
493.05	0.311
493.50	0.310
493.96	0.309
494.42	0.308
494.87	0.307
495.33	0.305
495.78	0.309
496.24	0.309
496.70	0.305
497.15	0.307
497.61	0.306
498.06	0.304
498.52	0.305
498.98	0.305
499.43	0.303
499.89	0.303
500.34	0.301
500.80	0.303
501.25	0.303
501.71	0.300
502.17	0.300
502.62	0.301
503.08	0.300
503.53	0.298
503.99	0.297
504.44	0.298
504.90	0.296
505.36	0.295
505.81	0.294
506.27	0.297
506.72	0.296
507.18	0.296
507.63	0.293
508.09	0.296
508.54	0.291
509.00	0.291
509.45	0.292
509.91	0.291
510.36	0.288
510.82	0.289
511.27	0.290
511.73	0.289
512.19	0.286
512.64	0.288
513.10	0.288
513.55	0.286
514.01	0.286
514.46	0.283
514.92	0.285
515.37	0.282
515.83	0.284
516.28	0.281
516.73	0.283
517.19	0.281
517.64	0.277
518.10	0.280
518.55	0.277
519.01	0.278
519.46	0.279
519.92	0.280
520.37	0.276
520.83	0.275
521.28	0.277
521.74	0.279
522.19	0.279
522.65	0.275
523.10	0.275
523.55	0.275
524.01	0.277
524.46	0.273
524.92	0.274
525.37	0.273
525.83	0.271
526.28	0.272
526.73	0.274
527.19	0.273
527.64	0.274
528.10	0.270
528.55	0.270
529.01	0.270
529.46	0.268
529.91	0.265
530.37	0.267
530.82	0.264
531.28	0.265
531.73	0.264
532.18	0.264
532.64	0.266
533.09	0.262
533.54	0.262
534.00	0.260
534.45	0.266
534.91	0.263
535.36	0.264
535.81	0.263
536.27	0.261
536.72	0.262
537.17	0.260
537.63	0.261
538.08	0.257
538.54	0.261
538.99	0.258
539.44	0.259
539.90	0.258
540.35	0.256
540.80	0.256
541.26	0.256
541.71	0.255
542.16	0.256
542.62	0.255
543.07	0.254
543.52	0.254
543.98	0.254
544.43	0.252
544.88	0.251
545.34	0.255
545.79	0.253
546.24	0.250
546.69	0.251
547.15	0.249
547.60	0.250
548.05	0.250
548.51	0.249
548.96	0.251
549.41	0.249
549.86	0.248
550.32	0.249
550.77	0.249
551.22	0.247
551.68	0.246
552.13	0.245
552.58	0.243
553.03	0.245
553.49	0.245
553.94	0.246
554.39	0.244
554.84	0.248
555.30	0.247
555.75	0.244
556.20	0.243
556.65	0.240
557.11	0.242
557.56	0.241
558.01	0.243
558.46	0.243
558.92	0.237
559.37	0.240
559.82	0.242
560.27	0.241
560.72	0.239
561.18	0.240
561.63	0.239
562.08	0.236
562.53	0.237
562.99	0.238
563.44	0.237
563.89	0.234
564.34	0.238
564.79	0.236
565.25	0.233
565.70	0.232
566.15	0.232
566.60	0.231
567.05	0.232
567.50	0.234
567.96	0.234
568.41	0.231
568.86	0.230
569.31	0.230
569.76	0.231
570.21	0.229
570.67	0.230
571.12	0.230
571.57	0.229
572.02	0.227
572.47	0.226
572.92	0.225
573.37	0.228
573.83	0.225
574.28	0.227
574.73	0.224
575.18	0.225
575.63	0.225
576.08	0.225
576.53	0.224
576.98	0.225
577.44	0.221
577.89	0.223
578.34	0.221
578.79	0.222
579.24	0.222
579.69	0.222
580.14	0.219
580.59	0.220
581.04	0.219
581.49	0.220
581.95	0.217
582.40	0.218
582.85	0.217
583.30	0.218
583.75	0.217
584.20	0.217
584.65	0.216
585.10	0.216
585.55	0.217
586.00	0.216
586.45	0.215
586.90	0.217
587.35	0.215
587.80	0.215
588.25	0.213
588.71	0.216
589.16	0.212
589.61	0.212
590.06	0.214
590.51	0.215
590.96	0.211
591.41	0.211
591.86	0.211
592.31	0.212
592.76	0.212
593.21	0.213
593.66	0.213
594.11	0.212
594.56	0.209
595.01	0.210
595.46	0.210
595.91	0.210
596.36	0.210
596.81	0.210
597.26	0.208
597.71	0.208
598.16	0.206
598.61	0.207
599.06	0.208
599.51	0.206
599.96	0.208
600.41	0.208
600.86	0.207
601.31	0.207
601.76	0.206
602.21	0.207
602.65	0.207
603.10	0.204
603.55	0.206
604.00	0.205
604.45	0.204
604.90	0.204
605.35	0.202
605.80	0.204
606.25	0.205
606.70	0.202
607.15	0.201
607.60	0.201
608.05	0.200
608.50	0.201
608.95	0.200
609.39	0.202
609.84	0.202
610.29	0.202
610.74	0.199
611.19	0.197
611.64	0.200
612.09	0.200
612.54	0.198
612.99	0.199
613.44	0.197
613.88	0.200
614.33	0.197
614.78	0.195
615.23	0.195
615.68	0.196
616.13	0.197
616.58	0.194
617.03	0.196
617.47	0.196
617.92	0.194
618.37	0.195
618.82	0.195
619.27	0.194
619.72	0.194
620.17	0.193
620.61	0.193
621.06	0.193
621.51	0.192
621.96	0.192
622.41	0.192
622.86	0.190
623.30	0.190
623.75	0.191
624.20	0.191
624.65	0.192
625.10	0.191
625.54	0.191
625.99	0.192
626.44	0.189
626.89	0.189
627.34	0.190
627.78	0.190
628.23	0.188
628.68	0.188
629.13	0.187
629.58	0.188
630.02	0.187
630.47	0.188
630.92	0.187
631.37	0.185
631.81	0.187
632.26	0.186
632.71	0.187
633.16	0.184
633.61	0.187
634.05	0.183
634.50	0.183
634.95	0.184
635.40	0.184
635.84	0.186
636.29	0.185
636.74	0.184
637.18	0.183
637.63	0.185
638.08	0.181
638.53	0.184
638.97	0.181
639.42	0.182
639.87	0.183
640.32	0.180
640.76	0.184
641.21	0.181
641.66	0.182
642.10	0.182
642.55	0.180
643.00	0.180
643.44	0.182
643.89	0.182
644.34	0.179
644.79	0.179
645.23	0.179
645.68	0.178
646.13	0.177
646.57	0.178
647.02	0.177
647.47	0.181
647.91	0.179
648.36	0.178
648.81	0.179
649.25	0.177
649.70	0.176
650.15	0.175
650.59	0.177
651.04	0.177
651.48	0.179
651.93	0.176
652.38	0.173
652.82	0.175
653.27	0.176
653.72	0.175
654.16	0.175
654.61	0.175
655.06	0.174
655.50	0.173
655.95	0.171
656.39	0.166
656.84	0.169
657.29	0.175
657.73	0.173
658.18	0.173
658.62	0.172
659.07	0.172
659.52	0.173
659.96	0.172
660.41	0.173
660.85	0.171
661.30	0.171
661.74	0.172
662.19	0.170
662.64	0.171
663.08	0.171
663.53	0.171
663.97	0.170
664.42	0.171
664.86	0.170
665.31	0.171
665.75	0.168
666.20	0.169
666.65	0.170
667.09	0.169
667.54	0.169
667.98	0.167
668.43	0.167
668.87	0.167
669.32	0.168
669.76	0.167
670.21	0.168
670.65	0.164
671.10	0.167
671.54	0.167
671.99	0.166
672.43	0.165
672.88	0.166
673.32	0.166
673.77	0.165
674.21	0.164
674.66	0.164
675.10	0.165
675.55	0.161
675.99	0.164
676.44	0.164
676.88	0.165
677.33	0.166
677.77	0.164
678.22	0.163
678.66	0.164
679.11	0.163
679.55	0.164
679.99	0.161
680.44	0.164
680.88	0.164
681.33	0.161
681.77	0.161
682.22	0.162
682.66	0.162
683.11	0.163
683.55	0.161
683.99	0.161
684.44	0.161
684.88	0.161
685.33	0.160
685.77	0.159
686.21	0.160
686.66	0.160
687.10	0.160
687.55	0.159
687.99	0.162
688.44	0.162
688.88	0.159
689.32	0.161
689.77	0.159
690.21	0.158
690.65	0.158
691.10	0.159
691.54	0.158
691.99	0.159
692.43	0.157
692.87	0.157
693.32	0.159
693.76	0.158
694.20	0.159
694.65	0.156
695.09	0.157
695.53	0.156
695.98	0.158
696.42	0.159
696.86	0.156
697.31	0.153
697.75	0.155
698.19	0.155
698.64	0.156
699.08	0.156
699.52	0.154
699.97	0.158
700.41	0.154
700.85	0.156
701.30	0.154
701.74	0.155
702.18	0.155
702.63	0.155
703.07	0.152
703.51	0.155
703.96	0.154
704.40	0.153
704.84	0.155
705.28	0.151
705.73	0.153
706.17	0.153
706.61	0.151
707.06	0.152
707.50	0.151
707.94	0.152
708.38	0.152
708.83	0.154
709.27	0.153
709.71	0.153
710.15	0.151
710.60	0.151
711.04	0.153
711.48	0.153
711.92	0.153
712.37	0.153
712.81	0.153
713.25	0.150
713.69	0.151
714.13	0.152
714.58	0.152
715.02	0.149
715.46	0.150
715.90	0.149
716.35	0.149
716.79	0.151
717.23	0.150
717.67	0.150
718.11	0.152
718.56	0.150
719.00	0.151
719.44	0.150
719.88	0.148
720.32	0.148
720.76	0.150
721.21	0.149
721.65	0.150
722.09	0.150
722.53	0.148
722.97	0.151
723.41	0.150
723.86	0.149
724.30	0.150
724.74	0.151
725.18	0.148
725.62	0.148
726.06	0.149
726.50	0.149
726.95	0.147
727.39	0.150
727.83	0.146
728.27	0.149
728.71	0.148
729.15	0.151
729.59	0.149
730.03	0.146
730.48	0.149
730.92	0.145
731.36	0.150
731.80	0.152
732.24	0.150
732.68	0.150
733.12	0.147
733.56	0.150
734.00	0.147
734.44	0.148
734.89	0.149
735.33	0.150
735.77	0.152
736.21	0.150
736.65	0.149
737.09	0.150
737.53	0.150
737.97	0.149
738.41	0.148
738.85	0.152
739.29	0.150
739.73	0.147
740.17	0.149
740.61	0.149
741.05	0.149
741.49	0.148
741.93	0.147
742.37	0.145
742.81	0.149
743.26	0.148
743.70	0.147
744.14	0.148
744.58	0.149
745.02	0.148
745.46	0.149
745.90	0.149
746.34	0.149
746.78	0.147
747.22	0.147
747.66	0.148
748.10	0.148
748.54	0.145
748.98	0.146
749.42	0.148
749.86	0.148
750.29	0.146
750.73	0.145
751.17	0.145
751.61	0.142
752.05	0.149
752.49	0.142
752.93	0.145
753.37	0.146
753.81	0.144
754.25	0.144
754.69	0.141
755.13	0.144
755.57	0.144
756.01	0.146
756.45	0.144
756.89	0.144
757.33	0.145
757.77	0.141
758.21	0.143
758.64	0.139
759.08	0.141
759.52	0.144
759.96	0.145
760.40	0.142
760.84	0.141
761.28	0.144
761.72	0.144
762.16	0.144
762.60	0.141
763.03	0.140
763.47	0.139
763.91	0.140
764.35	0.141
764.79	0.140
765.23	0.138
765.67	0.139
766.11	0.137
766.54	0.135
766.98	0.140
767.42	0.138
767.86	0.137
768.30	0.141
768.74	0.142
769.17	0.140
769.61	0.142
770.05	0.138
770.49	0.140
770.93	0.141
771.37	0.138
771.80	0.140
772.24	0.137
772.68	0.139
773.12	0.136
773.56	0.137
774.00	0.136
774.43	0.138
774.87	0.138
775.31	0.137
775.75	0.138
776.19	0.138
776.62	0.136
777.06	0.136
777.50	0.137
777.94	0.139
778.37	0.139
778.81	0.137
779.25	0.139
779.69	0.138
780.13	0.138
780.56	0.134
781.00	0.136
781.44	0.140
781.88	0.138
782.31	0.139
782.75	0.138
783.19	0.139
783.63	0.136
784.06	0.136
784.50	0.135
784.94	0.136
785.37	0.138
785.81	0.139
786.25	0.137
786.69	0.132
787.12	0.135
787.56	0.134
788.00	0.135
788.43	0.136
788.87	0.134
789.31	0.133
789.75	0.135
790.18	0.135
790.62	0.134
791.06	0.134
791.49	0.133
791.93	0.133
792.37	0.137
792.80	0.135
793.24	0.131
793.68	0.133
794.11	0.135
794.55	0.135
794.99	0.137
795.42	0.131
795.86	0.136
796.30	0.131
796.73	0.134
797.17	0.132
797.61	0.132
798.04	0.134
798.48	0.137
798.91	0.132
799.35	0.129
799.79	0.137
800.22	0.133
800.66	0.132
801.10	0.134
801.53	0.131
801.97	0.138
802.40	0.132
802.84	0.131
803.28	0.131
803.71	0.133
804.15	0.128
804.58	0.131
805.02	0.133
805.46	0.133
805.89	0.132
806.33	0.130
806.76	0.131
807.20	0.132
807.63	0.131
808.07	0.135
808.51	0.128
808.94	0.126
809.38	0.128
809.81	0.129
810.25	0.129
810.68	0.129
811.12	0.132
811.55	0.131
811.99	0.130
812.42	0.132
812.86	0.127
813.29	0.131
813.73	0.130
814.17	0.130
814.60	0.128
815.04	0.130
