SpectraSuite Data File
++++++++++++++++++++++++++++++++++++
Date: Sun Apr 24 17:36:16 CEST 2016
User: spectrasuite
Dark Spectrum Present: Yes
Reference Spectrum Present: Yes
Number of Sampled Component Spectra: 1
Spectrometers: HR+C0708
Integration Time (usec): 1000 (HR+C0708)
Spectra Averaged: 10 (HR+C0708)
Boxcar Smoothing: 0 (HR+C0708)
Correct for Electrical Dark: No (HR+C0708)
Strobe/Lamp Enabled: No (HR+C0708)
Correct for Detector Non-linearity: No (HR+C0708)
Correct for Stray Light: No (HR+C0708)
Number of Pixels in Processed Spectrum: 2048
>>>>>Begin Processed Spectral Data<<<<<
188.76	-0.000
189.23	-0.000
189.70	-0.000
190.17	-0.000
190.64	-0.000
191.12	-0.000
191.59	-0.000
192.06	-0.000
192.53	-0.000
193.01	-0.000
193.48	-0.000
193.95	-0.000
194.42	-0.000
194.90	-0.000
195.37	-0.000
195.84	-0.000
196.31	-0.000
196.78	-0.000
197.26	-0.000
197.73	-0.000
198.20	-0.000
198.67	-0.000
199.14	-0.000
199.62	-0.000
200.09	-0.000
200.56	-0.000
201.03	-0.000
201.50	-0.000
201.97	-0.000
202.45	-0.000
202.92	1.037
203.39	-0.000
203.86	-0.000
204.33	1.438
204.80	-0.000
205.28	-0.000
205.75	-0.000
206.22	-0.000
206.69	-0.000
207.16	-0.000
207.63	2.209
208.11	0.957
208.58	1.782
209.05	-0.000
209.52	-0.000
209.99	2.020
210.46	-0.000
210.93	-0.000
211.41	-0.000
211.88	-0.000
212.35	-0.000
212.82	-0.000
213.29	-0.000
213.76	1.327
214.23	-0.000
214.70	-0.000
215.18	-0.000
215.65	-0.000
216.12	1.467
216.59	-0.000
217.06	-0.000
217.53	1.484
218.00	-0.000
218.47	-0.000
218.94	2.049
219.41	2.072
219.89	-0.000
220.36	-0.000
220.83	1.447
221.30	1.859
221.77	1.279
222.24	-0.000
222.71	-0.000
223.18	-0.000
223.65	-0.000
224.12	-0.000
224.59	-0.000
225.06	2.429
225.54	-0.000
226.01	3.125
226.48	-0.000
226.95	-0.000
227.42	2.775
227.89	-0.000
228.36	1.808
228.83	1.999
229.30	1.903
229.77	-0.000
230.24	2.669
230.71	-0.000
231.18	-0.000
231.65	-0.000
232.12	1.865
232.59	-0.000
233.06	-0.000
233.53	-0.000
234.00	-0.000
234.47	2.428
234.94	-0.000
235.41	-0.000
235.88	-0.000
236.35	-0.000
236.82	-0.000
237.29	-0.000
237.76	2.960
238.23	-0.000
238.70	-0.000
239.17	2.756
239.64	3.133
240.11	-0.000
240.58	-0.000
241.05	-0.000
241.52	-0.000
241.99	-0.000
242.46	3.151
242.93	-0.000
243.40	3.077
243.87	2.731
244.34	2.668
244.81	-0.000
245.28	-0.000
245.75	3.478
246.22	3.626
246.69	-0.000
247.16	3.687
247.63	2.868
248.10	3.547
248.57	-0.000
249.04	-0.000
249.51	-0.000
249.98	-0.000
250.45	-0.000
250.92	-0.000
251.39	-0.000
251.85	-0.000
252.32	-0.000
252.79	3.277
253.26	3.240
253.73	-0.000
254.20	3.461
254.67	3.859
255.14	3.295
255.61	3.131
256.08	-0.000
256.55	3.496
257.02	2.941
257.49	3.128
257.95	2.744
258.42	2.756
258.89	2.718
259.36	2.885
259.83	2.773
260.30	2.979
260.77	2.811
261.24	2.619
261.71	2.614
262.17	2.636
262.64	2.474
263.11	2.489
263.58	2.523
264.05	2.495
264.52	2.442
264.99	2.452
265.46	2.446
265.92	2.406
266.39	2.367
266.86	2.362
267.33	2.416
267.80	2.217
268.27	2.305
268.74	2.311
269.20	2.271
269.67	2.211
270.14	2.171
270.61	2.223
271.08	2.208
271.55	2.115
272.01	2.126
272.48	2.167
272.95	2.102
273.42	2.116
273.89	2.079
274.36	2.042
274.82	2.017
275.29	2.038
275.76	2.006
276.23	2.014
276.70	2.001
277.16	1.950
277.63	1.938
278.10	1.926
278.57	1.918
279.04	1.935
279.50	1.911
279.97	1.896
280.44	1.864
280.91	1.875
281.38	1.839
281.84	1.855
282.31	1.853
282.78	1.864
283.25	1.827
283.72	1.787
284.18	1.829
284.65	1.796
285.12	1.755
285.59	1.762
286.05	1.773
286.52	1.741
286.99	1.747
287.46	1.740
287.92	1.718
288.39	1.696
288.86	1.690
289.33	1.694
289.79	1.696
290.26	1.679
290.73	1.657
291.20	1.656
291.66	1.667
292.13	1.648
292.60	1.640
293.07	1.624
293.53	1.607
294.00	1.609
294.47	1.598
294.93	1.592
295.40	1.578
295.87	1.586
296.34	1.579
296.80	1.549
297.27	1.537
297.74	1.533
298.20	1.536
298.67	1.510
299.14	1.531
299.60	1.496
300.07	1.493
300.54	1.476
301.01	1.486
301.47	1.470
301.94	1.463
302.41	1.457
302.87	1.466
303.34	1.474
303.81	1.423
304.27	1.429
304.74	1.420
305.21	1.417
305.67	1.417
306.14	1.391
306.61	1.389
307.07	1.388
307.54	1.381
308.01	1.381
308.47	1.368
308.94	1.360
309.40	1.372
309.87	1.363
310.34	1.350
310.80	1.339
311.27	1.343
311.74	1.319
312.20	1.320
312.67	1.320
313.13	1.306
313.60	1.307
314.07	1.304
314.53	1.291
315.00	1.280
315.47	1.288
315.93	1.276
316.40	1.266
316.86	1.274
317.33	1.254
317.80	1.259
318.26	1.253
318.73	1.257
319.19	1.244
319.66	1.228
320.13	1.232
320.59	1.229
321.06	1.215
321.52	1.223
321.99	1.212
322.45	1.203
322.92	1.196
323.39	1.199
323.85	1.195
324.32	1.195
324.78	1.183
325.25	1.185
325.71	1.171
326.18	1.167
326.64	1.172
327.11	1.167
327.58	1.147
328.04	1.153
328.51	1.149
328.97	1.143
329.44	1.131
329.90	1.133
330.37	1.120
330.83	1.115
331.30	1.126
331.76	1.117
332.23	1.107
332.69	1.101
333.16	1.100
333.62	1.099
334.09	1.086
334.56	1.079
335.02	1.079
335.49	1.071
335.95	1.070
336.42	1.058
336.88	1.063
337.35	1.053
337.81	1.054
338.28	1.055
338.74	1.046
339.20	1.039
339.67	1.035
340.13	1.028
340.60	1.022
341.06	1.011
341.53	1.011
341.99	1.009
342.46	1.000
342.92	0.987
343.39	0.983
343.85	0.986
344.32	0.973
344.78	0.974
345.25	0.966
345.71	0.959
346.17	0.947
346.64	0.948
347.10	0.944
347.57	0.919
348.03	0.921
348.50	0.909
348.96	0.906
349.43	0.894
349.89	0.880
350.35	0.880
350.82	0.876
351.28	0.863
351.75	0.852
352.21	0.845
352.67	0.838
353.14	0.831
353.60	0.828
354.07	0.811
354.53	0.796
355.00	0.790
355.46	0.784
355.92	0.772
356.39	0.759
356.85	0.762
357.31	0.747
357.78	0.741
358.24	0.731
358.71	0.727
359.17	0.721
359.63	0.715
360.10	0.704
360.56	0.702
361.03	0.697
361.49	0.693
361.95	0.683
362.42	0.681
362.88	0.673
363.34	0.672
363.81	0.666
364.27	0.664
364.73	0.659
365.20	0.658
365.66	0.653
366.12	0.649
366.59	0.645
367.05	0.643
367.51	0.640
367.98	0.634
368.44	0.629
368.90	0.634
369.37	0.631
369.83	0.627
370.29	0.623
370.76	0.620
371.22	0.618
371.68	0.617
372.15	0.610
372.61	0.610
373.07	0.606
373.54	0.610
374.00	0.607
374.46	0.605
374.92	0.603
375.39	0.599
375.85	0.600
376.31	0.593
376.78	0.594
377.24	0.591
377.70	0.591
378.16	0.587
378.63	0.587
379.09	0.586
379.55	0.582
380.01	0.581
380.48	0.580
380.94	0.578
381.40	0.573
381.87	0.574
382.33	0.571
382.79	0.569
383.25	0.568
383.72	0.571
384.18	0.565
384.64	0.565
385.10	0.562
385.56	0.562
386.03	0.556
386.49	0.554
386.95	0.552
387.41	0.553
387.88	0.548
388.34	0.551
388.80	0.550
389.26	0.546
389.72	0.546
390.19	0.547
390.65	0.545
391.11	0.543
391.57	0.540
392.04	0.537
392.50	0.534
392.96	0.535
393.42	0.535
393.88	0.532
394.34	0.529
394.81	0.527
395.27	0.527
395.73	0.527
396.19	0.523
396.65	0.519
397.12	0.518
397.58	0.517
398.04	0.516
398.50	0.517
398.96	0.516
399.42	0.518
399.89	0.514
400.35	0.511
400.81	0.510
401.27	0.506
401.73	0.505
402.19	0.504
402.65	0.502
403.12	0.500
403.58	0.502
404.04	0.499
404.50	0.500
404.96	0.496
405.42	0.495
405.88	0.496
406.34	0.492
406.81	0.487
407.27	0.489
407.73	0.490
408.19	0.487
408.65	0.488
409.11	0.486
409.57	0.486
410.03	0.483
410.49	0.479
410.96	0.486
411.42	0.482
411.88	0.474
412.34	0.472
412.80	0.471
413.26	0.467
413.72	0.471
414.18	0.472
414.64	0.465
415.10	0.470
415.56	0.469
416.02	0.469
416.48	0.464
416.95	0.463
417.41	0.463
417.87	0.460
418.33	0.459
418.79	0.456
419.25	0.458
419.71	0.455
420.17	0.457
420.63	0.454
421.09	0.452
421.55	0.452
422.01	0.454
422.47	0.451
422.93	0.450
423.39	0.447
423.85	0.448
424.31	0.445
424.77	0.446
425.23	0.446
425.69	0.447
426.15	0.442
426.61	0.445
427.07	0.438
427.53	0.438
427.99	0.436
428.45	0.438
428.91	0.435
429.37	0.433
429.83	0.432
430.29	0.431
430.75	0.432
431.21	0.432
431.67	0.432
432.13	0.431
432.59	0.425
433.05	0.427
433.51	0.423
433.97	0.426
434.43	0.423
434.89	0.425
435.35	0.424
435.81	0.419
436.27	0.415
436.73	0.414
437.19	0.416
437.65	0.417
438.11	0.415
438.57	0.414
439.03	0.412
439.48	0.412
439.94	0.412
440.40	0.414
440.86	0.412
441.32	0.404
441.78	0.410
442.24	0.406
442.70	0.407
443.16	0.403
443.62	0.401
444.08	0.400
444.54	0.401
444.99	0.401
445.45	0.401
445.91	0.399
446.37	0.397
446.83	0.399
447.29	0.395
447.75	0.396
448.21	0.396
448.67	0.390
449.12	0.390
449.58	0.392
450.04	0.390
450.50	0.386
450.96	0.389
451.42	0.386
451.88	0.384
452.34	0.386
452.79	0.386
453.25	0.389
453.71	0.383
454.17	0.382
454.63	0.385
455.09	0.380
455.55	0.382
456.00	0.379
456.46	0.377
456.92	0.376
457.38	0.379
457.84	0.373
458.30	0.372
458.75	0.373
459.21	0.371
459.67	0.374
460.13	0.374
460.59	0.368
461.04	0.367
461.50	0.372
461.96	0.367
462.42	0.366
462.88	0.366
463.33	0.367
463.79	0.363
464.25	0.365
464.71	0.366
465.17	0.363
465.62	0.362
466.08	0.363
466.54	0.362
467.00	0.363
467.46	0.362
467.91	0.358
468.37	0.359
468.83	0.358
469.29	0.359
469.74	0.356
470.20	0.356
470.66	0.354
471.12	0.351
471.57	0.354
472.03	0.351
472.49	0.350
472.95	0.352
473.40	0.350
473.86	0.347
474.32	0.346
474.78	0.347
475.23	0.346
475.69	0.349
476.15	0.345
476.60	0.350
477.06	0.345
477.52	0.342
477.98	0.340
478.43	0.343
478.89	0.342
479.35	0.340
479.80	0.341
480.26	0.340
480.72	0.339
481.18	0.341
481.63	0.339
482.09	0.337
482.55	0.337
483.00	0.334
483.46	0.335
483.92	0.334
484.37	0.334
484.83	0.330
485.29	0.329
485.74	0.330
486.20	0.330
486.66	0.330
487.11	0.329
487.57	0.328
488.03	0.329
488.48	0.326
488.94	0.325
489.40	0.324
489.85	0.328
490.31	0.326
490.77	0.326
491.22	0.325
491.68	0.322
492.13	0.322
492.59	0.323
493.05	0.321
493.50	0.320
493.96	0.319
494.42	0.320
494.87	0.320
495.33	0.317
495.78	0.320
496.24	0.317
496.70	0.316
497.15	0.317
497.61	0.315
498.06	0.312
498.52	0.312
498.98	0.313
499.43	0.314
499.89	0.313
500.34	0.311
500.80	0.310
501.25	0.312
501.71	0.311
502.17	0.310
502.62	0.312
503.08	0.307
503.53	0.306
503.99	0.306
504.44	0.307
504.90	0.306
505.36	0.304
505.81	0.304
506.27	0.306
506.72	0.304
507.18	0.304
507.63	0.300
508.09	0.302
508.54	0.301
509.00	0.300
509.45	0.302
509.91	0.300
510.36	0.300
510.82	0.297
511.27	0.298
511.73	0.298
512.19	0.295
512.64	0.296
513.10	0.294
513.55	0.296
514.01	0.293
514.46	0.294
514.92	0.294
515.37	0.293
515.83	0.293
516.28	0.289
516.73	0.289
517.19	0.290
517.64	0.289
518.10	0.289
518.55	0.288
519.01	0.289
519.46	0.288
519.92	0.287
520.37	0.284
520.83	0.287
521.28	0.286
521.74	0.285
522.19	0.286
522.65	0.285
523.10	0.285
523.55	0.282
524.01	0.286
524.46	0.283
524.92	0.280
525.37	0.282
525.83	0.280
526.28	0.280
526.73	0.281
527.19	0.282
527.64	0.282
528.10	0.278
528.55	0.277
529.01	0.280
529.46	0.280
529.91	0.276
530.37	0.277
530.82	0.276
531.28	0.275
531.73	0.274
532.18	0.275
532.64	0.276
533.09	0.272
533.54	0.271
534.00	0.273
534.45	0.274
534.91	0.274
535.36	0.275
535.81	0.272
536.27	0.270
536.72	0.272
537.17	0.271
537.63	0.270
538.08	0.268
538.54	0.270
538.99	0.269
539.44	0.270
539.90	0.267
540.35	0.266
540.80	0.267
541.26	0.267
541.71	0.263
542.16	0.267
542.62	0.265
543.07	0.265
543.52	0.264
543.98	0.266
544.43	0.263
544.88	0.265
545.34	0.264
545.79	0.263
546.24	0.262
546.69	0.264
547.15	0.263
547.60	0.263
548.05	0.265
548.51	0.260
548.96	0.262
549.41	0.260
549.86	0.260
550.32	0.261
550.77	0.261
551.22	0.260
551.68	0.258
552.13	0.258
552.58	0.257
553.03	0.258
553.49	0.257
553.94	0.256
554.39	0.257
554.84	0.259
555.30	0.260
555.75	0.256
556.20	0.254
556.65	0.253
557.11	0.256
557.56	0.255
558.01	0.255
558.46	0.257
558.92	0.255
559.37	0.254
559.82	0.253
560.27	0.254
560.72	0.253
561.18	0.250
561.63	0.253
562.08	0.250
562.53	0.253
562.99	0.252
563.44	0.250
563.89	0.250
564.34	0.250
564.79	0.251
565.25	0.248
565.70	0.248
566.15	0.249
566.60	0.248
567.05	0.247
567.50	0.247
567.96	0.246
568.41	0.245
568.86	0.246
569.31	0.246
569.76	0.243
570.21	0.246
570.67	0.243
571.12	0.247
571.57	0.246
572.02	0.244
572.47	0.244
572.92	0.244
573.37	0.244
573.83	0.242
574.28	0.243
574.73	0.243
575.18	0.244
575.63	0.244
576.08	0.241
576.53	0.242
576.98	0.242
577.44	0.239
577.89	0.241
578.34	0.240
578.79	0.239
579.24	0.241
579.69	0.239
580.14	0.240
580.59	0.239
581.04	0.238
581.49	0.238
581.95	0.238
582.40	0.239
582.85	0.239
583.30	0.237
583.75	0.237
584.20	0.239
584.65	0.237
585.10	0.238
585.55	0.235
586.00	0.236
586.45	0.238
586.90	0.239
587.35	0.238
587.80	0.236
588.25	0.236
588.71	0.236
589.16	0.236
589.61	0.236
590.06	0.235
590.51	0.237
590.96	0.236
591.41	0.234
591.86	0.237
592.31	0.236
592.76	0.236
593.21	0.234
593.66	0.236
594.11	0.234
594.56	0.235
595.01	0.238
595.46	0.234
595.91	0.235
596.36	0.235
596.81	0.236
597.26	0.234
597.71	0.235
598.16	0.235
598.61	0.234
599.06	0.233
599.51	0.234
599.96	0.235
600.41	0.234
600.86	0.235
601.31	0.234
601.76	0.236
602.21	0.233
602.65	0.235
603.10	0.233
603.55	0.231
604.00	0.232
604.45	0.234
604.90	0.233
605.35	0.232
605.80	0.233
606.25	0.235
606.70	0.235
607.15	0.231
607.60	0.232
608.05	0.232
608.50	0.233
608.95	0.232
609.39	0.233
609.84	0.232
610.29	0.230
610.74	0.230
611.19	0.230
611.64	0.230
612.09	0.230
612.54	0.230
612.99	0.231
613.44	0.230
613.88	0.231
614.33	0.230
614.78	0.227
615.23	0.228
615.68	0.228
616.13	0.231
616.58	0.227
617.03	0.228
617.47	0.228
617.92	0.228
618.37	0.227
618.82	0.228
619.27	0.226
619.72	0.227
620.17	0.225
620.61	0.226
621.06	0.227
621.51	0.225
621.96	0.225
622.41	0.227
622.86	0.226
623.30	0.225
623.75	0.226
624.20	0.225
624.65	0.225
625.10	0.225
625.54	0.225
625.99	0.227
626.44	0.225
626.89	0.223
627.34	0.225
627.78	0.225
628.23	0.223
628.68	0.222
629.13	0.223
629.58	0.224
630.02	0.223
630.47	0.223
630.92	0.222
631.37	0.223
631.81	0.224
632.26	0.223
632.71	0.224
633.16	0.223
633.61	0.223
634.05	0.223
634.50	0.223
634.95	0.223
635.40	0.223
635.84	0.224
636.29	0.225
636.74	0.223
637.18	0.224
637.63	0.222
638.08	0.223
638.53	0.224
638.97	0.224
639.42	0.223
639.87	0.223
640.32	0.222
640.76	0.224
641.21	0.223
641.66	0.226
642.10	0.224
642.55	0.221
643.00	0.222
643.44	0.224
643.89	0.224
644.34	0.223
644.79	0.223
645.23	0.223
645.68	0.225
646.13	0.224
646.57	0.224
647.02	0.223
647.47	0.225
647.91	0.225
648.36	0.224
648.81	0.225
649.25	0.222
649.70	0.224
650.15	0.222
650.59	0.224
651.04	0.223
651.48	0.227
651.93	0.225
652.38	0.222
652.82	0.223
653.27	0.224
653.72	0.224
654.16	0.221
654.61	0.224
655.06	0.223
655.50	0.222
655.95	0.220
656.39	0.216
656.84	0.219
657.29	0.227
657.73	0.222
658.18	0.223
658.62	0.221
659.07	0.222
659.52	0.222
659.96	0.220
660.41	0.223
660.85	0.220
661.30	0.218
661.74	0.222
662.19	0.219
662.64	0.220
663.08	0.216
663.53	0.218
663.97	0.217
664.42	0.217
664.86	0.216
665.31	0.216
665.75	0.215
666.20	0.215
666.65	0.214
667.09	0.214
667.54	0.214
667.98	0.214
668.43	0.214
668.87	0.213
669.32	0.209
669.76	0.209
670.21	0.211
670.65	0.208
671.10	0.209
671.54	0.206
671.99	0.206
672.43	0.205
672.88	0.207
673.32	0.205
673.77	0.202
674.21	0.203
674.66	0.201
675.10	0.201
675.55	0.197
675.99	0.198
676.44	0.197
676.88	0.198
677.33	0.196
677.77	0.196
678.22	0.194
678.66	0.193
679.11	0.192
679.55	0.192
679.99	0.190
680.44	0.192
680.88	0.187
681.33	0.187
681.77	0.187
682.22	0.186
682.66	0.186
683.11	0.185
683.55	0.180
683.99	0.183
684.44	0.180
684.88	0.179
685.33	0.179
685.77	0.178
686.21	0.177
686.66	0.176
687.10	0.177
687.55	0.174
687.99	0.175
688.44	0.174
688.88	0.174
689.32	0.173
689.77	0.171
690.21	0.173
690.65	0.172
691.10	0.171
691.54	0.170
691.99	0.170
692.43	0.168
692.87	0.165
693.32	0.167
693.76	0.167
694.20	0.165
694.65	0.165
695.09	0.165
695.53	0.164
695.98	0.164
696.42	0.164
696.86	0.164
697.31	0.162
697.75	0.163
698.19	0.160
698.64	0.162
699.08	0.164
699.52	0.161
699.97	0.161
700.41	0.161
700.85	0.162
701.30	0.159
701.74	0.159
702.18	0.160
702.63	0.158
703.07	0.159
703.51	0.161
703.96	0.158
704.40	0.158
704.84	0.159
705.28	0.156
705.73	0.157
706.17	0.158
706.61	0.156
707.06	0.155
707.50	0.156
707.94	0.155
708.38	0.156
708.83	0.158
709.27	0.155
709.71	0.155
710.15	0.157
710.60	0.155
711.04	0.156
711.48	0.158
711.92	0.156
712.37	0.154
712.81	0.155
713.25	0.153
713.69	0.155
714.13	0.155
714.58	0.154
715.02	0.155
715.46	0.155
715.90	0.152
716.35	0.153
716.79	0.158
717.23	0.154
717.67	0.154
718.11	0.156
718.56	0.156
719.00	0.154
719.44	0.154
719.88	0.152
720.32	0.152
720.76	0.154
721.21	0.153
721.65	0.152
722.09	0.154
722.53	0.153
722.97	0.154
723.41	0.150
723.86	0.154
724.30	0.152
724.74	0.154
725.18	0.152
725.62	0.151
726.06	0.153
726.50	0.149
726.95	0.150
727.39	0.151
727.83	0.152
728.27	0.155
728.71	0.153
729.15	0.152
729.59	0.151
730.03	0.150
730.48	0.152
730.92	0.150
731.36	0.151
731.80	0.151
732.24	0.151
732.68	0.149
733.12	0.150
733.56	0.151
734.00	0.152
734.44	0.152
734.89	0.150
735.33	0.152
735.77	0.155
736.21	0.153
736.65	0.150
737.09	0.153
737.53	0.152
737.97	0.154
738.41	0.151
738.85	0.152
739.29	0.153
739.73	0.149
740.17	0.152
740.61	0.151
741.05	0.151
741.49	0.150
741.93	0.149
742.37	0.148
742.81	0.149
743.26	0.148
743.70	0.150
744.14	0.148
744.58	0.149
745.02	0.150
745.46	0.149
745.90	0.150
746.34	0.151
746.78	0.149
747.22	0.150
747.66	0.151
748.10	0.150
748.54	0.148
748.98	0.150
749.42	0.149
749.86	0.148
750.29	0.148
750.73	0.147
751.17	0.145
751.61	0.146
752.05	0.148
752.49	0.147
752.93	0.146
753.37	0.148
753.81	0.145
754.25	0.146
754.69	0.144
755.13	0.144
755.57	0.146
756.01	0.147
756.45	0.146
756.89	0.143
757.33	0.146
757.77	0.146
758.21	0.145
758.64	0.144
759.08	0.142
759.52	0.145
759.96	0.146
760.40	0.143
760.84	0.142
761.28	0.141
761.72	0.144
762.16	0.145
762.60	0.143
763.03	0.142
763.47	0.144
763.91	0.142
764.35	0.142
764.79	0.143
765.23	0.139
765.67	0.140
766.11	0.138
766.54	0.137
766.98	0.141
767.42	0.143
767.86	0.140
768.30	0.145
768.74	0.144
769.17	0.142
769.61	0.144
770.05	0.140
770.49	0.141
770.93	0.143
771.37	0.140
771.80	0.141
772.24	0.138
772.68	0.139
773.12	0.139
773.56	0.138
774.00	0.138
774.43	0.137
774.87	0.139
775.31	0.137
775.75	0.138
776.19	0.141
776.62	0.137
777.06	0.139
777.50	0.138
777.94	0.136
778.37	0.134
778.81	0.137
779.25	0.139
779.69	0.138
780.13	0.140
780.56	0.135
781.00	0.138
781.44	0.138
781.88	0.138
782.31	0.135
782.75	0.138
783.19	0.138
783.63	0.136
784.06	0.137
784.50	0.137
784.94	0.138
785.37	0.137
785.81	0.140
786.25	0.137
786.69	0.132
787.12	0.135
787.56	0.134
788.00	0.137
788.43	0.141
788.87	0.138
789.31	0.136
789.75	0.137
790.18	0.135
790.62	0.134
791.06	0.136
791.49	0.134
791.93	0.132
792.37	0.137
792.80	0.134
793.24	0.133
793.68	0.137
794.11	0.137
794.55	0.137
794.99	0.137
795.42	0.137
795.86	0.138
796.30	0.132
796.73	0.137
797.17	0.136
797.61	0.132
798.04	0.131
798.48	0.134
798.91	0.135
799.35	0.133
799.79	0.137
800.22	0.134
800.66	0.132
801.10	0.135
801.53	0.134
801.97	0.139
802.40	0.136
802.84	0.134
803.28	0.132
803.71	0.134
804.15	0.133
804.58	0.134
805.02	0.135
805.46	0.131
805.89	0.133
806.33	0.132
806.76	0.131
807.20	0.133
807.63	0.132
808.07	0.133
808.51	0.131
808.94	0.127
809.38	0.131
809.81	0.131
810.25	0.133
810.68	0.134
811.12	0.127
811.55	0.133
811.99	0.131
812.42	0.130
812.86	0.129
813.29	0.130
813.73	0.129
814.17	0.130
814.60	0.131
