SpectraSuite Data File
++++++++++++++++++++++++++++++++++++
Date: Sun Apr 24 15:45:45 CEST 2016
User: spectrasuite
Dark Spectrum Present: Yes
Reference Spectrum Present: Yes
Number of Sampled Component Spectra: 1
Spectrometers: HR+C0708
Integration Time (usec): 1000 (HR+C0708)
Spectra Averaged: 10 (HR+C0708)
Boxcar Smoothing: 0 (HR+C0708)
Correct for Electrical Dark: No (HR+C0708)
Strobe/Lamp Enabled: No (HR+C0708)
Correct for Detector Non-linearity: No (HR+C0708)
Correct for Stray Light: No (HR+C0708)
Number of Pixels in Processed Spectrum: 2048
>>>>>Begin Processed Spectral Data<<<<<
188.76	-0.000
189.23	-0.000
189.70	-0.000
190.17	-0.000
190.64	-0.000
191.12	-0.000
191.59	-0.000
192.06	-0.000
192.53	-0.000
193.01	-0.000
193.48	-0.000
193.95	-0.000
194.42	-0.000
194.90	1.512
195.37	-0.000
195.84	-0.000
196.31	-0.000
196.78	-0.000
197.26	-0.000
197.73	-0.000
198.20	-0.000
198.67	-0.000
199.14	-0.000
199.62	-0.000
200.09	-0.000
200.56	-0.000
201.03	-0.000
201.50	-0.000
201.97	-0.000
202.45	-0.000
202.92	-0.000
203.39	1.892
203.86	0.894
204.33	1.346
204.80	-0.000
205.28	-0.000
205.75	-0.000
206.22	-0.000
206.69	1.557
207.16	1.156
207.63	-0.000
208.11	1.294
208.58	-0.000
209.05	2.412
209.52	-0.000
209.99	-0.000
210.46	1.080
210.93	-0.000
211.41	-0.000
211.88	0.953
212.35	1.639
212.82	-0.000
213.29	1.941
213.76	1.913
214.23	-0.000
214.70	-0.000
215.18	-0.000
215.65	1.187
216.12	1.117
216.59	-0.000
217.06	1.815
217.53	1.508
218.00	-0.000
218.47	-0.000
218.94	-0.000
219.41	-0.000
219.89	-0.000
220.36	-0.000
220.83	1.028
221.30	1.745
221.77	-0.000
222.24	-0.000
222.71	-0.000
223.18	-0.000
223.65	-0.000
224.12	-0.000
224.59	-0.000
225.06	-0.000
225.54	2.638
226.01	1.091
226.48	1.603
226.95	-0.000
227.42	1.328
227.89	-0.000
228.36	2.022
228.83	-0.000
229.30	-0.000
229.77	2.409
230.24	2.493
230.71	-0.000
231.18	2.663
231.65	1.898
232.12	2.394
232.59	1.926
233.06	2.202
233.53	-0.000
234.00	2.281
234.47	3.042
234.94	-0.000
235.41	2.613
235.88	-0.000
236.35	-0.000
236.82	3.291
237.29	-0.000
237.76	3.220
238.23	-0.000
238.70	-0.000
239.17	2.650
239.64	-0.000
240.11	-0.000
240.58	-0.000
241.05	-0.000
241.52	2.809
241.99	-0.000
242.46	2.771
242.93	-0.000
243.40	3.105
243.87	2.910
244.34	2.579
244.81	2.802
245.28	-0.000
245.75	-0.000
246.22	-0.000
246.69	3.075
247.16	2.742
247.63	-0.000
248.10	2.659
248.57	-0.000
249.04	-0.000
249.51	-0.000
249.98	3.457
250.45	-0.000
250.92	3.407
251.39	3.083
251.85	3.713
252.32	-0.000
252.79	-0.000
253.26	2.993
253.73	-0.000
254.20	-0.000
254.67	2.641
255.14	2.894
255.61	-0.000
256.08	-0.000
256.55	-0.000
257.02	2.967
257.49	-0.000
257.95	3.152
258.42	2.862
258.89	3.149
259.36	3.445
259.83	3.487
260.30	4.160
260.77	-0.000
261.24	3.225
261.71	4.258
262.17	3.442
262.64	3.032
263.11	3.693
263.58	3.461
264.05	3.550
264.52	2.966
264.99	2.992
265.46	2.869
265.92	3.102
266.39	2.762
266.86	3.289
267.33	3.729
267.80	2.903
268.27	3.231
268.74	2.992
269.20	3.431
269.67	2.868
270.14	2.740
270.61	2.868
271.08	3.018
271.55	2.701
272.01	2.810
272.48	2.739
272.95	2.642
273.42	2.773
273.89	2.650
274.36	2.540
274.82	2.541
275.29	2.481
275.76	2.609
276.23	2.652
276.70	2.489
277.16	2.532
277.63	2.542
278.10	2.606
278.57	2.517
279.04	2.457
279.50	2.564
279.97	2.517
280.44	2.320
280.91	2.417
281.38	2.339
281.84	2.413
282.31	2.481
282.78	2.528
283.25	2.360
283.72	2.312
284.18	2.303
284.65	2.383
285.12	2.332
285.59	2.233
286.05	2.307
286.52	2.286
286.99	2.269
287.46	2.255
287.92	2.249
288.39	2.192
288.86	2.253
289.33	2.223
289.79	2.259
290.26	2.234
290.73	2.134
291.20	2.205
291.66	2.216
292.13	2.149
292.60	2.116
293.07	2.124
293.53	2.072
294.00	2.122
294.47	2.170
294.93	2.122
295.40	2.165
295.87	2.085
296.34	2.117
296.80	2.096
297.27	2.064
297.74	2.082
298.20	2.126
298.67	2.008
299.14	2.022
299.60	2.036
300.07	2.033
300.54	2.032
301.01	1.989
301.47	1.969
301.94	1.997
302.41	1.958
302.87	1.975
303.34	2.047
303.81	1.941
304.27	1.941
304.74	1.933
305.21	1.925
305.67	1.954
306.14	1.887
306.61	1.970
307.07	1.930
307.54	1.893
308.01	1.895
308.47	1.878
308.94	1.907
309.40	1.903
309.87	1.866
310.34	1.857
310.80	1.890
311.27	1.859
311.74	1.865
312.20	1.877
312.67	1.851
313.13	1.816
313.60	1.846
314.07	1.840
314.53	1.782
315.00	1.803
315.47	1.832
315.93	1.789
316.40	1.791
316.86	1.795
317.33	1.791
317.80	1.760
318.26	1.793
318.73	1.790
319.19	1.764
319.66	1.730
320.13	1.747
320.59	1.737
321.06	1.741
321.52	1.739
321.99	1.738
322.45	1.716
322.92	1.685
323.39	1.714
323.85	1.698
324.32	1.688
324.78	1.700
325.25	1.716
325.71	1.666
326.18	1.649
326.64	1.679
327.11	1.633
327.58	1.624
328.04	1.613
328.51	1.644
328.97	1.621
329.44	1.581
329.90	1.577
330.37	1.597
330.83	1.558
331.30	1.586
331.76	1.551
332.23	1.547
332.69	1.520
333.16	1.500
333.62	1.503
334.09	1.488
334.56	1.461
335.02	1.462
335.49	1.448
335.95	1.429
336.42	1.406
336.88	1.409
337.35	1.385
337.81	1.376
338.28	1.359
338.74	1.344
339.20	1.328
339.67	1.297
340.13	1.285
340.60	1.271
341.06	1.252
341.53	1.225
341.99	1.219
342.46	1.191
342.92	1.177
343.39	1.159
343.85	1.147
344.32	1.137
344.78	1.114
345.25	1.103
345.71	1.084
346.17	1.057
346.64	1.044
347.10	1.025
347.57	0.997
348.03	0.982
348.50	0.960
348.96	0.946
349.43	0.936
349.89	0.910
350.35	0.908
350.82	0.883
351.28	0.867
351.75	0.853
352.21	0.844
352.67	0.822
353.14	0.823
353.60	0.800
354.07	0.791
354.53	0.781
355.00	0.769
355.46	0.762
355.92	0.743
356.39	0.735
356.85	0.733
357.31	0.720
357.78	0.710
358.24	0.699
358.71	0.697
359.17	0.689
359.63	0.679
360.10	0.674
360.56	0.668
361.03	0.665
361.49	0.657
361.95	0.651
362.42	0.652
362.88	0.643
363.34	0.639
363.81	0.636
364.27	0.632
364.73	0.634
365.20	0.631
365.66	0.622
366.12	0.617
366.59	0.615
367.05	0.613
367.51	0.614
367.98	0.606
368.44	0.602
368.90	0.604
369.37	0.597
369.83	0.600
370.29	0.598
370.76	0.590
371.22	0.595
371.68	0.588
372.15	0.583
372.61	0.583
373.07	0.580
373.54	0.581
374.00	0.580
374.46	0.577
374.92	0.574
375.39	0.570
375.85	0.571
376.31	0.570
376.78	0.571
377.24	0.568
377.70	0.566
378.16	0.562
378.63	0.558
379.09	0.561
379.55	0.558
380.01	0.560
380.48	0.558
380.94	0.551
381.40	0.546
381.87	0.546
382.33	0.547
382.79	0.543
383.25	0.541
383.72	0.543
384.18	0.543
384.64	0.535
385.10	0.538
385.56	0.537
386.03	0.533
386.49	0.530
386.95	0.528
387.41	0.529
387.88	0.525
388.34	0.526
388.80	0.523
389.26	0.520
389.72	0.521
390.19	0.522
390.65	0.520
391.11	0.515
391.57	0.515
392.04	0.511
392.50	0.511
392.96	0.509
393.42	0.503
393.88	0.509
394.34	0.507
394.81	0.502
395.27	0.500
395.73	0.504
396.19	0.499
396.65	0.501
397.12	0.492
397.58	0.498
398.04	0.490
398.50	0.492
398.96	0.493
399.42	0.496
399.89	0.491
400.35	0.487
400.81	0.486
401.27	0.485
401.73	0.486
402.19	0.481
402.65	0.482
403.12	0.481
403.58	0.476
404.04	0.478
404.50	0.477
404.96	0.472
405.42	0.471
405.88	0.476
406.34	0.472
406.81	0.472
407.27	0.469
407.73	0.464
408.19	0.468
408.65	0.466
409.11	0.462
409.57	0.464
410.03	0.465
410.49	0.461
410.96	0.458
411.42	0.457
411.88	0.455
412.34	0.454
412.80	0.454
413.26	0.449
413.72	0.448
414.18	0.448
414.64	0.450
415.10	0.447
415.56	0.446
416.02	0.446
416.48	0.444
416.95	0.441
417.41	0.444
417.87	0.440
418.33	0.440
418.79	0.435
419.25	0.439
419.71	0.438
420.17	0.434
420.63	0.433
421.09	0.431
421.55	0.429
422.01	0.430
422.47	0.428
422.93	0.430
423.39	0.427
423.85	0.429
424.31	0.426
424.77	0.424
425.23	0.425
425.69	0.427
426.15	0.427
426.61	0.422
427.07	0.417
427.53	0.418
427.99	0.417
428.45	0.418
428.91	0.417
429.37	0.417
429.83	0.411
430.29	0.411
430.75	0.412
431.21	0.415
431.67	0.411
432.13	0.410
432.59	0.407
433.05	0.407
433.51	0.402
433.97	0.405
434.43	0.404
434.89	0.407
435.35	0.404
435.81	0.402
436.27	0.401
436.73	0.396
437.19	0.399
437.65	0.399
438.11	0.393
438.57	0.395
439.03	0.393
439.48	0.392
439.94	0.392
440.40	0.393
440.86	0.393
441.32	0.389
441.78	0.389
442.24	0.390
442.70	0.388
443.16	0.383
443.62	0.386
444.08	0.387
444.54	0.383
444.99	0.384
445.45	0.386
445.91	0.381
446.37	0.381
446.83	0.379
447.29	0.376
447.75	0.378
448.21	0.376
448.67	0.374
449.12	0.375
449.58	0.372
450.04	0.370
450.50	0.377
450.96	0.374
451.42	0.369
451.88	0.366
452.34	0.370
452.79	0.370
453.25	0.368
453.71	0.366
454.17	0.365
454.63	0.367
455.09	0.367
455.55	0.365
456.00	0.362
456.46	0.362
456.92	0.359
457.38	0.364
457.84	0.361
458.30	0.357
458.75	0.360
459.21	0.356
459.67	0.356
460.13	0.355
460.59	0.355
461.04	0.353
461.50	0.353
461.96	0.353
462.42	0.352
462.88	0.350
463.33	0.350
463.79	0.349
464.25	0.350
464.71	0.349
465.17	0.348
465.62	0.348
466.08	0.347
466.54	0.345
467.00	0.348
467.46	0.347
467.91	0.344
468.37	0.343
468.83	0.343
469.29	0.342
469.74	0.343
470.20	0.342
470.66	0.339
471.12	0.336
471.57	0.339
472.03	0.337
472.49	0.336
472.95	0.338
473.40	0.334
473.86	0.333
474.32	0.332
474.78	0.333
475.23	0.328
475.69	0.333
476.15	0.331
476.60	0.333
477.06	0.329
477.52	0.330
477.98	0.327
478.43	0.326
478.89	0.326
479.35	0.325
479.80	0.326
480.26	0.325
480.72	0.325
481.18	0.323
481.63	0.323
482.09	0.322
482.55	0.320
483.00	0.322
483.46	0.320
483.92	0.320
484.37	0.319
484.83	0.315
485.29	0.316
485.74	0.315
486.20	0.317
486.66	0.316
487.11	0.317
487.57	0.311
488.03	0.312
488.48	0.313
488.94	0.312
489.40	0.312
489.85	0.310
490.31	0.310
490.77	0.311
491.22	0.310
491.68	0.307
492.13	0.307
492.59	0.308
493.05	0.308
493.50	0.306
493.96	0.307
494.42	0.305
494.87	0.303
495.33	0.301
495.78	0.306
496.24	0.305
496.70	0.302
497.15	0.301
497.61	0.302
498.06	0.301
498.52	0.297
498.98	0.298
499.43	0.300
499.89	0.299
500.34	0.297
500.80	0.299
501.25	0.298
501.71	0.296
502.17	0.296
502.62	0.297
503.08	0.296
503.53	0.292
503.99	0.291
504.44	0.293
504.90	0.291
505.36	0.289
505.81	0.291
506.27	0.289
506.72	0.292
507.18	0.290
507.63	0.288
508.09	0.289
508.54	0.287
509.00	0.287
509.45	0.286
509.91	0.285
510.36	0.285
510.82	0.285
511.27	0.284
511.73	0.284
512.19	0.283
512.64	0.282
513.10	0.283
513.55	0.284
514.01	0.279
514.46	0.281
514.92	0.281
515.37	0.279
515.83	0.282
516.28	0.278
516.73	0.278
517.19	0.277
517.64	0.276
518.10	0.275
518.55	0.276
519.01	0.272
519.46	0.277
519.92	0.273
520.37	0.272
520.83	0.272
521.28	0.272
521.74	0.273
522.19	0.273
522.65	0.270
523.10	0.270
523.55	0.271
524.01	0.272
524.46	0.270
524.92	0.266
525.37	0.269
525.83	0.268
526.28	0.268
526.73	0.270
527.19	0.268
527.64	0.267
528.10	0.266
528.55	0.267
529.01	0.265
529.46	0.266
529.91	0.265
530.37	0.263
530.82	0.263
531.28	0.261
531.73	0.261
532.18	0.263
532.64	0.261
533.09	0.259
533.54	0.259
534.00	0.259
534.45	0.264
534.91	0.260
535.36	0.261
535.81	0.260
536.27	0.256
536.72	0.261
537.17	0.255
537.63	0.256
538.08	0.252
538.54	0.257
538.99	0.252
539.44	0.256
539.90	0.255
540.35	0.253
540.80	0.253
541.26	0.254
541.71	0.253
542.16	0.252
542.62	0.250
543.07	0.252
543.52	0.252
543.98	0.252
544.43	0.253
544.88	0.249
545.34	0.248
545.79	0.249
546.24	0.247
546.69	0.251
547.15	0.247
547.60	0.246
548.05	0.249
548.51	0.247
548.96	0.247
549.41	0.244
549.86	0.245
550.32	0.245
550.77	0.247
551.22	0.244
551.68	0.242
552.13	0.241
552.58	0.239
553.03	0.246
553.49	0.243
553.94	0.241
554.39	0.242
554.84	0.243
555.30	0.241
555.75	0.239
556.20	0.240
556.65	0.239
557.11	0.238
557.56	0.240
558.01	0.241
558.46	0.241
558.92	0.236
559.37	0.235
559.82	0.239
560.27	0.235
560.72	0.236
561.18	0.235
561.63	0.235
562.08	0.233
562.53	0.235
562.99	0.234
563.44	0.234
563.89	0.231
564.34	0.231
564.79	0.234
565.25	0.231
565.70	0.231
566.15	0.231
566.60	0.230
567.05	0.229
567.50	0.228
567.96	0.228
568.41	0.229
568.86	0.228
569.31	0.228
569.76	0.227
570.21	0.227
570.67	0.226
571.12	0.228
571.57	0.225
572.02	0.225
572.47	0.225
572.92	0.224
573.37	0.225
573.83	0.222
574.28	0.223
574.73	0.223
575.18	0.221
575.63	0.224
576.08	0.221
576.53	0.219
576.98	0.221
577.44	0.216
577.89	0.221
578.34	0.220
578.79	0.218
579.24	0.218
579.69	0.220
580.14	0.215
580.59	0.215
581.04	0.214
581.49	0.215
581.95	0.216
582.40	0.216
582.85	0.215
583.30	0.215
583.75	0.215
584.20	0.216
584.65	0.214
585.10	0.212
585.55	0.213
586.00	0.214
586.45	0.213
586.90	0.213
587.35	0.213
587.80	0.213
588.25	0.209
588.71	0.211
589.16	0.210
589.61	0.210
590.06	0.211
590.51	0.213
590.96	0.210
591.41	0.209
591.86	0.208
592.31	0.210
592.76	0.209
593.21	0.209
593.66	0.209
594.11	0.209
594.56	0.207
595.01	0.208
595.46	0.208
595.91	0.206
596.36	0.206
596.81	0.204
597.26	0.207
597.71	0.207
598.16	0.206
598.61	0.204
599.06	0.206
599.51	0.206
599.96	0.205
600.41	0.205
600.86	0.203
601.31	0.201
601.76	0.204
602.21	0.204
602.65	0.204
603.10	0.203
603.55	0.202
604.00	0.202
604.45	0.201
604.90	0.200
605.35	0.199
605.80	0.202
606.25	0.201
606.70	0.200
607.15	0.200
607.60	0.200
608.05	0.197
608.50	0.199
608.95	0.198
609.39	0.199
609.84	0.197
610.29	0.198
610.74	0.197
611.19	0.195
611.64	0.196
612.09	0.196
612.54	0.197
612.99	0.194
613.44	0.194
613.88	0.196
614.33	0.196
614.78	0.194
615.23	0.195
615.68	0.194
616.13	0.194
616.58	0.193
617.03	0.191
617.47	0.194
617.92	0.191
618.37	0.190
618.82	0.193
619.27	0.190
619.72	0.192
620.17	0.190
620.61	0.189
621.06	0.190
621.51	0.191
621.96	0.191
622.41	0.191
622.86	0.189
623.30	0.188
623.75	0.190
624.20	0.189
624.65	0.187
625.10	0.188
625.54	0.188
625.99	0.185
626.44	0.186
626.89	0.187
627.34	0.188
627.78	0.187
628.23	0.185
628.68	0.185
629.13	0.186
629.58	0.185
630.02	0.185
630.47	0.184
630.92	0.186
631.37	0.184
631.81	0.185
632.26	0.184
632.71	0.183
633.16	0.183
633.61	0.184
634.05	0.179
634.50	0.183
634.95	0.182
635.40	0.184
635.84	0.182
636.29	0.181
636.74	0.182
637.18	0.180
637.63	0.181
638.08	0.179
638.53	0.179
638.97	0.179
639.42	0.182
639.87	0.180
640.32	0.178
640.76	0.179
641.21	0.179
641.66	0.181
642.10	0.179
642.55	0.178
643.00	0.178
643.44	0.179
643.89	0.179
644.34	0.179
644.79	0.177
645.23	0.179
645.68	0.178
646.13	0.177
646.57	0.177
647.02	0.176
647.47	0.179
647.91	0.176
648.36	0.176
648.81	0.175
649.25	0.173
649.70	0.174
650.15	0.174
650.59	0.175
651.04	0.174
651.48	0.177
651.93	0.174
652.38	0.173
652.82	0.174
653.27	0.171
653.72	0.175
654.16	0.173
654.61	0.173
655.06	0.171
655.50	0.170
655.95	0.169
656.39	0.165
656.84	0.168
657.29	0.176
657.73	0.170
658.18	0.171
658.62	0.171
659.07	0.171
659.52	0.171
659.96	0.170
660.41	0.173
660.85	0.169
661.30	0.169
661.74	0.169
662.19	0.169
662.64	0.168
663.08	0.168
663.53	0.169
663.97	0.167
664.42	0.167
664.86	0.169
665.31	0.168
665.75	0.167
666.20	0.168
666.65	0.168
667.09	0.167
667.54	0.169
667.98	0.166
668.43	0.165
668.87	0.166
669.32	0.164
669.76	0.165
670.21	0.166
670.65	0.163
671.10	0.165
671.54	0.166
671.99	0.163
672.43	0.164
672.88	0.165
673.32	0.164
673.77	0.162
674.21	0.162
674.66	0.163
675.10	0.161
675.55	0.161
675.99	0.162
676.44	0.162
676.88	0.164
677.33	0.163
677.77	0.161
678.22	0.161
678.66	0.160
679.11	0.161
679.55	0.160
679.99	0.159
680.44	0.162
680.88	0.161
681.33	0.159
681.77	0.158
682.22	0.160
682.66	0.160
683.11	0.159
683.55	0.159
683.99	0.157
684.44	0.157
684.88	0.158
685.33	0.156
685.77	0.159
686.21	0.160
686.66	0.159
687.10	0.159
687.55	0.157
687.99	0.158
688.44	0.159
688.88	0.158
689.32	0.158
689.77	0.157
690.21	0.156
690.65	0.157
691.10	0.155
691.54	0.158
691.99	0.156
692.43	0.154
692.87	0.155
693.32	0.156
693.76	0.154
694.20	0.156
694.65	0.156
695.09	0.156
695.53	0.154
695.98	0.154
696.42	0.154
696.86	0.154
697.31	0.152
697.75	0.154
698.19	0.152
698.64	0.154
699.08	0.153
699.52	0.152
699.97	0.154
700.41	0.152
700.85	0.153
701.30	0.151
701.74	0.153
702.18	0.153
702.63	0.150
703.07	0.153
703.51	0.153
703.96	0.151
704.40	0.153
704.84	0.151
705.28	0.150
705.73	0.150
706.17	0.153
706.61	0.149
707.06	0.150
707.50	0.149
707.94	0.149
708.38	0.149
708.83	0.155
709.27	0.150
709.71	0.150
710.15	0.151
710.60	0.150
711.04	0.148
711.48	0.152
711.92	0.152
712.37	0.150
712.81	0.151
713.25	0.150
713.69	0.149
714.13	0.151
714.58	0.149
715.02	0.147
715.46	0.149
715.90	0.148
716.35	0.145
716.79	0.149
717.23	0.152
717.67	0.149
718.11	0.151
718.56	0.148
719.00	0.148
719.44	0.148
719.88	0.145
720.32	0.149
720.76	0.148
721.21	0.148
721.65	0.148
722.09	0.151
722.53	0.149
722.97	0.148
723.41	0.148
723.86	0.148
724.30	0.148
724.74	0.149
725.18	0.147
725.62	0.147
726.06	0.147
726.50	0.147
726.95	0.149
727.39	0.148
727.83	0.149
728.27	0.148
728.71	0.150
729.15	0.148
729.59	0.150
730.03	0.145
730.48	0.147
730.92	0.145
731.36	0.148
731.80	0.147
732.24	0.148
732.68	0.146
733.12	0.146
733.56	0.146
734.00	0.147
734.44	0.148
734.89	0.146
735.33	0.147
735.77	0.150
736.21	0.149
736.65	0.144
737.09	0.149
737.53	0.149
737.97	0.149
738.41	0.147
738.85	0.150
739.29	0.147
739.73	0.145
740.17	0.146
740.61	0.148
741.05	0.148
741.49	0.147
741.93	0.147
742.37	0.144
742.81	0.147
743.26	0.146
743.70	0.147
744.14	0.146
744.58	0.148
745.02	0.144
745.46	0.147
745.90	0.147
746.34	0.147
746.78	0.145
747.22	0.146
747.66	0.146
748.10	0.146
748.54	0.145
748.98	0.142
749.42	0.146
749.86	0.145
750.29	0.144
750.73	0.142
751.17	0.142
751.61	0.142
752.05	0.146
752.49	0.143
752.93	0.143
753.37	0.142
753.81	0.143
754.25	0.142
754.69	0.142
755.13	0.139
755.57	0.143
756.01	0.145
756.45	0.141
756.89	0.143
757.33	0.143
757.77	0.141
758.21	0.140
758.64	0.139
759.08	0.137
759.52	0.142
759.96	0.143
760.40	0.142
760.84	0.140
761.28	0.139
761.72	0.141
762.16	0.143
762.60	0.140
763.03	0.140
763.47	0.140
763.91	0.142
764.35	0.139
764.79	0.137
765.23	0.136
765.67	0.137
766.11	0.136
766.54	0.135
766.98	0.139
767.42	0.138
767.86	0.134
768.30	0.139
768.74	0.141
769.17	0.142
769.61	0.140
770.05	0.137
770.49	0.139
770.93	0.141
771.37	0.134
771.80	0.138
772.24	0.136
772.68	0.137
773.12	0.138
773.56	0.135
774.00	0.138
774.43	0.134
774.87	0.136
775.31	0.136
775.75	0.134
776.19	0.138
776.62	0.133
777.06	0.138
777.50	0.134
777.94	0.136
778.37	0.133
778.81	0.136
779.25	0.136
779.69	0.135
780.13	0.138
780.56	0.135
781.00	0.136
781.44	0.134
781.88	0.135
782.31	0.133
782.75	0.133
783.19	0.135
783.63	0.133
784.06	0.135
784.50	0.137
784.94	0.134
785.37	0.134
785.81	0.135
786.25	0.134
786.69	0.131
787.12	0.132
787.56	0.131
788.00	0.132
788.43	0.135
788.87	0.133
789.31	0.133
789.75	0.135
790.18	0.131
790.62	0.134
791.06	0.130
791.49	0.133
791.93	0.129
792.37	0.134
792.80	0.130
793.24	0.131
793.68	0.135
794.11	0.134
794.55	0.133
794.99	0.134
795.42	0.132
795.86	0.135
796.30	0.131
796.73	0.131
797.17	0.132
797.61	0.128
798.04	0.131
798.48	0.132
798.91	0.130
799.35	0.131
799.79	0.132
800.22	0.130
800.66	0.128
801.10	0.135
801.53	0.130
801.97	0.134
802.40	0.133
802.84	0.132
803.28	0.129
803.71	0.134
804.15	0.131
804.58	0.131
805.02	0.131
805.46	0.128
805.89	0.128
806.33	0.133
806.76	0.129
807.20	0.129
807.63	0.128
808.07	0.132
808.51	0.126
808.94	0.127
809.38	0.129
809.81	0.129
810.25	0.130
810.68	0.129
811.12	0.130
811.55	0.130
811.99	0.127
812.42	0.131
812.86	0.128
813.29	0.128
813.73	0.128
814.17	0.127
814.60	0.125
815.04	0.128
