SpectraSuite Data File
++++++++++++++++++++++++++++++++++++
Date: Sun Apr 24 13:31:08 CEST 2016
User: spectrasuite
Dark Spectrum Present: Yes
Reference Spectrum Present: Yes
Number of Sampled Component Spectra: 1
Spectrometers: HR+C0708
Integration Time (usec): 1000 (HR+C0708)
Spectra Averaged: 10 (HR+C0708)
Boxcar Smoothing: 0 (HR+C0708)
Correct for Electrical Dark: No (HR+C0708)
Strobe/Lamp Enabled: No (HR+C0708)
Correct for Detector Non-linearity: No (HR+C0708)
Correct for Stray Light: No (HR+C0708)
Number of Pixels in Processed Spectrum: 2048
>>>>>Begin Processed Spectral Data<<<<<
188.76	0.519
189.23	-0.000
189.70	-0.000
190.17	-0.000
190.64	-0.000
191.12	-0.000
191.59	-0.000
192.06	-0.000
192.53	-0.000
193.01	-0.000
193.48	-0.000
193.95	-0.000
194.42	0.585
194.90	0.470
195.37	-0.000
195.84	-0.000
196.31	0.660
196.78	-0.000
197.26	-0.000
197.73	-0.000
198.20	1.024
198.67	-0.000
199.14	-0.000
199.62	-0.000
200.09	-0.000
200.56	-0.000
201.03	0.867
201.50	0.918
201.97	1.430
202.45	1.443
202.92	0.666
203.39	0.684
203.86	0.914
204.33	0.890
204.80	1.124
205.28	1.096
205.75	-0.000
206.22	0.787
206.69	0.703
207.16	1.417
207.63	0.537
208.11	0.501
208.58	0.711
209.05	1.122
209.52	2.235
209.99	0.529
210.46	0.794
210.93	1.372
211.41	0.630
211.88	0.372
212.35	1.068
212.82	1.018
213.29	0.906
213.76	0.606
214.23	0.949
214.70	1.055
215.18	0.761
215.65	0.718
216.12	0.849
216.59	0.734
217.06	0.668
217.53	1.836
218.00	1.086
218.47	0.961
218.94	1.021
219.41	-0.000
219.89	1.128
220.36	1.103
220.83	1.021
221.30	-0.000
221.77	0.769
222.24	0.952
222.71	1.046
223.18	2.298
223.65	0.957
224.12	1.408
224.59	-0.000
225.06	0.982
225.54	0.998
226.01	1.046
226.48	1.535
226.95	1.421
227.42	1.536
227.89	-0.000
228.36	1.323
228.83	1.452
229.30	1.608
229.77	1.931
230.24	1.628
230.71	2.014
231.18	2.095
231.65	1.925
232.12	1.528
232.59	1.685
233.06	2.719
233.53	1.663
234.00	1.835
234.47	1.879
234.94	-0.000
235.41	1.945
235.88	-0.000
236.35	2.460
236.82	2.319
237.29	1.921
237.76	2.416
238.23	2.462
238.70	2.397
239.17	2.231
239.64	2.617
240.11	-0.000
240.58	2.265
241.05	2.451
241.52	2.783
241.99	3.121
242.46	2.393
242.93	3.185
243.40	2.790
243.87	2.421
244.34	2.252
244.81	2.880
245.28	4.344
245.75	2.741
246.22	2.689
246.69	3.376
247.16	2.634
247.63	2.467
248.10	2.460
248.57	3.155
249.04	2.587
249.51	2.836
249.98	4.013
250.45	2.718
250.92	2.759
251.39	3.000
251.85	2.880
252.32	2.870
252.79	2.704
253.26	2.939
253.73	3.771
254.20	2.629
254.67	2.514
255.14	3.133
255.61	3.072
256.08	2.901
256.55	4.255
257.02	2.941
257.49	3.160
257.95	3.008
258.42	3.073
258.89	3.164
259.36	2.839
259.83	2.976
260.30	3.325
260.77	3.644
261.24	2.888
261.71	3.559
262.17	-0.000
262.64	2.806
263.11	2.911
263.58	-0.000
264.05	3.265
264.52	2.740
264.99	2.751
265.46	3.067
265.92	2.933
266.39	2.825
266.86	3.149
267.33	3.199
267.80	2.701
268.27	3.305
268.74	3.053
269.20	3.219
269.67	2.942
270.14	2.777
270.61	2.821
271.08	2.757
271.55	2.609
272.01	3.026
272.48	3.010
272.95	2.829
273.42	2.876
273.89	2.781
274.36	2.735
274.82	2.620
275.29	2.801
275.76	2.974
276.23	2.613
276.70	2.826
277.16	2.926
277.63	2.531
278.10	2.670
278.57	2.636
279.04	3.211
279.50	3.146
279.97	2.863
280.44	2.582
280.91	2.593
281.38	2.457
281.84	2.654
282.31	2.834
282.78	2.773
283.25	2.577
283.72	2.580
284.18	2.562
284.65	2.627
285.12	2.544
285.59	2.551
286.05	2.982
286.52	2.624
286.99	2.612
287.46	2.801
287.92	2.591
288.39	2.551
288.86	2.609
289.33	2.534
289.79	2.619
290.26	2.666
290.73	2.549
291.20	2.513
291.66	2.517
292.13	2.482
292.60	2.502
293.07	2.447
293.53	2.424
294.00	2.675
294.47	2.552
294.93	2.471
295.40	2.617
295.87	2.514
296.34	2.576
296.80	2.287
297.27	2.402
297.74	2.408
298.20	2.380
298.67	2.342
299.14	2.416
299.60	2.360
300.07	2.333
300.54	2.367
301.01	2.337
301.47	2.303
301.94	2.258
302.41	2.291
302.87	2.434
303.34	2.387
303.81	2.286
304.27	2.338
304.74	2.245
305.21	2.192
305.67	2.255
306.14	2.199
306.61	2.297
307.07	2.199
307.54	2.184
308.01	2.296
308.47	2.181
308.94	2.279
309.40	2.302
309.87	2.261
310.34	2.235
310.80	2.204
311.27	2.237
311.74	2.215
312.20	2.219
312.67	2.274
313.13	2.197
313.60	2.219
314.07	2.184
314.53	2.201
315.00	2.152
315.47	2.243
315.93	2.275
316.40	2.170
316.86	2.160
317.33	2.149
317.80	2.155
318.26	2.232
318.73	2.169
319.19	2.177
319.66	2.210
320.13	2.115
320.59	2.139
321.06	2.175
321.52	2.199
321.99	2.148
322.45	2.096
322.92	2.081
323.39	2.102
323.85	2.108
324.32	2.151
324.78	2.140
325.25	2.087
325.71	2.033
326.18	2.057
326.64	2.185
327.11	2.064
327.58	2.000
328.04	2.017
328.51	2.064
328.97	1.992
329.44	1.945
329.90	1.994
330.37	1.951
330.83	1.913
331.30	1.978
331.76	1.904
332.23	1.860
332.69	1.866
333.16	1.814
333.62	1.802
334.09	1.752
334.56	1.727
335.02	1.701
335.49	1.637
335.95	1.605
336.42	1.592
336.88	1.548
337.35	1.503
337.81	1.474
338.28	1.452
338.74	1.409
339.20	1.355
339.67	1.311
340.13	1.303
340.60	1.238
341.06	1.186
341.53	1.148
341.99	1.117
342.46	1.069
342.92	1.038
343.39	0.998
343.85	0.971
344.32	0.938
344.78	0.912
345.25	0.888
345.71	0.855
346.17	0.822
346.64	0.793
347.10	0.756
347.57	0.721
348.03	0.687
348.50	0.656
348.96	0.632
349.43	0.612
349.89	0.592
350.35	0.566
350.82	0.543
351.28	0.526
351.75	0.510
352.21	0.487
352.67	0.473
353.14	0.458
353.60	0.444
354.07	0.426
354.53	0.412
355.00	0.400
355.46	0.393
355.92	0.375
356.39	0.367
356.85	0.361
357.31	0.350
357.78	0.345
358.24	0.336
358.71	0.328
359.17	0.324
359.63	0.320
360.10	0.312
360.56	0.308
361.03	0.302
361.49	0.300
361.95	0.298
362.42	0.294
362.88	0.292
363.34	0.288
363.81	0.282
364.27	0.281
364.73	0.278
365.20	0.279
365.66	0.276
366.12	0.272
366.59	0.272
367.05	0.271
367.51	0.270
367.98	0.265
368.44	0.268
368.90	0.267
369.37	0.261
369.83	0.261
370.29	0.262
370.76	0.260
371.22	0.260
371.68	0.257
372.15	0.254
372.61	0.251
373.07	0.251
373.54	0.252
374.00	0.250
374.46	0.250
374.92	0.250
375.39	0.248
375.85	0.246
376.31	0.247
376.78	0.242
377.24	0.243
377.70	0.244
378.16	0.238
378.63	0.238
379.09	0.241
379.55	0.238
380.01	0.240
380.48	0.237
380.94	0.235
381.40	0.233
381.87	0.231
382.33	0.233
382.79	0.233
383.25	0.231
383.72	0.234
384.18	0.231
384.64	0.228
385.10	0.229
385.56	0.231
386.03	0.225
386.49	0.226
386.95	0.224
387.41	0.226
387.88	0.224
388.34	0.222
388.80	0.224
389.26	0.222
389.72	0.222
390.19	0.221
390.65	0.220
391.11	0.221
391.57	0.221
392.04	0.219
392.50	0.215
392.96	0.216
393.42	0.214
393.88	0.216
394.34	0.213
394.81	0.215
395.27	0.217
395.73	0.213
396.19	0.212
396.65	0.211
397.12	0.210
397.58	0.211
398.04	0.210
398.50	0.209
398.96	0.211
399.42	0.211
399.89	0.206
400.35	0.208
400.81	0.205
401.27	0.205
401.73	0.205
402.19	0.202
402.65	0.202
403.12	0.200
403.58	0.200
404.04	0.202
404.50	0.202
404.96	0.198
405.42	0.200
405.88	0.197
406.34	0.198
406.81	0.197
407.27	0.197
407.73	0.195
408.19	0.195
408.65	0.197
409.11	0.194
409.57	0.196
410.03	0.190
410.49	0.195
410.96	0.191
411.42	0.193
411.88	0.192
412.34	0.188
412.80	0.192
413.26	0.189
413.72	0.189
414.18	0.187
414.64	0.182
415.10	0.190
415.56	0.188
416.02	0.187
416.48	0.185
416.95	0.183
417.41	0.184
417.87	0.183
418.33	0.184
418.79	0.181
419.25	0.182
419.71	0.180
420.17	0.183
420.63	0.181
421.09	0.180
421.55	0.179
422.01	0.183
422.47	0.180
422.93	0.179
423.39	0.178
423.85	0.180
424.31	0.175
424.77	0.174
425.23	0.175
425.69	0.180
426.15	0.177
426.61	0.175
427.07	0.175
427.53	0.171
427.99	0.172
428.45	0.174
428.91	0.174
429.37	0.172
429.83	0.171
430.29	0.172
430.75	0.173
431.21	0.173
431.67	0.171
432.13	0.173
432.59	0.167
433.05	0.170
433.51	0.169
433.97	0.171
434.43	0.170
434.89	0.172
435.35	0.169
435.81	0.169
436.27	0.165
436.73	0.165
437.19	0.167
437.65	0.168
438.11	0.165
438.57	0.168
439.03	0.164
439.48	0.162
439.94	0.164
440.40	0.167
440.86	0.166
441.32	0.161
441.78	0.166
442.24	0.165
442.70	0.161
443.16	0.161
443.62	0.160
444.08	0.161
444.54	0.161
444.99	0.158
445.45	0.159
445.91	0.163
446.37	0.160
446.83	0.158
447.29	0.158
447.75	0.158
448.21	0.161
448.67	0.157
449.12	0.157
449.58	0.159
450.04	0.156
450.50	0.158
450.96	0.159
451.42	0.152
451.88	0.155
452.34	0.157
452.79	0.155
453.25	0.156
453.71	0.157
454.17	0.156
454.63	0.157
455.09	0.153
455.55	0.155
456.00	0.151
456.46	0.154
456.92	0.153
457.38	0.153
457.84	0.151
458.30	0.148
458.75	0.154
459.21	0.149
459.67	0.152
460.13	0.154
460.59	0.153
461.04	0.151
461.50	0.152
461.96	0.151
462.42	0.151
462.88	0.149
463.33	0.149
463.79	0.149
464.25	0.148
464.71	0.147
465.17	0.149
465.62	0.147
466.08	0.147
466.54	0.147
467.00	0.147
467.46	0.147
467.91	0.146
468.37	0.147
468.83	0.146
469.29	0.148
469.74	0.145
470.20	0.146
470.66	0.147
471.12	0.142
471.57	0.148
472.03	0.144
472.49	0.145
472.95	0.146
473.40	0.144
473.86	0.144
474.32	0.142
474.78	0.145
475.23	0.142
475.69	0.143
476.15	0.140
476.60	0.143
477.06	0.146
477.52	0.144
477.98	0.142
478.43	0.141
478.89	0.141
479.35	0.141
479.80	0.142
480.26	0.143
480.72	0.141
481.18	0.141
481.63	0.141
482.09	0.141
482.55	0.141
483.00	0.141
483.46	0.140
483.92	0.139
484.37	0.142
484.83	0.139
485.29	0.137
485.74	0.138
486.20	0.137
486.66	0.137
487.11	0.138
487.57	0.138
488.03	0.137
488.48	0.136
488.94	0.138
489.40	0.136
489.85	0.138
490.31	0.137
490.77	0.136
491.22	0.136
491.68	0.135
492.13	0.135
492.59	0.136
493.05	0.135
493.50	0.135
493.96	0.136
494.42	0.133
494.87	0.132
495.33	0.131
495.78	0.135
496.24	0.135
496.70	0.133
497.15	0.133
497.61	0.134
498.06	0.132
498.52	0.134
498.98	0.131
499.43	0.134
499.89	0.134
500.34	0.133
500.80	0.133
501.25	0.132
501.71	0.131
502.17	0.131
502.62	0.133
503.08	0.130
503.53	0.129
503.99	0.130
504.44	0.129
504.90	0.130
505.36	0.128
505.81	0.131
506.27	0.128
506.72	0.129
507.18	0.129
507.63	0.126
508.09	0.129
508.54	0.127
509.00	0.127
509.45	0.128
509.91	0.127
510.36	0.127
510.82	0.126
511.27	0.126
511.73	0.127
512.19	0.125
512.64	0.126
513.10	0.126
513.55	0.126
514.01	0.124
514.46	0.126
514.92	0.124
515.37	0.124
515.83	0.125
516.28	0.124
516.73	0.124
517.19	0.125
517.64	0.122
518.10	0.123
518.55	0.122
519.01	0.123
519.46	0.124
519.92	0.124
520.37	0.120
520.83	0.122
521.28	0.123
521.74	0.123
522.19	0.123
522.65	0.121
523.10	0.122
523.55	0.123
524.01	0.123
524.46	0.121
524.92	0.120
525.37	0.121
525.83	0.121
526.28	0.122
526.73	0.121
527.19	0.123
527.64	0.123
528.10	0.120
528.55	0.122
529.01	0.121
529.46	0.121
529.91	0.120
530.37	0.121
530.82	0.120
531.28	0.121
531.73	0.117
532.18	0.120
532.64	0.120
533.09	0.120
533.54	0.118
534.00	0.118
534.45	0.120
534.91	0.121
535.36	0.120
535.81	0.118
536.27	0.117
536.72	0.120
537.17	0.119
537.63	0.119
538.08	0.116
538.54	0.119
538.99	0.117
539.44	0.121
539.90	0.120
540.35	0.118
540.80	0.117
541.26	0.119
541.71	0.117
542.16	0.117
542.62	0.118
543.07	0.119
543.52	0.120
543.98	0.120
544.43	0.118
544.88	0.117
545.34	0.119
545.79	0.119
546.24	0.119
546.69	0.121
547.15	0.117
547.60	0.118
548.05	0.120
548.51	0.118
548.96	0.118
549.41	0.120
549.86	0.120
550.32	0.119
550.77	0.120
551.22	0.119
551.68	0.118
552.13	0.117
552.58	0.119
553.03	0.120
553.49	0.119
553.94	0.121
554.39	0.121
554.84	0.121
555.30	0.121
555.75	0.120
556.20	0.119
556.65	0.117
557.11	0.121
557.56	0.119
558.01	0.124
558.46	0.123
558.92	0.119
559.37	0.121
559.82	0.120
560.27	0.121
560.72	0.121
561.18	0.121
561.63	0.122
562.08	0.119
562.53	0.124
562.99	0.124
563.44	0.123
563.89	0.122
564.34	0.126
564.79	0.124
565.25	0.123
565.70	0.121
566.15	0.124
566.60	0.122
567.05	0.123
567.50	0.127
567.96	0.123
568.41	0.123
568.86	0.124
569.31	0.125
569.76	0.125
570.21	0.125
570.67	0.125
571.12	0.127
571.57	0.126
572.02	0.126
572.47	0.125
572.92	0.125
573.37	0.127
573.83	0.126
574.28	0.129
574.73	0.126
575.18	0.128
575.63	0.130
576.08	0.127
576.53	0.129
576.98	0.129
577.44	0.127
577.89	0.128
578.34	0.129
578.79	0.130
579.24	0.131
579.69	0.131
580.14	0.129
580.59	0.130
581.04	0.131
581.49	0.133
581.95	0.132
582.40	0.133
582.85	0.133
583.30	0.133
583.75	0.133
584.20	0.134
584.65	0.136
585.10	0.135
585.55	0.138
586.00	0.138
586.45	0.139
586.90	0.141
587.35	0.141
587.80	0.140
588.25	0.142
588.71	0.143
589.16	0.143
589.61	0.145
590.06	0.143
590.51	0.145
590.96	0.146
591.41	0.146
591.86	0.147
592.31	0.148
592.76	0.149
593.21	0.150
593.66	0.154
594.11	0.154
594.56	0.152
595.01	0.154
595.46	0.154
595.91	0.155
596.36	0.156
596.81	0.157
597.26	0.159
597.71	0.161
598.16	0.161
598.61	0.160
599.06	0.161
599.51	0.164
599.96	0.167
600.41	0.166
600.86	0.164
601.31	0.167
601.76	0.169
602.21	0.171
602.65	0.171
603.10	0.171
603.55	0.172
604.00	0.172
604.45	0.173
604.90	0.173
605.35	0.173
605.80	0.176
606.25	0.178
606.70	0.177
607.15	0.177
607.60	0.177
608.05	0.177
608.50	0.179
608.95	0.177
609.39	0.182
609.84	0.182
610.29	0.182
610.74	0.183
611.19	0.182
611.64	0.184
612.09	0.185
612.54	0.183
612.99	0.185
613.44	0.184
613.88	0.186
614.33	0.185
614.78	0.182
615.23	0.182
615.68	0.186
616.13	0.188
616.58	0.185
617.03	0.187
617.47	0.187
617.92	0.186
618.37	0.185
618.82	0.187
619.27	0.187
619.72	0.186
620.17	0.187
620.61	0.186
621.06	0.189
621.51	0.189
621.96	0.187
622.41	0.189
622.86	0.189
623.30	0.187
623.75	0.190
624.20	0.188
624.65	0.188
625.10	0.190
625.54	0.189
625.99	0.190
626.44	0.189
626.89	0.190
627.34	0.192
627.78	0.189
628.23	0.191
628.68	0.191
629.13	0.192
629.58	0.193
630.02	0.193
630.47	0.191
630.92	0.195
631.37	0.195
631.81	0.196
632.26	0.196
632.71	0.197
633.16	0.198
633.61	0.199
634.05	0.200
634.50	0.200
634.95	0.202
635.40	0.202
635.84	0.205
636.29	0.204
636.74	0.206
637.18	0.207
637.63	0.207
638.08	0.208
638.53	0.209
638.97	0.209
639.42	0.214
639.87	0.215
640.32	0.215
640.76	0.216
641.21	0.219
641.66	0.219
642.10	0.222
642.55	0.222
643.00	0.223
643.44	0.226
643.89	0.229
644.34	0.228
644.79	0.231
645.23	0.231
645.68	0.234
646.13	0.236
646.57	0.235
647.02	0.238
647.47	0.243
647.91	0.243
648.36	0.243
648.81	0.247
649.25	0.245
649.70	0.247
650.15	0.249
650.59	0.251
651.04	0.254
651.48	0.256
651.93	0.257
652.38	0.259
652.82	0.262
653.27	0.260
653.72	0.263
654.16	0.264
654.61	0.264
655.06	0.265
655.50	0.267
655.95	0.267
656.39	0.264
656.84	0.269
657.29	0.273
657.73	0.273
658.18	0.275
658.62	0.277
659.07	0.278
659.52	0.278
659.96	0.282
660.41	0.282
660.85	0.282
661.30	0.283
661.74	0.285
662.19	0.283
662.64	0.285
663.08	0.286
663.53	0.288
663.97	0.285
664.42	0.286
664.86	0.288
665.31	0.289
665.75	0.288
666.20	0.289
666.65	0.287
667.09	0.289
667.54	0.289
667.98	0.287
668.43	0.285
668.87	0.284
669.32	0.283
669.76	0.283
670.21	0.284
670.65	0.277
671.10	0.279
671.54	0.275
671.99	0.273
672.43	0.269
672.88	0.268
673.32	0.267
673.77	0.260
674.21	0.260
674.66	0.255
675.10	0.252
675.55	0.249
675.99	0.247
676.44	0.242
676.88	0.238
677.33	0.234
677.77	0.230
678.22	0.227
678.66	0.221
679.11	0.217
679.55	0.214
679.99	0.208
680.44	0.205
680.88	0.200
681.33	0.195
681.77	0.191
682.22	0.185
682.66	0.184
683.11	0.179
683.55	0.174
683.99	0.170
684.44	0.166
684.88	0.161
685.33	0.160
685.77	0.155
686.21	0.151
686.66	0.149
687.10	0.144
687.55	0.141
687.99	0.139
688.44	0.135
688.88	0.132
689.32	0.130
689.77	0.124
690.21	0.122
690.65	0.120
691.10	0.118
691.54	0.116
691.99	0.113
692.43	0.110
692.87	0.107
693.32	0.108
693.76	0.107
694.20	0.104
694.65	0.103
695.09	0.101
695.53	0.098
695.98	0.096
696.42	0.096
696.86	0.094
697.31	0.088
697.75	0.091
698.19	0.088
698.64	0.089
699.08	0.087
699.52	0.085
699.97	0.086
700.41	0.085
700.85	0.085
701.30	0.082
701.74	0.082
702.18	0.082
702.63	0.080
703.07	0.080
703.51	0.080
703.96	0.079
704.40	0.078
704.84	0.078
705.28	0.075
705.73	0.076
706.17	0.076
706.61	0.074
707.06	0.073
707.50	0.074
707.94	0.073
708.38	0.071
708.83	0.075
709.27	0.072
709.71	0.073
710.15	0.073
710.60	0.071
711.04	0.068
711.48	0.074
711.92	0.071
712.37	0.068
712.81	0.072
713.25	0.070
713.69	0.070
714.13	0.072
714.58	0.071
715.02	0.069
715.46	0.069
715.90	0.067
716.35	0.068
716.79	0.069
717.23	0.071
717.67	0.069
718.11	0.069
718.56	0.070
719.00	0.071
719.44	0.069
719.88	0.068
720.32	0.068
720.76	0.069
721.21	0.068
721.65	0.068
722.09	0.068
722.53	0.067
722.97	0.068
723.41	0.068
723.86	0.070
724.30	0.069
724.74	0.071
725.18	0.070
725.62	0.069
726.06	0.068
726.50	0.068
726.95	0.069
727.39	0.068
727.83	0.068
728.27	0.072
728.71	0.068
729.15	0.068
729.59	0.071
730.03	0.068
730.48	0.070
730.92	0.068
731.36	0.070
731.80	0.069
732.24	0.071
732.68	0.069
733.12	0.069
733.56	0.070
734.00	0.069
734.44	0.073
734.89	0.070
735.33	0.069
735.77	0.073
736.21	0.071
736.65	0.070
737.09	0.070
737.53	0.071
737.97	0.070
738.41	0.071
738.85	0.071
739.29	0.073
739.73	0.068
740.17	0.069
740.61	0.072
741.05	0.074
741.49	0.072
741.93	0.071
742.37	0.070
742.81	0.071
743.26	0.071
743.70	0.071
744.14	0.072
744.58	0.070
745.02	0.070
745.46	0.072
745.90	0.070
746.34	0.072
746.78	0.071
747.22	0.070
747.66	0.071
748.10	0.071
748.54	0.070
748.98	0.068
749.42	0.070
749.86	0.071
750.29	0.069
750.73	0.069
751.17	0.069
751.61	0.069
752.05	0.069
752.49	0.068
752.93	0.070
753.37	0.068
753.81	0.070
754.25	0.067
754.69	0.067
755.13	0.070
755.57	0.070
756.01	0.070
756.45	0.071
756.89	0.069
757.33	0.070
757.77	0.069
758.21	0.067
758.64	0.068
759.08	0.064
759.52	0.068
759.96	0.072
760.40	0.067
760.84	0.066
761.28	0.069
761.72	0.070
762.16	0.071
762.60	0.067
763.03	0.068
763.47	0.069
763.91	0.067
764.35	0.069
764.79	0.068
765.23	0.065
765.67	0.067
766.11	0.065
766.54	0.066
766.98	0.068
767.42	0.069
767.86	0.066
768.30	0.068
768.74	0.069
769.17	0.071
769.61	0.070
770.05	0.066
770.49	0.068
770.93	0.068
771.37	0.066
771.80	0.067
772.24	0.065
772.68	0.065
773.12	0.067
773.56	0.067
774.00	0.067
774.43	0.066
774.87	0.065
775.31	0.067
775.75	0.066
776.19	0.065
776.62	0.066
777.06	0.068
777.50	0.067
777.94	0.067
778.37	0.062
778.81	0.066
779.25	0.066
779.69	0.066
780.13	0.068
780.56	0.066
781.00	0.066
781.44	0.066
781.88	0.065
782.31	0.065
782.75	0.065
783.19	0.068
783.63	0.066
784.06	0.064
784.50	0.065
784.94	0.068
785.37	0.068
785.81	0.068
786.25	0.065
786.69	0.061
787.12	0.067
787.56	0.063
788.00	0.067
788.43	0.067
788.87	0.064
789.31	0.063
789.75	0.065
790.18	0.064
790.62	0.066
791.06	0.066
791.49	0.063
791.93	0.065
792.37	0.067
792.80	0.063
793.24	0.062
793.68	0.066
794.11	0.065
794.55	0.068
794.99	0.066
795.42	0.064
795.86	0.068
796.30	0.063
796.73	0.066
797.17	0.067
797.61	0.062
798.04	0.064
798.48	0.066
798.91	0.064
799.35	0.065
799.79	0.068
800.22	0.063
800.66	0.062
801.10	0.065
801.53	0.066
801.97	0.068
802.40	0.068
802.84	0.063
803.28	0.064
803.71	0.063
804.15	0.063
804.58	0.062
805.02	0.065
805.46	0.065
805.89	0.066
806.33	0.065
806.76	0.064
807.20	0.063
807.63	0.062
808.07	0.067
808.51	0.066
808.94	0.059
809.38	0.063
809.81	0.063
810.25	0.068
810.68	0.067
811.12	0.065
811.55	0.066
811.99	0.063
812.42	0.068
812.86	0.065
813.29	0.064
813.73	0.065
814.17	0.062
814.60	0.064
815.04	0.066
815.47	0.067
815.91	0.065
816.34	0.063
816.78	0.063
