SpectraSuite Data File
++++++++++++++++++++++++++++++++++++
Date: Sun Apr 24 15:07:34 CEST 2016
User: spectrasuite
Dark Spectrum Present: Yes
Reference Spectrum Present: Yes
Number of Sampled Component Spectra: 1
Spectrometers: HR+C0708
Integration Time (usec): 1000 (HR+C0708)
Spectra Averaged: 10 (HR+C0708)
Boxcar Smoothing: 0 (HR+C0708)
Correct for Electrical Dark: No (HR+C0708)
Strobe/Lamp Enabled: No (HR+C0708)
Correct for Detector Non-linearity: No (HR+C0708)
Correct for Stray Light: No (HR+C0708)
Number of Pixels in Processed Spectrum: 2048
>>>>>Begin Processed Spectral Data<<<<<
188.76	-0.000
189.23	-0.000
189.70	-0.000
190.17	-0.000
190.64	-0.000
191.12	-0.000
191.59	-0.000
192.06	-0.000
192.53	-0.000
193.01	-0.000
193.48	-0.000
193.95	-0.000
194.42	-0.000
194.90	1.211
195.37	-0.000
195.84	-0.000
196.31	-0.000
196.78	-0.000
197.26	-0.000
197.73	-0.000
198.20	-0.000
198.67	-0.000
199.14	-0.000
199.62	-0.000
200.09	-0.000
200.56	-0.000
201.03	-0.000
201.50	0.683
201.97	-0.000
202.45	-0.000
202.92	0.617
203.39	0.665
203.86	-0.000
204.33	-0.000
204.80	1.476
205.28	-0.000
205.75	-0.000
206.22	-0.000
206.69	0.872
207.16	-0.000
207.63	-0.000
208.11	0.774
208.58	1.139
209.05	2.111
209.52	-0.000
209.99	1.042
210.46	-0.000
210.93	-0.000
211.41	1.641
211.88	0.976
212.35	-0.000
212.82	-0.000
213.29	0.806
213.76	0.895
214.23	-0.000
214.70	-0.000
215.18	1.248
215.65	1.028
216.12	1.298
216.59	-0.000
217.06	-0.000
217.53	1.148
218.00	1.086
218.47	1.508
218.94	-0.000
219.41	-0.000
219.89	-0.000
220.36	1.476
220.83	1.071
221.30	2.160
221.77	1.103
222.24	2.093
222.71	-0.000
223.18	-0.000
223.65	0.909
224.12	-0.000
224.59	-0.000
225.06	2.031
225.54	1.536
226.01	1.175
226.48	1.524
226.95	1.715
227.42	1.629
227.89	-0.000
228.36	-0.000
228.83	1.920
229.30	1.686
229.77	2.409
230.24	1.760
230.71	2.315
231.18	-0.000
231.65	2.303
232.12	1.774
232.59	2.137
233.06	-0.000
233.53	2.390
234.00	1.975
234.47	2.820
234.94	-0.000
235.41	2.195
235.88	-0.000
236.35	-0.000
236.82	2.343
237.29	2.179
237.76	2.756
238.23	2.531
238.70	3.004
239.17	2.265
239.64	3.158
240.11	-0.000
240.58	2.450
241.05	3.025
241.52	2.955
241.99	-0.000
242.46	2.716
242.93	-0.000
243.40	3.014
243.87	2.551
244.34	2.512
244.81	3.587
245.28	-0.000
245.75	-0.000
246.22	3.087
246.69	-0.000
247.16	2.842
247.63	2.768
248.10	3.125
248.57	3.181
249.04	3.307
249.51	3.802
249.98	-0.000
250.45	3.032
250.92	3.001
251.39	3.269
251.85	-0.000
252.32	-0.000
252.79	4.106
253.26	3.487
253.73	-0.000
254.20	2.821
254.67	2.622
255.14	2.980
255.61	3.557
256.08	3.064
256.55	-0.000
257.02	3.025
257.49	3.271
257.95	2.936
258.42	3.765
258.89	3.127
259.36	2.998
259.83	3.554
260.30	-0.000
260.77	-0.000
261.24	2.734
261.71	-0.000
262.17	3.456
262.64	3.017
263.11	3.592
263.58	4.134
264.05	3.390
264.52	2.903
264.99	3.049
265.46	3.141
265.92	3.064
266.39	2.775
266.86	3.842
267.33	3.055
267.80	2.679
268.27	3.305
268.74	2.962
269.20	3.149
269.67	2.878
270.14	2.789
270.61	2.949
271.08	3.083
271.55	2.766
272.01	2.823
272.48	2.845
272.95	2.709
273.42	2.670
273.89	2.768
274.36	2.843
274.82	2.565
275.29	2.695
275.76	2.851
276.23	2.633
276.70	2.717
277.16	2.694
277.63	2.667
278.10	2.571
278.57	2.607
279.04	2.661
279.50	2.489
279.97	2.515
280.44	2.460
280.91	2.540
281.38	2.409
281.84	2.705
282.31	2.743
282.78	2.782
283.25	2.431
283.72	2.451
284.18	2.529
284.65	2.519
285.12	2.431
285.59	2.364
286.05	2.493
286.52	2.450
286.99	2.529
287.46	2.485
287.92	2.386
288.39	2.338
288.86	2.478
289.33	2.442
289.79	2.357
290.26	2.347
290.73	2.362
291.20	2.393
291.66	2.423
292.13	2.340
292.60	2.303
293.07	2.307
293.53	2.282
294.00	2.334
294.47	2.323
294.93	2.316
295.40	2.330
295.87	2.303
296.34	2.331
296.80	2.193
297.27	2.226
297.74	2.196
298.20	2.231
298.67	2.238
299.14	2.263
299.60	2.193
300.07	2.193
300.54	2.218
301.01	2.204
301.47	2.138
301.94	2.091
302.41	2.163
302.87	2.163
303.34	2.163
303.81	2.112
304.27	2.123
304.74	2.055
305.21	2.081
305.67	2.096
306.14	2.065
306.61	2.095
307.07	2.068
307.54	2.072
308.01	2.054
308.47	2.072
308.94	2.072
309.40	2.073
309.87	2.048
310.34	2.034
310.80	2.039
311.27	2.045
311.74	2.003
312.20	2.004
312.67	2.002
313.13	1.994
313.60	1.986
314.07	2.002
314.53	1.992
315.00	1.954
315.47	2.014
315.93	1.994
316.40	1.968
316.86	1.962
317.33	1.949
317.80	1.944
318.26	1.945
318.73	1.950
319.19	1.946
319.66	1.924
320.13	1.878
320.59	1.917
321.06	1.907
321.52	1.913
321.99	1.866
322.45	1.874
322.92	1.867
323.39	1.856
323.85	1.846
324.32	1.904
324.78	1.856
325.25	1.863
325.71	1.823
326.18	1.791
326.64	1.810
327.11	1.785
327.58	1.797
328.04	1.771
328.51	1.765
328.97	1.752
329.44	1.752
329.90	1.720
330.37	1.727
330.83	1.704
331.30	1.710
331.76	1.680
332.23	1.671
332.69	1.662
333.16	1.637
333.62	1.626
334.09	1.617
334.56	1.590
335.02	1.573
335.49	1.563
335.95	1.528
336.42	1.500
336.88	1.499
337.35	1.481
337.81	1.456
338.28	1.434
338.74	1.412
339.20	1.398
339.67	1.371
340.13	1.362
340.60	1.331
341.06	1.299
341.53	1.272
341.99	1.243
342.46	1.225
342.92	1.203
343.39	1.185
343.85	1.154
344.32	1.139
344.78	1.125
345.25	1.103
345.71	1.085
346.17	1.065
346.64	1.039
347.10	1.010
347.57	0.977
348.03	0.964
348.50	0.943
348.96	0.917
349.43	0.898
349.89	0.888
350.35	0.871
350.82	0.854
351.28	0.835
351.75	0.824
352.21	0.807
352.67	0.784
353.14	0.782
353.60	0.764
354.07	0.759
354.53	0.736
355.00	0.726
355.46	0.720
355.92	0.703
356.39	0.692
356.85	0.688
357.31	0.673
357.78	0.670
358.24	0.657
358.71	0.651
359.17	0.640
359.63	0.640
360.10	0.631
360.56	0.626
361.03	0.619
361.49	0.618
361.95	0.610
362.42	0.604
362.88	0.600
363.34	0.598
363.81	0.593
364.27	0.591
364.73	0.587
365.20	0.586
365.66	0.583
366.12	0.579
366.59	0.575
367.05	0.575
367.51	0.570
367.98	0.561
368.44	0.562
368.90	0.566
369.37	0.562
369.83	0.558
370.29	0.559
370.76	0.554
371.22	0.552
371.68	0.550
372.15	0.545
372.61	0.541
373.07	0.545
373.54	0.543
374.00	0.539
374.46	0.538
374.92	0.536
375.39	0.534
375.85	0.534
376.31	0.530
376.78	0.529
377.24	0.530
377.70	0.528
378.16	0.525
378.63	0.523
379.09	0.520
379.55	0.517
380.01	0.519
380.48	0.516
380.94	0.514
381.40	0.513
381.87	0.509
382.33	0.509
382.79	0.506
383.25	0.509
383.72	0.509
384.18	0.506
384.64	0.500
385.10	0.500
385.56	0.499
386.03	0.493
386.49	0.495
386.95	0.492
387.41	0.496
387.88	0.490
388.34	0.490
388.80	0.485
389.26	0.488
389.72	0.484
390.19	0.485
390.65	0.480
391.11	0.479
391.57	0.478
392.04	0.477
392.50	0.475
392.96	0.476
393.42	0.471
393.88	0.473
394.34	0.470
394.81	0.468
395.27	0.468
395.73	0.467
396.19	0.464
396.65	0.464
397.12	0.462
397.58	0.459
398.04	0.459
398.50	0.458
398.96	0.457
399.42	0.459
399.89	0.456
400.35	0.458
400.81	0.453
401.27	0.453
401.73	0.448
402.19	0.447
402.65	0.448
403.12	0.445
403.58	0.443
404.04	0.445
404.50	0.444
404.96	0.443
405.42	0.442
405.88	0.439
406.34	0.440
406.81	0.438
407.27	0.435
407.73	0.436
408.19	0.436
408.65	0.432
409.11	0.434
409.57	0.432
410.03	0.429
410.49	0.431
410.96	0.428
411.42	0.430
411.88	0.426
412.34	0.422
412.80	0.424
413.26	0.421
413.72	0.421
414.18	0.419
414.64	0.416
415.10	0.419
415.56	0.419
416.02	0.416
416.48	0.416
416.95	0.409
417.41	0.414
417.87	0.410
418.33	0.411
418.79	0.411
419.25	0.407
419.71	0.406
420.17	0.405
420.63	0.405
421.09	0.406
421.55	0.401
422.01	0.402
422.47	0.402
422.93	0.402
423.39	0.400
423.85	0.397
424.31	0.398
424.77	0.396
425.23	0.397
425.69	0.398
426.15	0.396
426.61	0.393
427.07	0.390
427.53	0.392
427.99	0.390
428.45	0.389
428.91	0.390
429.37	0.386
429.83	0.386
430.29	0.388
430.75	0.383
431.21	0.384
431.67	0.383
432.13	0.382
432.59	0.379
433.05	0.380
433.51	0.377
433.97	0.379
434.43	0.377
434.89	0.379
435.35	0.378
435.81	0.371
436.27	0.372
436.73	0.371
437.19	0.370
437.65	0.377
438.11	0.372
438.57	0.371
439.03	0.371
439.48	0.367
439.94	0.369
440.40	0.369
440.86	0.364
441.32	0.360
441.78	0.363
442.24	0.361
442.70	0.363
443.16	0.360
443.62	0.359
444.08	0.356
444.54	0.358
444.99	0.356
445.45	0.357
445.91	0.355
446.37	0.355
446.83	0.354
447.29	0.358
447.75	0.350
448.21	0.350
448.67	0.353
449.12	0.348
449.58	0.348
450.04	0.347
450.50	0.350
450.96	0.348
451.42	0.345
451.88	0.344
452.34	0.344
452.79	0.341
453.25	0.345
453.71	0.341
454.17	0.342
454.63	0.344
455.09	0.343
455.55	0.337
456.00	0.335
456.46	0.340
456.92	0.338
457.38	0.336
457.84	0.336
458.30	0.332
458.75	0.334
459.21	0.333
459.67	0.335
460.13	0.331
460.59	0.330
461.04	0.328
461.50	0.332
461.96	0.331
462.42	0.328
462.88	0.326
463.33	0.326
463.79	0.326
464.25	0.327
464.71	0.326
465.17	0.323
465.62	0.323
466.08	0.323
466.54	0.325
467.00	0.323
467.46	0.323
467.91	0.320
468.37	0.321
468.83	0.321
469.29	0.319
469.74	0.318
470.20	0.318
470.66	0.317
471.12	0.315
471.57	0.314
472.03	0.312
472.49	0.313
472.95	0.314
473.40	0.313
473.86	0.313
474.32	0.309
474.78	0.312
475.23	0.310
475.69	0.310
476.15	0.307
476.60	0.309
477.06	0.307
477.52	0.305
477.98	0.302
478.43	0.306
478.89	0.302
479.35	0.305
479.80	0.305
480.26	0.304
480.72	0.299
481.18	0.306
481.63	0.302
482.09	0.301
482.55	0.302
483.00	0.298
483.46	0.299
483.92	0.297
484.37	0.299
484.83	0.297
485.29	0.296
485.74	0.295
486.20	0.297
486.66	0.297
487.11	0.296
487.57	0.293
488.03	0.294
488.48	0.293
488.94	0.292
489.40	0.293
489.85	0.292
490.31	0.293
490.77	0.288
491.22	0.291
491.68	0.287
492.13	0.286
492.59	0.285
493.05	0.288
493.50	0.286
493.96	0.285
494.42	0.284
494.87	0.284
495.33	0.283
495.78	0.284
496.24	0.284
496.70	0.283
497.15	0.282
497.61	0.282
498.06	0.279
498.52	0.279
498.98	0.279
499.43	0.281
499.89	0.280
500.34	0.275
500.80	0.278
501.25	0.277
501.71	0.276
502.17	0.276
502.62	0.277
503.08	0.273
503.53	0.274
503.99	0.272
504.44	0.274
504.90	0.273
505.36	0.270
505.81	0.273
506.27	0.273
506.72	0.272
507.18	0.271
507.63	0.269
508.09	0.270
508.54	0.269
509.00	0.269
509.45	0.269
509.91	0.267
510.36	0.268
510.82	0.267
511.27	0.267
511.73	0.267
512.19	0.264
512.64	0.265
513.10	0.264
513.55	0.263
514.01	0.262
514.46	0.264
514.92	0.263
515.37	0.261
515.83	0.262
516.28	0.262
516.73	0.261
517.19	0.261
517.64	0.257
518.10	0.259
518.55	0.256
519.01	0.257
519.46	0.257
519.92	0.257
520.37	0.252
520.83	0.257
521.28	0.256
521.74	0.257
522.19	0.256
522.65	0.253
523.10	0.254
523.55	0.252
524.01	0.254
524.46	0.253
524.92	0.252
525.37	0.253
525.83	0.251
526.28	0.249
526.73	0.250
527.19	0.252
527.64	0.250
528.10	0.250
528.55	0.247
529.01	0.251
529.46	0.248
529.91	0.248
530.37	0.247
530.82	0.246
531.28	0.245
531.73	0.243
532.18	0.245
532.64	0.247
533.09	0.245
533.54	0.242
534.00	0.242
534.45	0.247
534.91	0.244
535.36	0.245
535.81	0.244
536.27	0.241
536.72	0.242
537.17	0.238
537.63	0.240
538.08	0.239
538.54	0.240
538.99	0.239
539.44	0.238
539.90	0.238
540.35	0.237
540.80	0.238
541.26	0.237
541.71	0.237
542.16	0.236
542.62	0.236
543.07	0.237
543.52	0.235
543.98	0.235
544.43	0.234
544.88	0.232
545.34	0.233
545.79	0.235
546.24	0.232
546.69	0.233
547.15	0.231
547.60	0.231
548.05	0.233
548.51	0.229
548.96	0.228
549.41	0.232
549.86	0.229
550.32	0.228
550.77	0.231
551.22	0.227
551.68	0.224
552.13	0.227
552.58	0.225
553.03	0.227
553.49	0.225
553.94	0.226
554.39	0.225
554.84	0.227
555.30	0.225
555.75	0.224
556.20	0.222
556.65	0.222
557.11	0.223
557.56	0.222
558.01	0.224
558.46	0.223
558.92	0.220
559.37	0.222
559.82	0.220
560.27	0.221
560.72	0.220
561.18	0.218
561.63	0.220
562.08	0.218
562.53	0.219
562.99	0.221
563.44	0.218
563.89	0.217
564.34	0.217
564.79	0.218
565.25	0.216
565.70	0.213
566.15	0.215
566.60	0.215
567.05	0.214
567.50	0.213
567.96	0.214
568.41	0.212
568.86	0.211
569.31	0.212
569.76	0.212
570.21	0.212
570.67	0.212
571.12	0.213
571.57	0.212
572.02	0.208
572.47	0.209
572.92	0.208
573.37	0.209
573.83	0.209
574.28	0.208
574.73	0.208
575.18	0.209
575.63	0.208
576.08	0.205
576.53	0.207
576.98	0.207
577.44	0.204
577.89	0.206
578.34	0.205
578.79	0.206
579.24	0.205
579.69	0.203
580.14	0.203
580.59	0.202
581.04	0.202
581.49	0.204
581.95	0.200
582.40	0.201
582.85	0.202
583.30	0.201
583.75	0.199
584.20	0.200
584.65	0.201
585.10	0.198
585.55	0.199
586.00	0.200
586.45	0.200
586.90	0.200
587.35	0.198
587.80	0.198
588.25	0.199
588.71	0.197
589.16	0.197
589.61	0.196
590.06	0.195
590.51	0.198
590.96	0.196
591.41	0.195
591.86	0.196
592.31	0.195
592.76	0.194
593.21	0.195
593.66	0.195
594.11	0.194
594.56	0.192
595.01	0.194
595.46	0.193
595.91	0.194
596.36	0.193
596.81	0.194
597.26	0.191
597.71	0.192
598.16	0.192
598.61	0.190
599.06	0.191
599.51	0.193
599.96	0.193
600.41	0.192
600.86	0.189
601.31	0.189
601.76	0.190
602.21	0.190
602.65	0.190
603.10	0.189
603.55	0.189
604.00	0.187
604.45	0.188
604.90	0.189
605.35	0.187
605.80	0.186
606.25	0.188
606.70	0.188
607.15	0.186
607.60	0.187
608.05	0.185
608.50	0.184
608.95	0.184
609.39	0.187
609.84	0.185
610.29	0.186
610.74	0.183
611.19	0.184
611.64	0.184
612.09	0.182
612.54	0.183
612.99	0.183
613.44	0.181
613.88	0.184
614.33	0.182
614.78	0.182
615.23	0.180
615.68	0.180
616.13	0.182
616.58	0.180
617.03	0.181
617.47	0.182
617.92	0.181
618.37	0.180
618.82	0.180
619.27	0.179
619.72	0.179
620.17	0.177
620.61	0.177
621.06	0.176
621.51	0.178
621.96	0.177
622.41	0.178
622.86	0.177
623.30	0.175
623.75	0.177
624.20	0.176
624.65	0.175
625.10	0.175
625.54	0.176
625.99	0.177
626.44	0.174
626.89	0.174
627.34	0.176
627.78	0.172
628.23	0.172
628.68	0.173
629.13	0.172
629.58	0.173
630.02	0.173
630.47	0.170
630.92	0.172
631.37	0.172
631.81	0.173
632.26	0.172
632.71	0.172
633.16	0.170
633.61	0.171
634.05	0.169
634.50	0.170
634.95	0.169
635.40	0.170
635.84	0.170
636.29	0.169
636.74	0.170
637.18	0.170
637.63	0.169
638.08	0.167
638.53	0.168
638.97	0.169
639.42	0.169
639.87	0.169
640.32	0.167
640.76	0.168
641.21	0.168
641.66	0.168
642.10	0.167
642.55	0.165
643.00	0.165
643.44	0.167
643.89	0.166
644.34	0.164
644.79	0.163
645.23	0.166
645.68	0.167
646.13	0.165
646.57	0.166
647.02	0.163
647.47	0.166
647.91	0.164
648.36	0.164
648.81	0.165
649.25	0.164
649.70	0.162
650.15	0.163
650.59	0.163
651.04	0.161
651.48	0.165
651.93	0.165
652.38	0.160
652.82	0.161
653.27	0.161
653.72	0.162
654.16	0.161
654.61	0.163
655.06	0.160
655.50	0.158
655.95	0.159
656.39	0.154
656.84	0.157
657.29	0.161
657.73	0.159
658.18	0.160
658.62	0.160
659.07	0.159
659.52	0.160
659.96	0.159
660.41	0.159
660.85	0.158
661.30	0.155
661.74	0.158
662.19	0.157
662.64	0.158
663.08	0.158
663.53	0.158
663.97	0.156
664.42	0.157
664.86	0.157
665.31	0.156
665.75	0.155
666.20	0.159
666.65	0.156
667.09	0.155
667.54	0.156
667.98	0.156
668.43	0.155
668.87	0.154
669.32	0.153
669.76	0.154
670.21	0.155
670.65	0.152
671.10	0.154
671.54	0.155
671.99	0.151
672.43	0.151
672.88	0.154
673.32	0.153
673.77	0.152
674.21	0.152
674.66	0.152
675.10	0.150
675.55	0.148
675.99	0.154
676.44	0.152
676.88	0.152
677.33	0.152
677.77	0.152
678.22	0.151
678.66	0.151
679.11	0.150
679.55	0.151
679.99	0.150
680.44	0.151
680.88	0.151
681.33	0.150
681.77	0.149
682.22	0.151
682.66	0.150
683.11	0.148
683.55	0.149
683.99	0.149
684.44	0.146
684.88	0.148
685.33	0.147
685.77	0.149
686.21	0.147
686.66	0.148
687.10	0.148
687.55	0.149
687.99	0.149
688.44	0.148
688.88	0.148
689.32	0.149
689.77	0.145
690.21	0.146
690.65	0.147
691.10	0.145
691.54	0.145
691.99	0.148
692.43	0.146
692.87	0.145
693.32	0.147
693.76	0.148
694.20	0.148
694.65	0.143
695.09	0.145
695.53	0.144
695.98	0.146
696.42	0.145
696.86	0.145
697.31	0.142
697.75	0.143
698.19	0.144
698.64	0.143
699.08	0.145
699.52	0.144
699.97	0.143
700.41	0.144
700.85	0.144
701.30	0.142
701.74	0.142
702.18	0.144
702.63	0.141
703.07	0.144
703.51	0.145
703.96	0.141
704.40	0.140
704.84	0.143
705.28	0.143
705.73	0.142
706.17	0.143
706.61	0.141
707.06	0.142
707.50	0.141
707.94	0.141
708.38	0.140
708.83	0.144
709.27	0.141
709.71	0.140
710.15	0.142
710.60	0.140
711.04	0.142
711.48	0.142
711.92	0.142
712.37	0.140
712.81	0.144
713.25	0.141
713.69	0.140
714.13	0.143
714.58	0.141
715.02	0.140
715.46	0.137
715.90	0.139
716.35	0.135
716.79	0.140
717.23	0.140
717.67	0.140
718.11	0.142
718.56	0.140
719.00	0.141
719.44	0.140
719.88	0.139
720.32	0.138
720.76	0.140
721.21	0.139
721.65	0.136
722.09	0.141
722.53	0.138
722.97	0.140
723.41	0.137
723.86	0.139
724.30	0.141
724.74	0.140
725.18	0.139
725.62	0.139
726.06	0.140
726.50	0.137
726.95	0.139
727.39	0.139
727.83	0.137
728.27	0.139
728.71	0.139
729.15	0.139
729.59	0.141
730.03	0.138
730.48	0.140
730.92	0.136
731.36	0.138
731.80	0.138
732.24	0.141
732.68	0.136
733.12	0.137
733.56	0.138
734.00	0.137
734.44	0.139
734.89	0.139
735.33	0.140
735.77	0.144
736.21	0.140
736.65	0.138
737.09	0.141
737.53	0.141
737.97	0.140
738.41	0.141
738.85	0.144
739.29	0.140
739.73	0.138
740.17	0.141
740.61	0.138
741.05	0.138
741.49	0.138
741.93	0.139
742.37	0.134
742.81	0.137
743.26	0.139
743.70	0.139
744.14	0.138
744.58	0.138
745.02	0.138
745.46	0.136
745.90	0.139
746.34	0.139
746.78	0.138
747.22	0.139
747.66	0.139
748.10	0.138
748.54	0.136
748.98	0.136
749.42	0.136
749.86	0.140
750.29	0.137
750.73	0.135
751.17	0.134
751.61	0.134
752.05	0.137
752.49	0.132
752.93	0.133
753.37	0.134
753.81	0.133
754.25	0.135
754.69	0.135
755.13	0.134
755.57	0.134
756.01	0.136
756.45	0.136
756.89	0.133
757.33	0.134
757.77	0.132
758.21	0.131
758.64	0.132
759.08	0.131
759.52	0.134
759.96	0.137
760.40	0.132
760.84	0.131
761.28	0.133
761.72	0.134
762.16	0.133
762.60	0.132
763.03	0.129
763.47	0.132
763.91	0.132
764.35	0.131
764.79	0.130
765.23	0.129
765.67	0.129
766.11	0.127
766.54	0.130
766.98	0.131
767.42	0.132
767.86	0.127
768.30	0.131
768.74	0.134
769.17	0.134
769.61	0.132
770.05	0.128
770.49	0.136
770.93	0.132
771.37	0.127
771.80	0.130
772.24	0.129
772.68	0.126
773.12	0.129
773.56	0.129
774.00	0.127
774.43	0.125
774.87	0.128
775.31	0.129
775.75	0.128
776.19	0.127
776.62	0.126
777.06	0.129
777.50	0.129
777.94	0.125
778.37	0.128
778.81	0.130
779.25	0.127
779.69	0.128
780.13	0.127
780.56	0.128
781.00	0.127
781.44	0.131
781.88	0.126
782.31	0.125
782.75	0.128
783.19	0.127
783.63	0.125
784.06	0.124
784.50	0.127
784.94	0.124
785.37	0.125
785.81	0.127
786.25	0.128
786.69	0.128
787.12	0.126
787.56	0.123
788.00	0.127
788.43	0.129
788.87	0.127
789.31	0.128
789.75	0.128
790.18	0.121
790.62	0.126
791.06	0.126
791.49	0.123
791.93	0.125
792.37	0.125
792.80	0.123
793.24	0.121
793.68	0.123
794.11	0.124
794.55	0.126
794.99	0.125
795.42	0.123
795.86	0.127
796.30	0.123
796.73	0.124
797.17	0.125
797.61	0.122
798.04	0.125
798.48	0.124
798.91	0.124
799.35	0.125
799.79	0.125
800.22	0.125
800.66	0.122
801.10	0.126
801.53	0.123
801.97	0.128
802.40	0.125
802.84	0.124
803.28	0.119
803.71	0.122
804.15	0.126
804.58	0.121
805.02	0.124
805.46	0.121
805.89	0.123
806.33	0.123
806.76	0.119
807.20	0.122
807.63	0.122
808.07	0.122
808.51	0.118
808.94	0.119
809.38	0.122
809.81	0.120
810.25	0.124
810.68	0.122
811.12	0.122
811.55	0.120
811.99	0.121
812.42	0.122
812.86	0.120
813.29	0.118
813.73	0.120
814.17	0.119
814.60	0.120
815.04	0.121
815.47	0.122
