SpectraSuite Data File
++++++++++++++++++++++++++++++++++++
Date: Sun Apr 24 14:14:20 CEST 2016
User: spectrasuite
Dark Spectrum Present: Yes
Reference Spectrum Present: Yes
Number of Sampled Component Spectra: 1
Spectrometers: HR+C0708
Integration Time (usec): 1000 (HR+C0708)
Spectra Averaged: 10 (HR+C0708)
Boxcar Smoothing: 0 (HR+C0708)
Correct for Electrical Dark: No (HR+C0708)
Strobe/Lamp Enabled: No (HR+C0708)
Correct for Detector Non-linearity: No (HR+C0708)
Correct for Stray Light: No (HR+C0708)
Number of Pixels in Processed Spectrum: 2048
>>>>>Begin Processed Spectral Data<<<<<
188.76	-0.000
189.23	1.235
189.70	-0.000
190.17	-0.000
190.64	-0.000
191.12	-0.000
191.59	-0.000
192.06	-0.000
192.53	-0.000
193.01	-0.000
193.48	-0.000
193.95	-0.000
194.42	-0.000
194.90	1.591
195.37	-0.000
195.84	-0.000
196.31	1.505
196.78	-0.000
197.26	-0.000
197.73	-0.000
198.20	-0.000
198.67	-0.000
199.14	-0.000
199.62	-0.000
200.09	0.570
200.56	-0.000
201.03	-0.000
201.50	0.950
201.97	1.142
202.45	1.045
202.92	0.579
203.39	0.851
203.86	1.023
204.33	0.961
204.80	1.162
205.28	1.339
205.75	-0.000
206.22	1.071
206.69	0.820
207.16	-0.000
207.63	0.652
208.11	0.476
208.58	0.990
209.05	0.949
209.52	1.059
209.99	-0.000
210.46	0.705
210.93	1.849
211.41	1.087
211.88	0.684
212.35	-0.000
212.82	1.452
213.29	0.513
213.76	0.758
214.23	0.858
214.70	-0.000
215.18	1.334
215.65	1.019
216.12	2.488
216.59	0.852
217.06	0.962
217.53	-0.000
218.00	1.257
218.47	0.766
218.94	1.225
219.41	2.470
219.89	1.800
220.36	1.129
220.83	0.989
221.30	-0.000
221.77	1.135
222.24	1.115
222.71	-0.000
223.18	-0.000
223.65	0.961
224.12	-0.000
224.59	-0.000
225.06	-0.000
225.54	1.536
226.01	1.274
226.48	1.716
226.95	1.444
227.42	1.439
227.89	-0.000
228.36	1.609
228.83	1.405
229.30	-0.000
229.77	-0.000
230.24	1.773
230.71	2.048
231.18	1.672
231.65	2.255
232.12	1.893
232.59	1.879
233.06	2.297
233.53	1.891
234.00	1.975
234.47	2.176
234.94	-0.000
235.41	2.093
235.88	3.112
236.35	2.645
236.82	2.226
237.29	2.121
237.76	2.462
238.23	2.365
238.70	2.387
239.17	2.055
239.64	3.309
240.11	3.940
240.58	2.642
241.05	3.041
241.52	2.721
241.99	4.519
242.46	2.599
242.93	2.817
243.40	3.091
243.87	2.370
244.34	2.357
244.81	3.286
245.28	3.440
245.75	3.508
246.22	2.911
246.69	2.748
247.16	2.619
247.63	3.085
248.10	2.720
248.57	3.338
249.04	2.714
249.51	2.957
249.98	-0.000
250.45	2.973
250.92	2.722
251.39	-0.000
251.85	3.758
252.32	-0.000
252.79	3.000
253.26	3.541
253.73	-0.000
254.20	2.710
254.67	2.737
255.14	3.339
255.61	3.350
256.08	2.938
256.55	3.653
257.02	2.875
257.49	4.407
257.95	3.114
258.42	3.054
258.89	3.318
259.36	2.758
259.83	3.016
260.30	-0.000
260.77	3.467
261.24	2.785
261.71	-0.000
262.17	3.359
262.64	2.818
263.11	2.923
263.58	4.201
264.05	3.218
264.52	2.899
264.99	2.885
265.46	3.153
265.92	3.602
266.39	3.042
266.86	-0.000
267.33	2.976
267.80	2.751
268.27	3.271
268.74	3.227
269.20	3.303
269.67	3.216
270.14	2.758
270.61	3.639
271.08	2.936
271.55	2.769
272.01	2.764
272.48	2.827
272.95	2.670
273.42	3.027
273.89	2.922
274.36	2.905
274.82	2.697
275.29	2.738
275.76	2.994
276.23	2.691
276.70	2.968
277.16	2.734
277.63	2.685
278.10	2.763
278.57	2.731
279.04	2.833
279.50	2.958
279.97	2.752
280.44	2.653
280.91	2.595
281.38	2.636
281.84	2.571
282.31	2.760
282.78	2.850
283.25	2.652
283.72	2.547
284.18	2.628
284.65	2.598
285.12	2.578
285.59	2.510
286.05	2.692
286.52	2.559
286.99	2.512
287.46	2.567
287.92	2.579
288.39	2.401
288.86	2.633
289.33	2.604
289.79	2.541
290.26	2.591
290.73	2.568
291.20	2.493
291.66	2.588
292.13	2.492
292.60	2.445
293.07	2.390
293.53	2.296
294.00	2.504
294.47	2.487
294.93	2.383
295.40	2.483
295.87	2.431
296.34	2.480
296.80	2.385
297.27	2.313
297.74	2.377
298.20	2.481
298.67	2.320
299.14	2.358
299.60	2.309
300.07	2.280
300.54	2.349
301.01	2.286
301.47	2.249
301.94	2.195
302.41	2.267
302.87	2.306
303.34	2.360
303.81	2.214
304.27	2.254
304.74	2.234
305.21	2.197
305.67	2.231
306.14	2.183
306.61	2.221
307.07	2.219
307.54	2.175
308.01	2.272
308.47	2.177
308.94	2.253
309.40	2.206
309.87	2.168
310.34	2.131
310.80	2.265
311.27	2.162
311.74	2.152
312.20	2.228
312.67	2.156
313.13	2.112
313.60	2.156
314.07	2.135
314.53	2.119
315.00	2.111
315.47	2.125
315.93	2.144
316.40	2.068
316.86	2.082
317.33	2.111
317.80	2.071
318.26	2.105
318.73	2.084
319.19	2.088
319.66	2.070
320.13	2.061
320.59	2.064
321.06	2.087
321.52	2.067
321.99	2.001
322.45	2.055
322.92	1.984
323.39	2.024
323.85	2.018
324.32	2.003
324.78	1.981
325.25	2.022
325.71	1.956
326.18	1.952
326.64	1.998
327.11	1.929
327.58	1.931
328.04	1.927
328.51	1.941
328.97	1.952
329.44	1.873
329.90	1.867
330.37	1.858
330.83	1.814
331.30	1.852
331.76	1.827
332.23	1.782
332.69	1.792
333.16	1.744
333.62	1.749
334.09	1.711
334.56	1.704
335.02	1.674
335.49	1.640
335.95	1.602
336.42	1.569
336.88	1.539
337.35	1.512
337.81	1.492
338.28	1.454
338.74	1.452
339.20	1.415
339.67	1.386
340.13	1.348
340.60	1.299
341.06	1.261
341.53	1.237
341.99	1.212
342.46	1.175
342.92	1.155
343.39	1.116
343.85	1.087
344.32	1.068
344.78	1.043
345.25	1.024
345.71	0.989
346.17	0.969
346.64	0.937
347.10	0.907
347.57	0.877
348.03	0.853
348.50	0.830
348.96	0.805
349.43	0.786
349.89	0.771
350.35	0.749
350.82	0.734
351.28	0.713
351.75	0.701
352.21	0.685
352.67	0.669
353.14	0.656
353.60	0.642
354.07	0.634
354.53	0.614
355.00	0.604
355.46	0.592
355.92	0.576
356.39	0.566
356.85	0.562
357.31	0.548
357.78	0.543
358.24	0.535
358.71	0.529
359.17	0.522
359.63	0.516
360.10	0.510
360.56	0.509
361.03	0.500
361.49	0.494
361.95	0.489
362.42	0.487
362.88	0.488
363.34	0.480
363.81	0.472
364.27	0.471
364.73	0.472
365.20	0.471
365.66	0.465
366.12	0.464
366.59	0.461
367.05	0.455
367.51	0.458
367.98	0.453
368.44	0.450
368.90	0.449
369.37	0.446
369.83	0.445
370.29	0.444
370.76	0.441
371.22	0.444
371.68	0.441
372.15	0.433
372.61	0.430
373.07	0.432
373.54	0.433
374.00	0.429
374.46	0.427
374.92	0.427
375.39	0.423
375.85	0.421
376.31	0.422
376.78	0.421
377.24	0.419
377.70	0.419
378.16	0.412
378.63	0.415
379.09	0.413
379.55	0.415
380.01	0.413
380.48	0.408
380.94	0.408
381.40	0.404
381.87	0.406
382.33	0.404
382.79	0.403
383.25	0.399
383.72	0.402
384.18	0.398
384.64	0.400
385.10	0.398
385.56	0.394
386.03	0.391
386.49	0.393
386.95	0.389
387.41	0.391
387.88	0.389
388.34	0.384
388.80	0.386
389.26	0.387
389.72	0.386
390.19	0.383
390.65	0.382
391.11	0.382
391.57	0.379
392.04	0.378
392.50	0.374
392.96	0.376
393.42	0.374
393.88	0.375
394.34	0.373
394.81	0.371
395.27	0.372
395.73	0.367
396.19	0.370
396.65	0.368
397.12	0.364
397.58	0.365
398.04	0.363
398.50	0.359
398.96	0.360
399.42	0.362
399.89	0.358
400.35	0.358
400.81	0.357
401.27	0.355
401.73	0.355
402.19	0.354
402.65	0.354
403.12	0.352
403.58	0.350
404.04	0.351
404.50	0.348
404.96	0.347
405.42	0.349
405.88	0.345
406.34	0.345
406.81	0.346
407.27	0.345
407.73	0.343
408.19	0.343
408.65	0.340
409.11	0.339
409.57	0.342
410.03	0.336
410.49	0.340
410.96	0.338
411.42	0.337
411.88	0.335
412.34	0.333
412.80	0.337
413.26	0.332
413.72	0.330
414.18	0.330
414.64	0.327
415.10	0.326
415.56	0.331
416.02	0.329
416.48	0.326
416.95	0.327
417.41	0.326
417.87	0.321
418.33	0.324
418.79	0.324
419.25	0.320
419.71	0.320
420.17	0.321
420.63	0.318
421.09	0.315
421.55	0.313
422.01	0.317
422.47	0.316
422.93	0.313
423.39	0.315
423.85	0.314
424.31	0.309
424.77	0.310
425.23	0.314
425.69	0.311
426.15	0.312
426.61	0.309
427.07	0.305
427.53	0.307
427.99	0.304
428.45	0.307
428.91	0.304
429.37	0.304
429.83	0.302
430.29	0.302
430.75	0.304
431.21	0.302
431.67	0.304
432.13	0.301
432.59	0.298
433.05	0.297
433.51	0.294
433.97	0.295
434.43	0.296
434.89	0.298
435.35	0.296
435.81	0.293
436.27	0.290
436.73	0.294
437.19	0.292
437.65	0.295
438.11	0.294
438.57	0.292
439.03	0.289
439.48	0.290
439.94	0.291
440.40	0.288
440.86	0.290
441.32	0.288
441.78	0.289
442.24	0.284
442.70	0.286
443.16	0.281
443.62	0.282
444.08	0.283
444.54	0.282
444.99	0.279
445.45	0.282
445.91	0.282
446.37	0.280
446.83	0.279
447.29	0.276
447.75	0.278
448.21	0.277
448.67	0.272
449.12	0.273
449.58	0.277
450.04	0.276
450.50	0.274
450.96	0.273
451.42	0.271
451.88	0.270
452.34	0.271
452.79	0.267
453.25	0.273
453.71	0.269
454.17	0.270
454.63	0.271
455.09	0.268
455.55	0.270
456.00	0.263
456.46	0.268
456.92	0.267
457.38	0.262
457.84	0.263
458.30	0.260
458.75	0.262
459.21	0.258
459.67	0.263
460.13	0.260
460.59	0.261
461.04	0.260
461.50	0.260
461.96	0.257
462.42	0.261
462.88	0.256
463.33	0.258
463.79	0.258
464.25	0.258
464.71	0.255
465.17	0.258
465.62	0.255
466.08	0.256
466.54	0.254
467.00	0.255
467.46	0.256
467.91	0.253
468.37	0.252
468.83	0.254
469.29	0.252
469.74	0.252
470.20	0.252
470.66	0.250
471.12	0.248
471.57	0.248
472.03	0.247
472.49	0.247
472.95	0.251
473.40	0.247
473.86	0.244
474.32	0.243
474.78	0.243
475.23	0.245
475.69	0.244
476.15	0.240
476.60	0.245
477.06	0.244
477.52	0.243
477.98	0.239
478.43	0.241
478.89	0.240
479.35	0.238
479.80	0.241
480.26	0.242
480.72	0.237
481.18	0.237
481.63	0.239
482.09	0.238
482.55	0.237
483.00	0.235
483.46	0.237
483.92	0.235
484.37	0.237
484.83	0.234
485.29	0.234
485.74	0.233
486.20	0.231
486.66	0.233
487.11	0.233
487.57	0.229
488.03	0.232
488.48	0.230
488.94	0.227
489.40	0.229
489.85	0.228
490.31	0.231
490.77	0.227
491.22	0.228
491.68	0.226
492.13	0.227
492.59	0.226
493.05	0.227
493.50	0.226
493.96	0.223
494.42	0.225
494.87	0.225
495.33	0.223
495.78	0.225
496.24	0.225
496.70	0.223
497.15	0.225
497.61	0.223
498.06	0.223
498.52	0.218
498.98	0.220
499.43	0.223
499.89	0.223
500.34	0.220
500.80	0.220
501.25	0.219
501.71	0.218
502.17	0.219
502.62	0.220
503.08	0.217
503.53	0.215
503.99	0.215
504.44	0.215
504.90	0.213
505.36	0.214
505.81	0.214
506.27	0.214
506.72	0.215
507.18	0.215
507.63	0.211
508.09	0.212
508.54	0.210
509.00	0.210
509.45	0.213
509.91	0.210
510.36	0.210
510.82	0.211
511.27	0.212
511.73	0.210
512.19	0.209
512.64	0.209
513.10	0.210
513.55	0.210
514.01	0.208
514.46	0.206
514.92	0.207
515.37	0.208
515.83	0.207
516.28	0.205
516.73	0.206
517.19	0.204
517.64	0.203
518.10	0.204
518.55	0.204
519.01	0.204
519.46	0.204
519.92	0.204
520.37	0.200
520.83	0.200
521.28	0.202
521.74	0.201
522.19	0.203
522.65	0.199
523.10	0.201
523.55	0.200
524.01	0.201
524.46	0.198
524.92	0.198
525.37	0.196
525.83	0.195
526.28	0.198
526.73	0.198
527.19	0.199
527.64	0.199
528.10	0.197
528.55	0.197
529.01	0.196
529.46	0.196
529.91	0.197
530.37	0.194
530.82	0.192
531.28	0.194
531.73	0.195
532.18	0.194
532.64	0.193
533.09	0.191
533.54	0.192
534.00	0.191
534.45	0.195
534.91	0.194
535.36	0.192
535.81	0.192
536.27	0.191
536.72	0.192
537.17	0.189
537.63	0.189
538.08	0.188
538.54	0.189
538.99	0.188
539.44	0.189
539.90	0.187
540.35	0.187
540.80	0.188
541.26	0.187
541.71	0.188
542.16	0.186
542.62	0.186
543.07	0.187
543.52	0.185
543.98	0.186
544.43	0.186
544.88	0.183
545.34	0.184
545.79	0.185
546.24	0.182
546.69	0.184
547.15	0.182
547.60	0.182
548.05	0.183
548.51	0.178
548.96	0.181
549.41	0.183
549.86	0.180
550.32	0.181
550.77	0.181
551.22	0.179
551.68	0.179
552.13	0.178
552.58	0.177
553.03	0.179
553.49	0.179
553.94	0.177
554.39	0.177
554.84	0.178
555.30	0.178
555.75	0.179
556.20	0.178
556.65	0.177
557.11	0.175
557.56	0.174
558.01	0.177
558.46	0.176
558.92	0.175
559.37	0.175
559.82	0.174
560.27	0.174
560.72	0.174
561.18	0.173
561.63	0.172
562.08	0.172
562.53	0.175
562.99	0.174
563.44	0.172
563.89	0.171
564.34	0.172
564.79	0.171
565.25	0.171
565.70	0.170
566.15	0.169
566.60	0.169
567.05	0.170
567.50	0.168
567.96	0.167
568.41	0.168
568.86	0.168
569.31	0.167
569.76	0.167
570.21	0.167
570.67	0.167
571.12	0.167
571.57	0.165
572.02	0.167
572.47	0.165
572.92	0.164
573.37	0.165
573.83	0.163
574.28	0.164
574.73	0.164
575.18	0.164
575.63	0.165
576.08	0.163
576.53	0.164
576.98	0.163
577.44	0.160
577.89	0.161
578.34	0.161
578.79	0.160
579.24	0.161
579.69	0.161
580.14	0.160
580.59	0.160
581.04	0.159
581.49	0.160
581.95	0.159
582.40	0.158
582.85	0.158
583.30	0.157
583.75	0.157
584.20	0.159
584.65	0.157
585.10	0.157
585.55	0.158
586.00	0.156
586.45	0.157
586.90	0.159
587.35	0.157
587.80	0.156
588.25	0.157
588.71	0.156
589.16	0.156
589.61	0.155
590.06	0.156
590.51	0.155
590.96	0.156
591.41	0.154
591.86	0.154
592.31	0.152
592.76	0.153
593.21	0.153
593.66	0.156
594.11	0.154
594.56	0.153
595.01	0.153
595.46	0.152
595.91	0.153
596.36	0.153
596.81	0.154
597.26	0.153
597.71	0.153
598.16	0.149
598.61	0.152
599.06	0.152
599.51	0.152
599.96	0.152
600.41	0.151
600.86	0.152
601.31	0.150
601.76	0.150
602.21	0.151
602.65	0.152
603.10	0.151
603.55	0.149
604.00	0.149
604.45	0.150
604.90	0.149
605.35	0.148
605.80	0.149
606.25	0.152
606.70	0.149
607.15	0.146
607.60	0.147
608.05	0.147
608.50	0.146
608.95	0.147
609.39	0.148
609.84	0.147
610.29	0.147
610.74	0.147
611.19	0.145
611.64	0.146
612.09	0.146
612.54	0.145
612.99	0.147
613.44	0.142
613.88	0.146
614.33	0.145
614.78	0.144
615.23	0.143
615.68	0.142
616.13	0.144
616.58	0.144
617.03	0.143
617.47	0.143
617.92	0.142
618.37	0.142
618.82	0.143
619.27	0.142
619.72	0.142
620.17	0.139
620.61	0.140
621.06	0.141
621.51	0.141
621.96	0.138
622.41	0.140
622.86	0.139
623.30	0.140
623.75	0.140
624.20	0.139
624.65	0.140
625.10	0.138
625.54	0.139
625.99	0.138
626.44	0.137
626.89	0.138
627.34	0.139
627.78	0.138
628.23	0.137
628.68	0.137
629.13	0.137
629.58	0.138
630.02	0.137
630.47	0.137
630.92	0.136
631.37	0.136
631.81	0.136
632.26	0.136
632.71	0.136
633.16	0.135
633.61	0.134
634.05	0.134
634.50	0.135
634.95	0.135
635.40	0.137
635.84	0.136
636.29	0.135
636.74	0.136
637.18	0.135
637.63	0.134
638.08	0.134
638.53	0.134
638.97	0.135
639.42	0.135
639.87	0.134
640.32	0.134
640.76	0.135
641.21	0.135
641.66	0.134
642.10	0.134
642.55	0.132
643.00	0.131
643.44	0.134
643.89	0.133
644.34	0.132
644.79	0.131
645.23	0.132
645.68	0.132
646.13	0.132
646.57	0.131
647.02	0.130
647.47	0.134
647.91	0.131
648.36	0.130
648.81	0.132
649.25	0.129
649.70	0.129
650.15	0.128
650.59	0.128
651.04	0.129
651.48	0.129
651.93	0.131
652.38	0.128
652.82	0.129
653.27	0.128
653.72	0.129
654.16	0.127
654.61	0.130
655.06	0.126
655.50	0.125
655.95	0.127
656.39	0.122
656.84	0.126
657.29	0.130
657.73	0.127
658.18	0.128
658.62	0.128
659.07	0.127
659.52	0.127
659.96	0.127
660.41	0.129
660.85	0.126
661.30	0.126
661.74	0.127
662.19	0.126
662.64	0.127
663.08	0.125
663.53	0.124
663.97	0.125
664.42	0.125
664.86	0.126
665.31	0.125
665.75	0.123
666.20	0.126
666.65	0.126
667.09	0.123
667.54	0.124
667.98	0.124
668.43	0.124
668.87	0.124
669.32	0.120
669.76	0.124
670.21	0.125
670.65	0.121
671.10	0.124
671.54	0.123
671.99	0.122
672.43	0.121
672.88	0.122
673.32	0.123
673.77	0.121
674.21	0.122
674.66	0.121
675.10	0.121
675.55	0.119
675.99	0.123
676.44	0.121
676.88	0.121
677.33	0.120
677.77	0.120
678.22	0.121
678.66	0.120
679.11	0.118
679.55	0.121
679.99	0.119
680.44	0.121
680.88	0.120
681.33	0.119
681.77	0.119
682.22	0.121
682.66	0.119
683.11	0.118
683.55	0.117
683.99	0.118
684.44	0.117
684.88	0.115
685.33	0.118
685.77	0.117
686.21	0.118
686.66	0.118
687.10	0.117
687.55	0.118
687.99	0.118
688.44	0.120
688.88	0.116
689.32	0.118
689.77	0.116
690.21	0.116
690.65	0.117
691.10	0.116
691.54	0.117
691.99	0.115
692.43	0.114
692.87	0.113
693.32	0.116
693.76	0.115
694.20	0.116
694.65	0.115
695.09	0.116
695.53	0.115
695.98	0.113
696.42	0.116
696.86	0.114
697.31	0.113
697.75	0.114
698.19	0.113
698.64	0.114
699.08	0.114
699.52	0.114
699.97	0.115
700.41	0.115
700.85	0.115
701.30	0.111
701.74	0.114
702.18	0.112
702.63	0.112
703.07	0.113
703.51	0.113
703.96	0.113
704.40	0.114
704.84	0.114
705.28	0.113
705.73	0.113
706.17	0.113
706.61	0.112
707.06	0.112
707.50	0.113
707.94	0.111
708.38	0.112
708.83	0.115
709.27	0.113
709.71	0.113
710.15	0.114
710.60	0.112
711.04	0.111
711.48	0.114
711.92	0.114
712.37	0.113
712.81	0.115
713.25	0.112
713.69	0.113
714.13	0.114
714.58	0.111
715.02	0.111
715.46	0.111
715.90	0.107
716.35	0.112
716.79	0.113
717.23	0.112
717.67	0.110
718.11	0.115
718.56	0.111
719.00	0.111
719.44	0.111
719.88	0.111
720.32	0.113
720.76	0.111
721.21	0.111
721.65	0.110
722.09	0.113
722.53	0.112
722.97	0.114
723.41	0.111
723.86	0.113
724.30	0.111
724.74	0.115
725.18	0.111
725.62	0.108
726.06	0.114
726.50	0.109
726.95	0.111
727.39	0.112
727.83	0.112
728.27	0.110
728.71	0.110
729.15	0.112
729.59	0.113
730.03	0.112
730.48	0.114
730.92	0.112
731.36	0.112
731.80	0.112
732.24	0.113
732.68	0.112
733.12	0.111
733.56	0.110
734.00	0.113
734.44	0.112
734.89	0.110
735.33	0.113
735.77	0.115
736.21	0.113
736.65	0.113
737.09	0.114
737.53	0.113
737.97	0.113
738.41	0.116
738.85	0.114
739.29	0.114
739.73	0.114
740.17	0.113
740.61	0.114
741.05	0.114
741.49	0.114
741.93	0.114
742.37	0.110
742.81	0.114
743.26	0.112
743.70	0.111
744.14	0.112
744.58	0.111
745.02	0.111
745.46	0.112
745.90	0.112
746.34	0.114
746.78	0.114
747.22	0.114
747.66	0.111
748.10	0.113
748.54	0.111
748.98	0.111
749.42	0.110
749.86	0.112
750.29	0.112
750.73	0.108
751.17	0.109
751.61	0.110
752.05	0.115
752.49	0.109
752.93	0.110
753.37	0.109
753.81	0.110
754.25	0.109
754.69	0.109
755.13	0.110
755.57	0.110
756.01	0.112
756.45	0.111
756.89	0.111
757.33	0.108
757.77	0.109
758.21	0.111
758.64	0.108
759.08	0.106
759.52	0.109
759.96	0.110
760.40	0.109
760.84	0.104
761.28	0.108
761.72	0.107
762.16	0.108
762.60	0.107
763.03	0.105
763.47	0.106
763.91	0.109
764.35	0.108
764.79	0.105
765.23	0.104
765.67	0.107
766.11	0.103
766.54	0.105
766.98	0.107
767.42	0.106
767.86	0.104
768.30	0.105
768.74	0.107
769.17	0.109
769.61	0.107
770.05	0.106
770.49	0.110
770.93	0.108
771.37	0.103
771.80	0.106
772.24	0.107
772.68	0.105
773.12	0.102
773.56	0.103
774.00	0.103
774.43	0.104
774.87	0.103
775.31	0.104
775.75	0.104
776.19	0.104
776.62	0.102
777.06	0.105
777.50	0.104
777.94	0.104
778.37	0.104
778.81	0.102
779.25	0.106
779.69	0.104
780.13	0.105
780.56	0.103
781.00	0.102
781.44	0.103
781.88	0.105
782.31	0.101
782.75	0.102
783.19	0.105
783.63	0.101
784.06	0.104
784.50	0.107
784.94	0.104
785.37	0.104
785.81	0.106
786.25	0.102
786.69	0.101
787.12	0.103
787.56	0.102
788.00	0.104
788.43	0.105
788.87	0.103
789.31	0.102
789.75	0.103
790.18	0.100
790.62	0.102
791.06	0.099
791.49	0.100
791.93	0.100
792.37	0.106
792.80	0.098
793.24	0.099
793.68	0.102
794.11	0.103
794.55	0.104
794.99	0.102
795.42	0.100
795.86	0.105
796.30	0.103
796.73	0.103
797.17	0.101
797.61	0.100
798.04	0.101
798.48	0.102
798.91	0.100
799.35	0.099
799.79	0.102
800.22	0.102
800.66	0.101
801.10	0.102
801.53	0.100
801.97	0.102
802.40	0.100
802.84	0.100
803.28	0.099
803.71	0.100
804.15	0.099
804.58	0.103
805.02	0.101
805.46	0.100
805.89	0.100
806.33	0.102
806.76	0.099
807.20	0.096
807.63	0.097
808.07	0.100
808.51	0.097
808.94	0.097
809.38	0.100
809.81	0.098
810.25	0.102
810.68	0.098
811.12	0.101
811.55	0.101
811.99	0.100
812.42	0.099
812.86	0.097
813.29	0.098
813.73	0.104
814.17	0.100
814.60	0.098
815.04	0.101
815.47	0.100
815.91	0.099
816.34	0.097
