SpectraSuite Data File
++++++++++++++++++++++++++++++++++++
Date: Sun Apr 24 17:09:08 CEST 2016
User: spectrasuite
Dark Spectrum Present: Yes
Reference Spectrum Present: Yes
Number of Sampled Component Spectra: 1
Spectrometers: HR+C0708
Integration Time (usec): 1000 (HR+C0708)
Spectra Averaged: 10 (HR+C0708)
Boxcar Smoothing: 0 (HR+C0708)
Correct for Electrical Dark: No (HR+C0708)
Strobe/Lamp Enabled: No (HR+C0708)
Correct for Detector Non-linearity: No (HR+C0708)
Correct for Stray Light: No (HR+C0708)
Number of Pixels in Processed Spectrum: 2048
>>>>>Begin Processed Spectral Data<<<<<
188.76	-0.000
189.23	-0.000
189.70	-0.000
190.17	-0.000
190.64	-0.000
191.12	-0.000
191.59	-0.000
192.06	-0.000
192.53	-0.000
193.01	-0.000
193.48	-0.000
193.95	-0.000
194.42	-0.000
194.90	-0.000
195.37	-0.000
195.84	-0.000
196.31	-0.000
196.78	-0.000
197.26	-0.000
197.73	-0.000
198.20	-0.000
198.67	-0.000
199.14	-0.000
199.62	-0.000
200.09	-0.000
200.56	-0.000
201.03	-0.000
201.50	-0.000
201.97	-0.000
202.45	1.207
202.92	0.959
203.39	1.290
203.86	-0.000
204.33	2.066
204.80	-0.000
205.28	2.719
205.75	-0.000
206.22	-0.000
206.69	-0.000
207.16	-0.000
207.63	1.052
208.11	1.325
208.58	-0.000
209.05	1.434
209.52	-0.000
209.99	-0.000
210.46	-0.000
210.93	-0.000
211.41	-0.000
211.88	1.254
212.35	-0.000
212.82	-0.000
213.29	2.719
213.76	1.528
214.23	-0.000
214.70	-0.000
215.18	-0.000
215.65	-0.000
216.12	-0.000
216.59	-0.000
217.06	-0.000
217.53	-0.000
218.00	-0.000
218.47	-0.000
218.94	-0.000
219.41	-0.000
219.89	-0.000
220.36	-0.000
220.83	-0.000
221.30	-0.000
221.77	1.341
222.24	-0.000
222.71	-0.000
223.18	-0.000
223.65	-0.000
224.12	-0.000
224.59	-0.000
225.06	1.990
225.54	2.638
226.01	1.745
226.48	2.001
226.95	1.379
227.42	-0.000
227.89	-0.000
228.36	1.731
228.83	-0.000
229.30	-0.000
229.77	-0.000
230.24	1.680
230.71	2.661
231.18	-0.000
231.65	-0.000
232.12	2.660
232.59	-0.000
233.06	-0.000
233.53	-0.000
234.00	2.538
234.47	-0.000
234.94	3.562
235.41	2.335
235.88	-0.000
236.35	-0.000
236.82	2.487
237.29	2.751
237.76	3.085
238.23	3.392
238.70	-0.000
239.17	2.650
239.64	3.911
240.11	3.338
240.58	3.327
241.05	3.995
241.52	-0.000
241.99	3.121
242.46	3.187
242.93	-0.000
243.40	-0.000
243.87	3.138
244.34	2.419
244.81	-0.000
245.28	-0.000
245.75	-0.000
246.22	-0.000
246.69	3.075
247.16	2.800
247.63	3.006
248.10	3.091
248.57	-0.000
249.04	-0.000
249.51	-0.000
249.98	-0.000
250.45	3.122
250.92	2.876
251.39	-0.000
251.85	-0.000
252.32	-0.000
252.79	-0.000
253.26	3.395
253.73	-0.000
254.20	3.277
254.67	2.999
255.14	3.230
255.61	-0.000
256.08	3.493
256.55	-0.000
257.02	2.829
257.49	3.203
257.95	2.891
258.42	3.060
258.89	2.937
259.36	2.735
259.83	2.885
260.30	2.933
260.77	3.166
261.24	2.742
261.71	2.823
262.17	2.666
262.64	2.543
263.11	2.779
263.58	3.160
264.05	2.545
264.52	2.490
264.99	2.497
265.46	2.516
265.92	2.613
266.39	2.523
266.86	2.630
267.33	2.524
267.80	2.396
268.27	2.575
268.74	2.462
269.20	2.393
269.67	2.326
270.14	2.314
270.61	2.289
271.08	2.332
271.55	2.321
272.01	2.298
272.48	2.299
272.95	2.259
273.42	2.218
273.89	2.192
274.36	2.197
274.82	2.154
275.29	2.152
275.76	2.137
276.23	2.155
276.70	2.103
277.16	2.067
277.63	2.099
278.10	2.051
278.57	2.066
279.04	2.030
279.50	2.072
279.97	2.095
280.44	1.988
280.91	1.998
281.38	1.977
281.84	2.014
282.31	1.978
282.78	1.961
283.25	1.944
283.72	1.932
284.18	1.896
284.65	1.944
285.12	1.884
285.59	1.857
286.05	1.888
286.52	1.881
286.99	1.861
287.46	1.854
287.92	1.870
288.39	1.847
288.86	1.847
289.33	1.827
289.79	1.834
290.26	1.795
290.73	1.807
291.20	1.789
291.66	1.799
292.13	1.780
292.60	1.751
293.07	1.753
293.53	1.723
294.00	1.742
294.47	1.730
294.93	1.719
295.40	1.724
295.87	1.692
296.34	1.695
296.80	1.690
297.27	1.693
297.74	1.657
298.20	1.684
298.67	1.645
299.14	1.667
299.60	1.641
300.07	1.646
300.54	1.629
301.01	1.603
301.47	1.595
301.94	1.606
302.41	1.586
302.87	1.574
303.34	1.595
303.81	1.552
304.27	1.556
304.74	1.548
305.21	1.541
305.67	1.544
306.14	1.513
306.61	1.530
307.07	1.493
307.54	1.503
308.01	1.506
308.47	1.491
308.94	1.492
309.40	1.486
309.87	1.470
310.34	1.473
310.80	1.469
311.27	1.456
311.74	1.444
312.20	1.464
312.67	1.436
313.13	1.421
313.60	1.427
314.07	1.428
314.53	1.406
315.00	1.390
315.47	1.402
315.93	1.385
316.40	1.381
316.86	1.387
317.33	1.371
317.80	1.369
318.26	1.368
318.73	1.363
319.19	1.359
319.66	1.341
320.13	1.333
320.59	1.345
321.06	1.329
321.52	1.323
321.99	1.311
322.45	1.309
322.92	1.307
323.39	1.313
323.85	1.308
324.32	1.292
324.78	1.289
325.25	1.298
325.71	1.283
326.18	1.263
326.64	1.275
327.11	1.271
327.58	1.253
328.04	1.249
328.51	1.263
328.97	1.253
329.44	1.239
329.90	1.241
330.37	1.239
330.83	1.223
331.30	1.236
331.76	1.223
332.23	1.216
332.69	1.208
333.16	1.200
333.62	1.199
334.09	1.194
334.56	1.182
335.02	1.176
335.49	1.167
335.95	1.161
336.42	1.156
336.88	1.152
337.35	1.152
337.81	1.144
338.28	1.132
338.74	1.134
339.20	1.125
339.67	1.120
340.13	1.115
340.60	1.101
341.06	1.093
341.53	1.081
341.99	1.086
342.46	1.077
342.92	1.061
343.39	1.056
343.85	1.052
344.32	1.039
344.78	1.038
345.25	1.026
345.71	1.022
346.17	1.016
346.64	1.004
347.10	0.991
347.57	0.978
348.03	0.964
348.50	0.950
348.96	0.947
349.43	0.937
349.89	0.922
350.35	0.918
350.82	0.907
351.28	0.896
351.75	0.887
352.21	0.880
352.67	0.869
353.14	0.855
353.60	0.843
354.07	0.833
354.53	0.817
355.00	0.810
355.46	0.804
355.92	0.783
356.39	0.781
356.85	0.774
357.31	0.758
357.78	0.755
358.24	0.740
358.71	0.734
359.17	0.730
359.63	0.719
360.10	0.713
360.56	0.708
361.03	0.707
361.49	0.694
361.95	0.689
362.42	0.687
362.88	0.682
363.34	0.675
363.81	0.675
364.27	0.664
364.73	0.661
365.20	0.665
365.66	0.658
366.12	0.651
366.59	0.650
367.05	0.648
367.51	0.648
367.98	0.639
368.44	0.636
368.90	0.634
369.37	0.632
369.83	0.631
370.29	0.627
370.76	0.623
371.22	0.625
371.68	0.614
372.15	0.617
372.61	0.611
373.07	0.611
373.54	0.607
374.00	0.609
374.46	0.608
374.92	0.605
375.39	0.600
375.85	0.605
376.31	0.599
376.78	0.595
377.24	0.595
377.70	0.593
378.16	0.594
378.63	0.590
379.09	0.588
379.55	0.586
380.01	0.582
380.48	0.579
380.94	0.582
381.40	0.578
381.87	0.574
382.33	0.575
382.79	0.571
383.25	0.575
383.72	0.571
384.18	0.567
384.64	0.565
385.10	0.565
385.56	0.564
386.03	0.559
386.49	0.558
386.95	0.554
387.41	0.554
387.88	0.554
388.34	0.553
388.80	0.551
389.26	0.549
389.72	0.551
390.19	0.546
390.65	0.547
391.11	0.545
391.57	0.542
392.04	0.541
392.50	0.539
392.96	0.539
393.42	0.532
393.88	0.536
394.34	0.534
394.81	0.533
395.27	0.528
395.73	0.526
396.19	0.528
396.65	0.523
397.12	0.521
397.58	0.522
398.04	0.520
398.50	0.521
398.96	0.517
399.42	0.518
399.89	0.516
400.35	0.514
400.81	0.510
401.27	0.511
401.73	0.509
402.19	0.507
402.65	0.507
403.12	0.502
403.58	0.503
404.04	0.502
404.50	0.504
404.96	0.497
405.42	0.498
405.88	0.497
406.34	0.497
406.81	0.492
407.27	0.491
407.73	0.494
408.19	0.486
408.65	0.488
409.11	0.486
409.57	0.487
410.03	0.485
410.49	0.486
410.96	0.484
411.42	0.483
411.88	0.478
412.34	0.474
412.80	0.479
413.26	0.473
413.72	0.471
414.18	0.474
414.64	0.468
415.10	0.471
415.56	0.470
416.02	0.472
416.48	0.469
416.95	0.466
417.41	0.468
417.87	0.464
418.33	0.461
418.79	0.462
419.25	0.460
419.71	0.460
420.17	0.458
420.63	0.454
421.09	0.455
421.55	0.452
422.01	0.454
422.47	0.452
422.93	0.452
423.39	0.450
423.85	0.451
424.31	0.448
424.77	0.444
425.23	0.449
425.69	0.449
426.15	0.442
426.61	0.442
427.07	0.436
427.53	0.441
427.99	0.438
428.45	0.440
428.91	0.438
429.37	0.436
429.83	0.434
430.29	0.431
430.75	0.433
431.21	0.434
431.67	0.434
432.13	0.434
432.59	0.427
433.05	0.428
433.51	0.425
433.97	0.428
434.43	0.429
434.89	0.430
435.35	0.425
435.81	0.420
436.27	0.419
436.73	0.418
437.19	0.418
437.65	0.420
438.11	0.417
438.57	0.422
439.03	0.417
439.48	0.416
439.94	0.412
440.40	0.413
440.86	0.414
441.32	0.413
441.78	0.410
442.24	0.404
442.70	0.409
443.16	0.406
443.62	0.401
444.08	0.404
444.54	0.403
444.99	0.403
445.45	0.400
445.91	0.398
446.37	0.401
446.83	0.400
447.29	0.395
447.75	0.396
448.21	0.398
448.67	0.396
449.12	0.393
449.58	0.395
450.04	0.394
450.50	0.391
450.96	0.394
451.42	0.389
451.88	0.387
452.34	0.390
452.79	0.386
453.25	0.391
453.71	0.384
454.17	0.385
454.63	0.389
455.09	0.387
455.55	0.382
456.00	0.382
456.46	0.381
456.92	0.377
457.38	0.378
457.84	0.377
458.30	0.374
458.75	0.376
459.21	0.370
459.67	0.375
460.13	0.371
460.59	0.372
461.04	0.370
461.50	0.373
461.96	0.369
462.42	0.371
462.88	0.372
463.33	0.368
463.79	0.367
464.25	0.367
464.71	0.363
465.17	0.366
465.62	0.367
466.08	0.364
466.54	0.364
467.00	0.362
467.46	0.363
467.91	0.362
468.37	0.363
468.83	0.360
469.29	0.359
469.74	0.360
470.20	0.360
470.66	0.356
471.12	0.353
471.57	0.357
472.03	0.355
472.49	0.353
472.95	0.353
473.40	0.353
473.86	0.351
474.32	0.350
474.78	0.350
475.23	0.348
475.69	0.349
476.15	0.352
476.60	0.349
477.06	0.348
477.52	0.345
477.98	0.344
478.43	0.343
478.89	0.343
479.35	0.344
479.80	0.348
480.26	0.346
480.72	0.340
481.18	0.342
481.63	0.339
482.09	0.339
482.55	0.341
483.00	0.336
483.46	0.334
483.92	0.337
484.37	0.336
484.83	0.333
485.29	0.333
485.74	0.334
486.20	0.333
486.66	0.334
487.11	0.331
487.57	0.330
488.03	0.330
488.48	0.329
488.94	0.330
489.40	0.329
489.85	0.332
490.31	0.328
490.77	0.326
491.22	0.329
491.68	0.325
492.13	0.324
492.59	0.325
493.05	0.322
493.50	0.323
493.96	0.324
494.42	0.322
494.87	0.318
495.33	0.318
495.78	0.321
496.24	0.321
496.70	0.318
497.15	0.316
497.61	0.318
498.06	0.319
498.52	0.314
498.98	0.313
499.43	0.314
499.89	0.315
500.34	0.313
500.80	0.312
501.25	0.314
501.71	0.312
502.17	0.312
502.62	0.314
503.08	0.307
503.53	0.308
503.99	0.307
504.44	0.309
504.90	0.309
505.36	0.306
505.81	0.309
506.27	0.308
506.72	0.306
507.18	0.306
507.63	0.306
508.09	0.306
508.54	0.301
509.00	0.305
509.45	0.303
509.91	0.301
510.36	0.302
510.82	0.301
511.27	0.301
511.73	0.302
512.19	0.299
512.64	0.298
513.10	0.298
513.55	0.299
514.01	0.298
514.46	0.295
514.92	0.296
515.37	0.297
515.83	0.298
516.28	0.294
516.73	0.293
517.19	0.294
517.64	0.291
518.10	0.293
518.55	0.292
519.01	0.289
519.46	0.292
519.92	0.290
520.37	0.284
520.83	0.289
521.28	0.289
521.74	0.287
522.19	0.288
522.65	0.286
523.10	0.287
523.55	0.286
524.01	0.287
524.46	0.284
524.92	0.284
525.37	0.284
525.83	0.286
526.28	0.282
526.73	0.285
527.19	0.286
527.64	0.286
528.10	0.281
528.55	0.281
529.01	0.281
529.46	0.282
529.91	0.278
530.37	0.279
530.82	0.279
531.28	0.276
531.73	0.277
532.18	0.277
532.64	0.277
533.09	0.277
533.54	0.276
534.00	0.274
534.45	0.278
534.91	0.276
535.36	0.276
535.81	0.274
536.27	0.272
536.72	0.275
537.17	0.274
537.63	0.274
538.08	0.271
538.54	0.274
538.99	0.272
539.44	0.274
539.90	0.271
540.35	0.270
540.80	0.270
541.26	0.268
541.71	0.268
542.16	0.269
542.62	0.267
543.07	0.268
543.52	0.267
543.98	0.269
544.43	0.266
544.88	0.266
545.34	0.266
545.79	0.266
546.24	0.263
546.69	0.266
547.15	0.265
547.60	0.266
548.05	0.266
548.51	0.264
548.96	0.264
549.41	0.263
549.86	0.263
550.32	0.264
550.77	0.266
551.22	0.264
551.68	0.263
552.13	0.263
552.58	0.257
553.03	0.263
553.49	0.263
553.94	0.261
554.39	0.261
554.84	0.262
555.30	0.261
555.75	0.260
556.20	0.257
556.65	0.259
557.11	0.261
557.56	0.258
558.01	0.261
558.46	0.260
558.92	0.257
559.37	0.256
559.82	0.256
560.27	0.258
560.72	0.257
561.18	0.255
561.63	0.256
562.08	0.254
562.53	0.255
562.99	0.256
563.44	0.256
563.89	0.256
564.34	0.255
564.79	0.253
565.25	0.254
565.70	0.251
566.15	0.252
566.60	0.252
567.05	0.254
567.50	0.253
567.96	0.251
568.41	0.250
568.86	0.252
569.31	0.251
569.76	0.249
570.21	0.249
570.67	0.250
571.12	0.250
571.57	0.249
572.02	0.247
572.47	0.249
572.92	0.249
573.37	0.250
573.83	0.248
574.28	0.248
574.73	0.248
575.18	0.248
575.63	0.249
576.08	0.246
576.53	0.247
576.98	0.247
577.44	0.245
577.89	0.245
578.34	0.245
578.79	0.246
579.24	0.246
579.69	0.243
580.14	0.241
580.59	0.241
581.04	0.243
581.49	0.243
581.95	0.244
582.40	0.245
582.85	0.243
583.30	0.244
583.75	0.244
584.20	0.244
584.65	0.242
585.10	0.243
585.55	0.244
586.00	0.243
586.45	0.242
586.90	0.244
587.35	0.244
587.80	0.243
588.25	0.242
588.71	0.243
589.16	0.241
589.61	0.243
590.06	0.243
590.51	0.244
590.96	0.243
591.41	0.242
591.86	0.243
592.31	0.242
592.76	0.244
593.21	0.242
593.66	0.243
594.11	0.241
594.56	0.242
595.01	0.244
595.46	0.242
595.91	0.243
596.36	0.243
596.81	0.243
597.26	0.242
597.71	0.244
598.16	0.241
598.61	0.241
599.06	0.243
599.51	0.245
599.96	0.243
600.41	0.244
600.86	0.242
601.31	0.242
601.76	0.244
602.21	0.242
602.65	0.243
603.10	0.244
603.55	0.242
604.00	0.242
604.45	0.242
604.90	0.242
605.35	0.242
605.80	0.245
606.25	0.243
606.70	0.243
607.15	0.242
607.60	0.243
608.05	0.241
608.50	0.244
608.95	0.241
609.39	0.243
609.84	0.242
610.29	0.241
610.74	0.239
611.19	0.239
611.64	0.242
612.09	0.241
612.54	0.240
612.99	0.240
613.44	0.239
613.88	0.244
614.33	0.241
614.78	0.239
615.23	0.238
615.68	0.239
616.13	0.240
616.58	0.238
617.03	0.240
617.47	0.241
617.92	0.239
618.37	0.238
618.82	0.240
619.27	0.238
619.72	0.239
620.17	0.237
620.61	0.238
621.06	0.238
621.51	0.239
621.96	0.237
622.41	0.237
622.86	0.236
623.30	0.238
623.75	0.239
624.20	0.238
624.65	0.235
625.10	0.236
625.54	0.237
625.99	0.237
626.44	0.236
626.89	0.237
627.34	0.238
627.78	0.237
628.23	0.234
628.68	0.236
629.13	0.237
629.58	0.235
630.02	0.235
630.47	0.236
630.92	0.234
631.37	0.236
631.81	0.235
632.26	0.235
632.71	0.237
633.16	0.236
633.61	0.237
634.05	0.235
634.50	0.236
634.95	0.236
635.40	0.237
635.84	0.237
636.29	0.237
636.74	0.238
637.18	0.238
637.63	0.237
638.08	0.236
638.53	0.238
638.97	0.237
639.42	0.240
639.87	0.239
640.32	0.236
640.76	0.237
641.21	0.239
641.66	0.237
642.10	0.239
642.55	0.238
643.00	0.239
643.44	0.239
643.89	0.240
644.34	0.239
644.79	0.238
645.23	0.239
645.68	0.240
646.13	0.239
646.57	0.239
647.02	0.240
647.47	0.243
647.91	0.241
648.36	0.241
648.81	0.242
649.25	0.239
649.70	0.240
650.15	0.240
650.59	0.241
651.04	0.240
651.48	0.242
651.93	0.242
652.38	0.240
652.82	0.241
653.27	0.240
653.72	0.242
654.16	0.240
654.61	0.245
655.06	0.241
655.50	0.238
655.95	0.239
656.39	0.235
656.84	0.239
657.29	0.243
657.73	0.242
658.18	0.242
658.62	0.242
659.07	0.240
659.52	0.241
659.96	0.240
660.41	0.243
660.85	0.239
661.30	0.240
661.74	0.238
662.19	0.238
662.64	0.238
663.08	0.239
663.53	0.237
663.97	0.237
664.42	0.237
664.86	0.237
665.31	0.237
665.75	0.235
666.20	0.235
666.65	0.234
667.09	0.234
667.54	0.235
667.98	0.233
668.43	0.232
668.87	0.230
669.32	0.231
669.76	0.230
670.21	0.228
670.65	0.226
671.10	0.226
671.54	0.226
671.99	0.223
672.43	0.222
672.88	0.223
673.32	0.223
673.77	0.219
674.21	0.218
674.66	0.219
675.10	0.216
675.55	0.212
675.99	0.217
676.44	0.211
676.88	0.213
677.33	0.212
677.77	0.211
678.22	0.206
678.66	0.207
679.11	0.206
679.55	0.204
679.99	0.202
680.44	0.205
680.88	0.198
681.33	0.196
681.77	0.197
682.22	0.195
682.66	0.194
683.11	0.194
683.55	0.192
683.99	0.192
684.44	0.188
684.88	0.187
685.33	0.186
685.77	0.186
686.21	0.185
686.66	0.185
687.10	0.184
687.55	0.182
687.99	0.183
688.44	0.181
688.88	0.180
689.32	0.180
689.77	0.176
690.21	0.178
690.65	0.175
691.10	0.178
691.54	0.175
691.99	0.173
692.43	0.172
692.87	0.172
693.32	0.173
693.76	0.171
694.20	0.172
694.65	0.169
695.09	0.171
695.53	0.168
695.98	0.168
696.42	0.167
696.86	0.167
697.31	0.165
697.75	0.165
698.19	0.165
698.64	0.166
699.08	0.165
699.52	0.165
699.97	0.164
700.41	0.163
700.85	0.164
701.30	0.163
701.74	0.162
702.18	0.164
702.63	0.162
703.07	0.162
703.51	0.164
703.96	0.161
704.40	0.161
704.84	0.162
705.28	0.160
705.73	0.161
706.17	0.161
706.61	0.160
707.06	0.158
707.50	0.158
707.94	0.158
708.38	0.155
708.83	0.160
709.27	0.158
709.71	0.157
710.15	0.158
710.60	0.157
711.04	0.156
711.48	0.158
711.92	0.158
712.37	0.156
712.81	0.157
713.25	0.156
713.69	0.156
714.13	0.157
714.58	0.158
715.02	0.158
715.46	0.154
715.90	0.154
716.35	0.153
716.79	0.157
717.23	0.157
717.67	0.156
718.11	0.158
718.56	0.156
719.00	0.157
719.44	0.154
719.88	0.153
720.32	0.153
720.76	0.156
721.21	0.151
721.65	0.153
722.09	0.155
722.53	0.153
722.97	0.155
723.41	0.152
723.86	0.155
724.30	0.154
724.74	0.155
725.18	0.156
725.62	0.153
726.06	0.153
726.50	0.151
726.95	0.152
727.39	0.154
727.83	0.153
728.27	0.153
728.71	0.153
729.15	0.154
729.59	0.154
730.03	0.151
730.48	0.154
730.92	0.153
731.36	0.153
731.80	0.154
732.24	0.155
732.68	0.152
733.12	0.152
733.56	0.152
734.00	0.154
734.44	0.151
734.89	0.152
735.33	0.154
735.77	0.157
736.21	0.154
736.65	0.151
737.09	0.153
737.53	0.155
737.97	0.154
738.41	0.154
738.85	0.156
739.29	0.157
739.73	0.151
740.17	0.152
740.61	0.151
741.05	0.153
741.49	0.153
741.93	0.152
742.37	0.147
742.81	0.149
743.26	0.151
743.70	0.153
744.14	0.148
744.58	0.149
745.02	0.152
745.46	0.150
745.90	0.151
746.34	0.151
746.78	0.150
747.22	0.150
747.66	0.153
748.10	0.151
748.54	0.150
748.98	0.149
749.42	0.151
749.86	0.149
750.29	0.147
750.73	0.147
751.17	0.148
751.61	0.147
752.05	0.151
752.49	0.150
752.93	0.147
753.37	0.147
753.81	0.148
754.25	0.147
754.69	0.144
755.13	0.146
755.57	0.147
756.01	0.147
756.45	0.147
756.89	0.148
757.33	0.147
757.77	0.148
758.21	0.147
758.64	0.144
759.08	0.143
759.52	0.146
759.96	0.148
760.40	0.149
760.84	0.146
761.28	0.145
761.72	0.148
762.16	0.146
762.60	0.144
763.03	0.143
763.47	0.145
763.91	0.142
764.35	0.143
764.79	0.142
765.23	0.142
765.67	0.143
766.11	0.139
766.54	0.142
766.98	0.143
767.42	0.143
767.86	0.141
768.30	0.143
768.74	0.145
769.17	0.145
769.61	0.144
770.05	0.141
770.49	0.142
770.93	0.142
771.37	0.142
771.80	0.141
772.24	0.143
772.68	0.141
773.12	0.141
773.56	0.141
774.00	0.139
774.43	0.140
774.87	0.141
775.31	0.139
775.75	0.141
776.19	0.139
776.62	0.140
777.06	0.140
777.50	0.141
777.94	0.139
778.37	0.136
778.81	0.139
779.25	0.140
779.69	0.141
780.13	0.139
780.56	0.139
781.00	0.139
781.44	0.141
781.88	0.139
782.31	0.137
782.75	0.139
783.19	0.138
783.63	0.137
784.06	0.136
784.50	0.139
784.94	0.136
785.37	0.141
785.81	0.141
786.25	0.139
786.69	0.136
787.12	0.137
787.56	0.136
788.00	0.137
788.43	0.139
788.87	0.139
789.31	0.134
789.75	0.136
790.18	0.136
790.62	0.135
791.06	0.136
791.49	0.136
791.93	0.135
792.37	0.140
792.80	0.132
793.24	0.135
793.68	0.138
794.11	0.138
794.55	0.137
794.99	0.137
795.42	0.136
795.86	0.140
796.30	0.136
796.73	0.137
797.17	0.135
797.61	0.133
798.04	0.135
798.48	0.139
798.91	0.134
799.35	0.136
799.79	0.138
800.22	0.136
800.66	0.131
801.10	0.135
801.53	0.134
801.97	0.138
802.40	0.135
802.84	0.130
803.28	0.133
803.71	0.133
804.15	0.134
804.58	0.132
805.02	0.135
805.46	0.134
805.89	0.133
806.33	0.132
806.76	0.132
807.20	0.134
807.63	0.133
808.07	0.135
808.51	0.132
808.94	0.130
809.38	0.134
809.81	0.135
810.25	0.131
810.68	0.131
811.12	0.134
811.55	0.136
811.99	0.133
812.42	0.135
812.86	0.129
813.29	0.128
813.73	0.135
814.17	0.130
814.60	0.132
815.04	0.131
