SpectraSuite Data File
++++++++++++++++++++++++++++++++++++
Date: Sun Apr 24 18:20:29 CEST 2016
User: spectrasuite
Dark Spectrum Present: Yes
Reference Spectrum Present: Yes
Number of Sampled Component Spectra: 1
Spectrometers: HR+C0708
Integration Time (usec): 1000 (HR+C0708)
Spectra Averaged: 10 (HR+C0708)
Boxcar Smoothing: 0 (HR+C0708)
Correct for Electrical Dark: No (HR+C0708)
Strobe/Lamp Enabled: No (HR+C0708)
Correct for Detector Non-linearity: No (HR+C0708)
Correct for Stray Light: No (HR+C0708)
Number of Pixels in Processed Spectrum: 2048
>>>>>Begin Processed Spectral Data<<<<<
188.76	-0.000
189.23	-0.000
189.70	-0.000
190.17	-0.000
190.64	-0.000
191.12	-0.000
191.59	-0.000
192.06	-0.000
192.53	-0.000
193.01	-0.000
193.48	-0.000
193.95	-0.000
194.42	-0.000
194.90	-0.000
195.37	-0.000
195.84	-0.000
196.31	-0.000
196.78	-0.000
197.26	-0.000
197.73	-0.000
198.20	-0.000
198.67	-0.000
199.14	-0.000
199.62	-0.000
200.09	-0.000
200.56	-0.000
201.03	-0.000
201.50	-0.000
201.97	2.661
202.45	-0.000
202.92	1.120
203.39	1.561
203.86	-0.000
204.33	1.668
204.80	-0.000
205.28	-0.000
205.75	-0.000
206.22	-0.000
206.69	-0.000
207.16	-0.000
207.63	-0.000
208.11	0.735
208.58	-0.000
209.05	-0.000
209.52	2.411
209.99	-0.000
210.46	1.634
210.93	-0.000
211.41	-0.000
211.88	-0.000
212.35	-0.000
212.82	-0.000
213.29	1.304
213.76	-0.000
214.23	-0.000
214.70	-0.000
215.18	-0.000
215.65	1.238
216.12	1.176
216.59	-0.000
217.06	-0.000
217.53	-0.000
218.00	-0.000
218.47	2.009
218.94	1.651
219.41	-0.000
219.89	-0.000
220.36	-0.000
220.83	-0.000
221.30	1.780
221.77	-0.000
222.24	-0.000
222.71	-0.000
223.18	-0.000
223.65	-0.000
224.12	-0.000
224.59	-0.000
225.06	-0.000
225.54	-0.000
226.01	-0.000
226.48	-0.000
226.95	-0.000
227.42	-0.000
227.89	-0.000
228.36	-0.000
228.83	-0.000
229.30	1.715
229.77	-0.000
230.24	1.891
230.71	-0.000
231.18	-0.000
231.65	-0.000
232.12	-0.000
232.59	-0.000
233.06	-0.000
233.53	3.431
234.00	2.490
234.47	3.297
234.94	-0.000
235.41	-0.000
235.88	-0.000
236.35	-0.000
236.82	2.916
237.29	2.927
237.76	-0.000
238.23	-0.000
238.70	-0.000
239.17	3.016
239.64	2.648
240.11	-0.000
240.58	3.295
241.05	2.740
241.52	-0.000
241.99	-0.000
242.46	2.915
242.93	-0.000
243.40	3.327
243.87	-0.000
244.34	2.630
244.81	2.736
245.28	-0.000
245.75	-0.000
246.22	-0.000
246.69	-0.000
247.16	2.939
247.63	3.196
248.10	-0.000
248.57	-0.000
249.04	-0.000
249.51	-0.000
249.98	3.566
250.45	-0.000
250.92	-0.000
251.39	-0.000
251.85	-0.000
252.32	-0.000
252.79	-0.000
253.26	-0.000
253.73	-0.000
254.20	3.360
254.67	3.006
255.14	2.929
255.61	3.637
256.08	2.742
256.55	3.079
257.02	2.995
257.49	3.203
257.95	2.633
258.42	2.699
258.89	2.471
259.36	2.501
259.83	2.556
260.30	2.446
260.77	2.635
261.24	2.431
261.71	2.485
262.17	2.533
262.64	2.333
263.11	2.349
263.58	2.390
264.05	2.267
264.52	2.223
264.99	2.172
265.46	2.161
265.92	2.220
266.39	2.136
266.86	2.162
267.33	2.205
267.80	2.039
268.27	2.096
268.74	2.107
269.20	2.065
269.67	2.069
270.14	2.013
270.61	1.993
271.08	2.016
271.55	1.965
272.01	1.934
272.48	1.988
272.95	1.921
273.42	1.912
273.89	1.937
274.36	1.874
274.82	1.868
275.29	1.864
275.76	1.818
276.23	1.858
276.70	1.830
277.16	1.801
277.63	1.797
278.10	1.780
278.57	1.760
279.04	1.811
279.50	1.749
279.97	1.761
280.44	1.740
280.91	1.710
281.38	1.710
281.84	1.716
282.31	1.707
282.78	1.717
283.25	1.674
283.72	1.653
284.18	1.671
284.65	1.637
285.12	1.636
285.59	1.641
286.05	1.632
286.52	1.608
286.99	1.595
287.46	1.603
287.92	1.604
288.39	1.574
288.86	1.574
289.33	1.581
289.79	1.553
290.26	1.550
290.73	1.540
291.20	1.520
291.66	1.524
292.13	1.521
292.60	1.500
293.07	1.499
293.53	1.475
294.00	1.476
294.47	1.492
294.93	1.452
295.40	1.463
295.87	1.459
296.34	1.435
296.80	1.422
297.27	1.411
297.74	1.407
298.20	1.412
298.67	1.397
299.14	1.392
299.60	1.384
300.07	1.363
300.54	1.356
301.01	1.352
301.47	1.319
301.94	1.336
302.41	1.332
302.87	1.319
303.34	1.330
303.81	1.298
304.27	1.292
304.74	1.290
305.21	1.292
305.67	1.279
306.14	1.276
306.61	1.265
307.07	1.256
307.54	1.245
308.01	1.238
308.47	1.231
308.94	1.234
309.40	1.215
309.87	1.215
310.34	1.208
310.80	1.200
311.27	1.210
311.74	1.185
312.20	1.188
312.67	1.192
313.13	1.169
313.60	1.173
314.07	1.165
314.53	1.152
315.00	1.155
315.47	1.146
315.93	1.140
316.40	1.137
316.86	1.129
317.33	1.127
317.80	1.121
318.26	1.109
318.73	1.114
319.19	1.105
319.66	1.101
320.13	1.101
320.59	1.098
321.06	1.088
321.52	1.091
321.99	1.082
322.45	1.072
322.92	1.078
323.39	1.060
323.85	1.068
324.32	1.059
324.78	1.047
325.25	1.048
325.71	1.049
326.18	1.030
326.64	1.041
327.11	1.026
327.58	1.023
328.04	1.029
328.51	1.024
328.97	1.014
329.44	1.006
329.90	0.996
330.37	1.009
330.83	0.995
331.30	1.001
331.76	0.991
332.23	0.984
332.69	0.981
333.16	0.981
333.62	0.971
334.09	0.971
334.56	0.965
335.02	0.955
335.49	0.956
335.95	0.948
336.42	0.944
336.88	0.944
337.35	0.940
337.81	0.936
338.28	0.938
338.74	0.925
339.20	0.924
339.67	0.930
340.13	0.920
340.60	0.919
341.06	0.909
341.53	0.904
341.99	0.906
342.46	0.896
342.92	0.886
343.39	0.884
343.85	0.883
344.32	0.877
344.78	0.877
345.25	0.869
345.71	0.872
346.17	0.868
346.64	0.859
347.10	0.855
347.57	0.852
348.03	0.840
348.50	0.839
348.96	0.833
349.43	0.829
349.89	0.821
350.35	0.814
350.82	0.813
351.28	0.812
351.75	0.799
352.21	0.794
352.67	0.786
353.14	0.791
353.60	0.780
354.07	0.774
354.53	0.760
355.00	0.756
355.46	0.744
355.92	0.742
356.39	0.732
356.85	0.730
357.31	0.729
357.78	0.714
358.24	0.707
358.71	0.703
359.17	0.698
359.63	0.694
360.10	0.694
360.56	0.686
361.03	0.682
361.49	0.673
361.95	0.667
362.42	0.671
362.88	0.663
363.34	0.653
363.81	0.652
364.27	0.650
364.73	0.645
365.20	0.643
365.66	0.638
366.12	0.636
366.59	0.635
367.05	0.631
367.51	0.631
367.98	0.623
368.44	0.619
368.90	0.619
369.37	0.616
369.83	0.614
370.29	0.615
370.76	0.609
371.22	0.609
371.68	0.611
372.15	0.599
372.61	0.597
373.07	0.598
373.54	0.593
374.00	0.591
374.46	0.595
374.92	0.589
375.39	0.586
375.85	0.587
376.31	0.587
376.78	0.586
377.24	0.579
377.70	0.580
378.16	0.574
378.63	0.575
379.09	0.577
379.55	0.575
380.01	0.570
380.48	0.569
380.94	0.566
381.40	0.567
381.87	0.561
382.33	0.560
382.79	0.561
383.25	0.560
383.72	0.560
384.18	0.553
384.64	0.554
385.10	0.551
385.56	0.551
386.03	0.545
386.49	0.543
386.95	0.548
387.41	0.544
387.88	0.541
388.34	0.537
388.80	0.535
389.26	0.539
389.72	0.538
390.19	0.534
390.65	0.537
391.11	0.532
391.57	0.526
392.04	0.531
392.50	0.522
392.96	0.522
393.42	0.521
393.88	0.525
394.34	0.520
394.81	0.520
395.27	0.515
395.73	0.517
396.19	0.515
396.65	0.509
397.12	0.510
397.58	0.506
398.04	0.510
398.50	0.508
398.96	0.505
399.42	0.508
399.89	0.503
400.35	0.503
400.81	0.499
401.27	0.498
401.73	0.497
402.19	0.495
402.65	0.495
403.12	0.491
403.58	0.494
404.04	0.493
404.50	0.489
404.96	0.487
405.42	0.485
405.88	0.487
406.34	0.483
406.81	0.482
407.27	0.479
407.73	0.480
408.19	0.476
408.65	0.478
409.11	0.471
409.57	0.478
410.03	0.477
410.49	0.475
410.96	0.472
411.42	0.471
411.88	0.467
412.34	0.467
412.80	0.468
413.26	0.458
413.72	0.463
414.18	0.461
414.64	0.459
415.10	0.464
415.56	0.460
416.02	0.458
416.48	0.455
416.95	0.452
417.41	0.454
417.87	0.451
418.33	0.449
418.79	0.448
419.25	0.448
419.71	0.445
420.17	0.445
420.63	0.442
421.09	0.443
421.55	0.442
422.01	0.440
422.47	0.443
422.93	0.440
423.39	0.439
423.85	0.441
424.31	0.440
424.77	0.435
425.23	0.435
425.69	0.435
426.15	0.438
426.61	0.431
427.07	0.427
427.53	0.433
427.99	0.427
428.45	0.426
428.91	0.432
429.37	0.426
429.83	0.423
430.29	0.426
430.75	0.422
431.21	0.425
431.67	0.425
432.13	0.421
432.59	0.421
433.05	0.417
433.51	0.414
433.97	0.416
434.43	0.415
434.89	0.418
435.35	0.415
435.81	0.412
436.27	0.409
436.73	0.410
437.19	0.406
437.65	0.410
438.11	0.407
438.57	0.410
439.03	0.410
439.48	0.406
439.94	0.399
440.40	0.407
440.86	0.398
441.32	0.396
441.78	0.404
442.24	0.398
442.70	0.395
443.16	0.394
443.62	0.392
444.08	0.396
444.54	0.394
444.99	0.391
445.45	0.392
445.91	0.389
446.37	0.390
446.83	0.389
447.29	0.385
447.75	0.387
448.21	0.389
448.67	0.385
449.12	0.386
449.58	0.385
450.04	0.379
450.50	0.383
450.96	0.387
451.42	0.381
451.88	0.380
452.34	0.383
452.79	0.378
453.25	0.382
453.71	0.377
454.17	0.376
454.63	0.378
455.09	0.373
455.55	0.373
456.00	0.375
456.46	0.372
456.92	0.372
457.38	0.368
457.84	0.370
458.30	0.366
458.75	0.368
459.21	0.360
459.67	0.367
460.13	0.362
460.59	0.365
461.04	0.362
461.50	0.364
461.96	0.363
462.42	0.363
462.88	0.361
463.33	0.358
463.79	0.355
464.25	0.358
464.71	0.360
465.17	0.358
465.62	0.356
466.08	0.359
466.54	0.355
467.00	0.356
467.46	0.354
467.91	0.352
468.37	0.353
468.83	0.352
469.29	0.352
469.74	0.351
470.20	0.351
470.66	0.348
471.12	0.347
471.57	0.346
472.03	0.347
472.49	0.346
472.95	0.348
473.40	0.345
473.86	0.342
474.32	0.343
474.78	0.344
475.23	0.340
475.69	0.342
476.15	0.341
476.60	0.343
477.06	0.340
477.52	0.339
477.98	0.336
478.43	0.337
478.89	0.336
479.35	0.336
479.80	0.337
480.26	0.335
480.72	0.332
481.18	0.333
481.63	0.330
482.09	0.333
482.55	0.330
483.00	0.328
483.46	0.330
483.92	0.327
484.37	0.332
484.83	0.326
485.29	0.326
485.74	0.328
486.20	0.327
486.66	0.325
487.11	0.324
487.57	0.323
488.03	0.323
488.48	0.323
488.94	0.320
489.40	0.321
489.85	0.322
490.31	0.321
490.77	0.318
491.22	0.321
491.68	0.320
492.13	0.317
492.59	0.316
493.05	0.317
493.50	0.317
493.96	0.315
494.42	0.314
494.87	0.314
495.33	0.311
495.78	0.315
496.24	0.312
496.70	0.313
497.15	0.311
497.61	0.312
498.06	0.308
498.52	0.306
498.98	0.309
499.43	0.309
499.89	0.310
500.34	0.307
500.80	0.307
501.25	0.307
501.71	0.304
502.17	0.306
502.62	0.305
503.08	0.303
503.53	0.304
503.99	0.301
504.44	0.302
504.90	0.302
505.36	0.302
505.81	0.302
506.27	0.301
506.72	0.300
507.18	0.299
507.63	0.297
508.09	0.300
508.54	0.296
509.00	0.298
509.45	0.299
509.91	0.295
510.36	0.296
510.82	0.295
511.27	0.294
511.73	0.295
512.19	0.291
512.64	0.293
513.10	0.292
513.55	0.295
514.01	0.291
514.46	0.290
514.92	0.290
515.37	0.290
515.83	0.290
516.28	0.289
516.73	0.285
517.19	0.289
517.64	0.286
518.10	0.287
518.55	0.288
519.01	0.287
519.46	0.285
519.92	0.287
520.37	0.284
520.83	0.284
521.28	0.287
521.74	0.284
522.19	0.286
522.65	0.283
523.10	0.284
523.55	0.284
524.01	0.284
524.46	0.281
524.92	0.280
525.37	0.280
525.83	0.281
526.28	0.278
526.73	0.279
527.19	0.281
527.64	0.280
528.10	0.280
528.55	0.280
529.01	0.280
529.46	0.274
529.91	0.277
530.37	0.276
530.82	0.275
531.28	0.273
531.73	0.272
532.18	0.272
532.64	0.274
533.09	0.270
533.54	0.272
534.00	0.269
534.45	0.271
534.91	0.274
535.36	0.271
535.81	0.271
536.27	0.271
536.72	0.272
537.17	0.270
537.63	0.270
538.08	0.267
538.54	0.269
538.99	0.270
539.44	0.268
539.90	0.268
540.35	0.266
540.80	0.266
541.26	0.269
541.71	0.267
542.16	0.264
542.62	0.269
543.07	0.266
543.52	0.267
543.98	0.266
544.43	0.266
544.88	0.265
545.34	0.267
545.79	0.265
546.24	0.264
546.69	0.266
547.15	0.264
547.60	0.263
548.05	0.262
548.51	0.260
548.96	0.262
549.41	0.265
549.86	0.263
550.32	0.263
550.77	0.263
551.22	0.263
551.68	0.262
552.13	0.262
552.58	0.261
553.03	0.261
553.49	0.260
553.94	0.261
554.39	0.261
554.84	0.261
555.30	0.263
555.75	0.261
556.20	0.261
556.65	0.258
557.11	0.260
557.56	0.260
558.01	0.261
558.46	0.262
558.92	0.259
559.37	0.259
559.82	0.260
560.27	0.258
560.72	0.258
561.18	0.255
561.63	0.257
562.08	0.257
562.53	0.258
562.99	0.257
563.44	0.258
563.89	0.256
564.34	0.257
564.79	0.256
565.25	0.257
565.70	0.252
566.15	0.256
566.60	0.252
567.05	0.254
567.50	0.255
567.96	0.255
568.41	0.255
568.86	0.256
569.31	0.254
569.76	0.253
570.21	0.255
570.67	0.257
571.12	0.255
571.57	0.255
572.02	0.252
572.47	0.255
572.92	0.253
573.37	0.251
573.83	0.253
574.28	0.254
574.73	0.253
575.18	0.253
575.63	0.253
576.08	0.252
576.53	0.254
576.98	0.255
577.44	0.249
577.89	0.251
578.34	0.251
578.79	0.250
579.24	0.252
579.69	0.252
580.14	0.250
580.59	0.250
581.04	0.252
581.49	0.251
581.95	0.251
582.40	0.250
582.85	0.251
583.30	0.250
583.75	0.249
584.20	0.252
584.65	0.251
585.10	0.252
585.55	0.253
586.00	0.253
586.45	0.251
586.90	0.253
587.35	0.251
587.80	0.252
588.25	0.253
588.71	0.254
589.16	0.252
589.61	0.253
590.06	0.253
590.51	0.254
590.96	0.254
591.41	0.253
591.86	0.255
592.31	0.253
592.76	0.251
593.21	0.255
593.66	0.258
594.11	0.256
594.56	0.254
595.01	0.256
595.46	0.254
595.91	0.257
596.36	0.257
596.81	0.256
597.26	0.256
597.71	0.255
598.16	0.256
598.61	0.256
599.06	0.257
599.51	0.257
599.96	0.259
600.41	0.257
600.86	0.259
601.31	0.259
601.76	0.258
602.21	0.262
602.65	0.258
603.10	0.256
603.55	0.257
604.00	0.259
604.45	0.257
604.90	0.259
605.35	0.258
605.80	0.259
606.25	0.263
606.70	0.262
607.15	0.259
607.60	0.258
608.05	0.258
608.50	0.259
608.95	0.257
609.39	0.261
609.84	0.260
610.29	0.259
610.74	0.259
611.19	0.260
611.64	0.259
612.09	0.259
612.54	0.261
612.99	0.260
613.44	0.259
613.88	0.263
614.33	0.261
614.78	0.258
615.23	0.259
615.68	0.259
616.13	0.261
616.58	0.258
617.03	0.259
617.47	0.260
617.92	0.259
618.37	0.259
618.82	0.259
619.27	0.259
619.72	0.259
620.17	0.257
620.61	0.258
621.06	0.257
621.51	0.258
621.96	0.257
622.41	0.259
622.86	0.259
623.30	0.258
623.75	0.260
624.20	0.260
624.65	0.259
625.10	0.258
625.54	0.260
625.99	0.258
626.44	0.258
626.89	0.259
627.34	0.260
627.78	0.260
628.23	0.260
628.68	0.261
629.13	0.259
629.58	0.258
630.02	0.260
630.47	0.260
630.92	0.260
631.37	0.260
631.81	0.261
632.26	0.260
632.71	0.263
633.16	0.262
633.61	0.262
634.05	0.260
634.50	0.263
634.95	0.261
635.40	0.261
635.84	0.263
636.29	0.262
636.74	0.264
637.18	0.265
637.63	0.266
638.08	0.264
638.53	0.265
638.97	0.264
639.42	0.265
639.87	0.265
640.32	0.266
640.76	0.267
641.21	0.266
641.66	0.267
642.10	0.270
642.55	0.265
643.00	0.268
643.44	0.269
643.89	0.269
644.34	0.270
644.79	0.269
645.23	0.269
645.68	0.271
646.13	0.271
646.57	0.269
647.02	0.271
647.47	0.274
647.91	0.272
648.36	0.272
648.81	0.274
649.25	0.271
649.70	0.273
650.15	0.274
650.59	0.273
651.04	0.273
651.48	0.273
651.93	0.275
652.38	0.275
652.82	0.272
653.27	0.274
653.72	0.277
654.16	0.273
654.61	0.275
655.06	0.275
655.50	0.274
655.95	0.272
656.39	0.267
656.84	0.270
657.29	0.277
657.73	0.274
658.18	0.274
658.62	0.274
659.07	0.273
659.52	0.272
659.96	0.274
660.41	0.273
660.85	0.270
661.30	0.273
661.74	0.274
662.19	0.270
662.64	0.270
663.08	0.271
663.53	0.267
663.97	0.268
664.42	0.267
664.86	0.267
665.31	0.265
665.75	0.266
666.20	0.266
666.65	0.266
667.09	0.263
667.54	0.262
667.98	0.262
668.43	0.261
668.87	0.258
669.32	0.258
669.76	0.256
670.21	0.257
670.65	0.253
671.10	0.252
671.54	0.252
671.99	0.247
672.43	0.244
672.88	0.248
673.32	0.246
673.77	0.242
674.21	0.240
674.66	0.239
675.10	0.239
675.55	0.236
675.99	0.236
676.44	0.233
676.88	0.231
677.33	0.228
677.77	0.228
678.22	0.224
678.66	0.223
679.11	0.223
679.55	0.220
679.99	0.217
680.44	0.217
680.88	0.213
681.33	0.211
681.77	0.210
682.22	0.207
682.66	0.207
683.11	0.205
683.55	0.201
683.99	0.202
684.44	0.198
684.88	0.198
685.33	0.198
685.77	0.195
686.21	0.191
686.66	0.190
687.10	0.189
687.55	0.188
687.99	0.189
688.44	0.187
688.88	0.186
689.32	0.185
689.77	0.180
690.21	0.181
690.65	0.180
691.10	0.178
691.54	0.178
691.99	0.178
692.43	0.175
692.87	0.173
693.32	0.174
693.76	0.174
694.20	0.172
694.65	0.171
695.09	0.171
695.53	0.169
695.98	0.167
696.42	0.169
696.86	0.166
697.31	0.164
697.75	0.166
698.19	0.164
698.64	0.165
699.08	0.165
699.52	0.162
699.97	0.163
700.41	0.163
700.85	0.163
701.30	0.161
701.74	0.161
702.18	0.163
702.63	0.158
703.07	0.160
703.51	0.162
703.96	0.158
704.40	0.157
704.84	0.159
705.28	0.157
705.73	0.157
706.17	0.157
706.61	0.156
707.06	0.155
707.50	0.155
707.94	0.156
708.38	0.155
708.83	0.157
709.27	0.154
709.71	0.154
710.15	0.155
710.60	0.152
711.04	0.152
711.48	0.154
711.92	0.153
712.37	0.153
712.81	0.153
713.25	0.153
713.69	0.152
714.13	0.154
714.58	0.153
715.02	0.152
715.46	0.151
715.90	0.149
716.35	0.148
716.79	0.151
717.23	0.150
717.67	0.153
718.11	0.152
718.56	0.150
719.00	0.152
719.44	0.154
719.88	0.148
720.32	0.148
720.76	0.151
721.21	0.150
721.65	0.150
722.09	0.151
722.53	0.150
722.97	0.151
723.41	0.150
723.86	0.151
724.30	0.153
724.74	0.151
725.18	0.149
725.62	0.150
726.06	0.152
726.50	0.146
726.95	0.148
727.39	0.151
727.83	0.145
728.27	0.151
728.71	0.146
729.15	0.150
729.59	0.148
730.03	0.148
730.48	0.147
730.92	0.148
731.36	0.146
731.80	0.150
732.24	0.150
732.68	0.147
733.12	0.145
733.56	0.145
734.00	0.147
734.44	0.148
734.89	0.147
735.33	0.150
735.77	0.149
736.21	0.146
736.65	0.147
737.09	0.150
737.53	0.147
737.97	0.149
738.41	0.147
738.85	0.151
739.29	0.150
739.73	0.145
740.17	0.149
740.61	0.149
741.05	0.147
741.49	0.147
741.93	0.146
742.37	0.146
742.81	0.147
743.26	0.147
743.70	0.147
744.14	0.147
744.58	0.146
745.02	0.148
745.46	0.146
745.90	0.145
746.34	0.149
746.78	0.146
747.22	0.148
747.66	0.148
748.10	0.146
748.54	0.143
748.98	0.144
749.42	0.144
749.86	0.146
750.29	0.146
750.73	0.140
751.17	0.143
751.61	0.142
752.05	0.144
752.49	0.144
752.93	0.142
753.37	0.142
753.81	0.140
754.25	0.139
754.69	0.140
755.13	0.141
755.57	0.143
756.01	0.144
756.45	0.144
756.89	0.144
757.33	0.144
757.77	0.143
758.21	0.139
758.64	0.142
759.08	0.139
759.52	0.140
759.96	0.142
760.40	0.140
760.84	0.141
761.28	0.139
761.72	0.142
762.16	0.143
762.60	0.139
763.03	0.139
763.47	0.140
763.91	0.141
764.35	0.139
764.79	0.139
765.23	0.139
765.67	0.139
766.11	0.135
766.54	0.136
766.98	0.142
767.42	0.137
767.86	0.136
768.30	0.137
768.74	0.137
769.17	0.140
769.61	0.139
770.05	0.138
770.49	0.140
770.93	0.141
771.37	0.136
771.80	0.135
772.24	0.139
772.68	0.135
773.12	0.135
773.56	0.138
774.00	0.137
774.43	0.134
774.87	0.136
775.31	0.139
775.75	0.135
776.19	0.135
776.62	0.135
777.06	0.136
777.50	0.138
777.94	0.135
778.37	0.131
778.81	0.135
779.25	0.136
779.69	0.135
780.13	0.135
780.56	0.134
781.00	0.137
781.44	0.138
781.88	0.135
782.31	0.131
782.75	0.134
783.19	0.135
783.63	0.132
784.06	0.134
784.50	0.135
784.94	0.134
785.37	0.132
785.81	0.133
786.25	0.135
786.69	0.131
787.12	0.131
787.56	0.134
788.00	0.133
788.43	0.138
788.87	0.133
789.31	0.133
789.75	0.135
790.18	0.132
790.62	0.132
791.06	0.135
791.49	0.131
791.93	0.130
792.37	0.134
792.80	0.131
793.24	0.130
793.68	0.130
794.11	0.132
794.55	0.134
794.99	0.133
795.42	0.132
795.86	0.135
796.30	0.129
796.73	0.131
797.17	0.131
797.61	0.130
798.04	0.131
798.48	0.132
798.91	0.129
799.35	0.129
799.79	0.134
800.22	0.131
800.66	0.130
801.10	0.131
801.53	0.129
801.97	0.135
802.40	0.132
802.84	0.130
803.28	0.130
803.71	0.132
804.15	0.129
804.58	0.132
805.02	0.132
805.46	0.128
805.89	0.128
806.33	0.130
806.76	0.131
807.20	0.130
807.63	0.130
808.07	0.132
808.51	0.128
808.94	0.128
809.38	0.125
809.81	0.128
810.25	0.131
810.68	0.128
811.12	0.129
811.55	0.131
811.99	0.128
812.42	0.131
812.86	0.128
813.29	0.128
813.73	0.128
814.17	0.129
814.60	0.130
