SpectraSuite Data File
++++++++++++++++++++++++++++++++++++
Date: Sun Apr 24 13:49:13 CEST 2016
User: spectrasuite
Dark Spectrum Present: Yes
Reference Spectrum Present: Yes
Number of Sampled Component Spectra: 1
Spectrometers: HR+C0708
Integration Time (usec): 1000 (HR+C0708)
Spectra Averaged: 10 (HR+C0708)
Boxcar Smoothing: 0 (HR+C0708)
Correct for Electrical Dark: No (HR+C0708)
Strobe/Lamp Enabled: No (HR+C0708)
Correct for Detector Non-linearity: No (HR+C0708)
Correct for Stray Light: No (HR+C0708)
Number of Pixels in Processed Spectrum: 2048
>>>>>Begin Processed Spectral Data<<<<<
188.76	-0.000
189.23	-0.000
189.70	-0.000
190.17	-0.000
190.64	-0.000
191.12	-0.000
191.59	-0.000
192.06	-0.000
192.53	-0.000
193.01	-0.000
193.48	-0.000
193.95	-0.000
194.42	-0.000
194.90	1.989
195.37	-0.000
195.84	-0.000
196.31	-0.000
196.78	-0.000
197.26	-0.000
197.73	-0.000
198.20	0.489
198.67	-0.000
199.14	-0.000
199.62	-0.000
200.09	1.095
200.56	-0.000
201.03	0.968
201.50	0.725
201.97	1.170
202.45	0.892
202.92	0.635
203.39	0.931
203.86	1.483
204.33	0.771
204.80	0.932
205.28	1.765
205.75	-0.000
206.22	0.560
206.69	0.814
207.16	1.129
207.63	0.524
208.11	0.604
208.58	0.814
209.05	0.826
209.52	1.536
209.99	0.803
210.46	0.914
210.93	1.189
211.41	0.771
211.88	0.915
212.35	-0.000
212.82	0.728
213.29	0.822
213.76	1.002
214.23	1.007
214.70	1.084
215.18	0.876
215.65	0.937
216.12	0.825
216.59	1.049
217.06	1.105
217.53	0.713
218.00	0.812
218.47	1.016
218.94	2.049
219.41	1.063
219.89	1.157
220.36	0.874
220.83	1.215
221.30	1.053
221.77	0.776
222.24	2.570
222.71	-0.000
223.18	0.992
223.65	1.190
224.12	-0.000
224.59	-0.000
225.06	1.369
225.54	1.352
226.01	2.125
226.48	1.050
226.95	1.452
227.42	1.805
227.89	-0.000
228.36	1.378
228.83	2.283
229.30	2.392
229.77	1.636
230.24	1.439
230.71	-0.000
231.18	-0.000
231.65	1.492
232.12	1.834
232.59	2.250
233.06	2.865
233.53	1.833
234.00	1.984
234.47	2.534
234.94	2.276
235.41	2.112
235.88	-0.000
236.35	2.187
236.82	2.101
237.29	2.269
237.76	2.265
238.23	2.790
238.70	2.193
239.17	2.399
239.64	3.087
240.11	2.356
240.58	2.584
241.05	2.464
241.52	2.707
241.99	2.541
242.46	2.685
242.93	2.739
243.40	2.614
243.87	2.477
244.34	2.369
244.81	3.214
245.28	2.812
245.75	3.256
246.22	3.491
246.69	2.929
247.16	2.488
247.63	2.790
248.10	3.049
248.57	2.750
249.04	3.705
249.51	3.228
249.98	3.536
250.45	2.672
250.92	2.800
251.39	3.053
251.85	2.721
252.32	3.065
252.79	2.968
253.26	2.656
253.73	2.933
254.20	2.776
254.67	2.794
255.14	3.464
255.61	2.719
256.08	2.949
256.55	4.079
257.02	2.674
257.49	2.847
257.95	2.799
258.42	3.531
258.89	2.985
259.36	3.366
259.83	2.952
260.30	3.792
260.77	3.064
261.24	2.822
261.71	4.054
262.17	3.074
262.64	2.765
263.11	3.018
263.58	-0.000
264.05	3.042
264.52	2.802
264.99	3.081
265.46	3.105
265.92	3.242
266.39	2.850
266.86	3.196
267.33	2.905
267.80	2.804
268.27	3.135
268.74	2.915
269.20	3.118
269.67	3.194
270.14	2.925
270.61	3.027
271.08	2.881
271.55	2.760
272.01	3.000
272.48	2.811
272.95	2.869
273.42	3.510
273.89	3.134
274.36	2.678
274.82	2.815
275.29	2.828
275.76	2.708
276.23	2.624
276.70	2.800
277.16	2.779
277.63	2.628
278.10	2.836
278.57	2.706
279.04	2.607
279.50	2.759
279.97	2.879
280.44	2.746
280.91	2.644
281.38	2.595
281.84	2.848
282.31	2.824
282.78	2.947
283.25	2.728
283.72	2.685
284.18	2.684
284.65	2.615
285.12	2.597
285.59	2.594
286.05	2.649
286.52	2.582
286.99	2.655
287.46	2.613
287.92	2.422
288.39	2.506
288.86	2.655
289.33	2.454
289.79	2.497
290.26	2.583
290.73	2.514
291.20	2.480
291.66	2.504
292.13	2.508
292.60	2.470
293.07	2.337
293.53	2.366
294.00	2.569
294.47	2.392
294.93	2.461
295.40	2.502
295.87	2.446
296.34	2.434
296.80	2.357
297.27	2.476
297.74	2.315
298.20	2.396
298.67	2.325
299.14	2.474
299.60	2.325
300.07	2.406
300.54	2.350
301.01	2.332
301.47	2.216
301.94	2.227
302.41	2.332
302.87	2.305
303.34	2.394
303.81	2.232
304.27	2.325
304.74	2.202
305.21	2.275
305.67	2.307
306.14	2.196
306.61	2.210
307.07	2.225
307.54	2.232
308.01	2.170
308.47	2.197
308.94	2.236
309.40	2.240
309.87	2.190
310.34	2.174
310.80	2.270
311.27	2.137
311.74	2.147
312.20	2.294
312.67	2.205
313.13	2.111
313.60	2.205
314.07	2.167
314.53	2.156
315.00	2.065
315.47	2.210
315.93	2.226
316.40	2.127
316.86	2.144
317.33	2.138
317.80	2.105
318.26	2.121
318.73	2.124
319.19	2.138
319.66	2.125
320.13	2.086
320.59	2.104
321.06	2.169
321.52	2.065
321.99	2.093
322.45	2.089
322.92	2.047
323.39	2.054
323.85	2.075
324.32	2.065
324.78	2.074
325.25	2.033
325.71	1.970
326.18	1.996
326.64	2.045
327.11	1.992
327.58	1.987
328.04	1.913
328.51	1.967
328.97	1.961
329.44	1.937
329.90	1.883
330.37	1.887
330.83	1.849
331.30	1.886
331.76	1.814
332.23	1.823
332.69	1.810
333.16	1.750
333.62	1.715
334.09	1.725
334.56	1.696
335.02	1.639
335.49	1.619
335.95	1.569
336.42	1.559
336.88	1.509
337.35	1.481
337.81	1.451
338.28	1.405
338.74	1.369
339.20	1.347
339.67	1.303
340.13	1.273
340.60	1.231
341.06	1.191
341.53	1.161
341.99	1.130
342.46	1.096
342.92	1.061
343.39	1.020
343.85	0.991
344.32	0.977
344.78	0.954
345.25	0.920
345.71	0.899
346.17	0.871
346.64	0.844
347.10	0.812
347.57	0.781
348.03	0.755
348.50	0.724
348.96	0.709
349.43	0.688
349.89	0.668
350.35	0.652
350.82	0.634
351.28	0.617
351.75	0.603
352.21	0.590
352.67	0.572
353.14	0.558
353.60	0.543
354.07	0.527
354.53	0.521
355.00	0.504
355.46	0.496
355.92	0.482
356.39	0.473
356.85	0.469
357.31	0.455
357.78	0.451
358.24	0.442
358.71	0.438
359.17	0.431
359.63	0.427
360.10	0.420
360.56	0.418
361.03	0.415
361.49	0.407
361.95	0.400
362.42	0.399
362.88	0.395
363.34	0.393
363.81	0.390
364.27	0.387
364.73	0.383
365.20	0.384
365.66	0.382
366.12	0.379
366.59	0.378
367.05	0.376
367.51	0.371
367.98	0.368
368.44	0.371
368.90	0.364
369.37	0.364
369.83	0.364
370.29	0.362
370.76	0.357
371.22	0.358
371.68	0.356
372.15	0.355
372.61	0.353
373.07	0.354
373.54	0.351
374.00	0.352
374.46	0.350
374.92	0.349
375.39	0.345
375.85	0.344
376.31	0.345
376.78	0.338
377.24	0.342
377.70	0.342
378.16	0.338
378.63	0.338
379.09	0.335
379.55	0.333
380.01	0.335
380.48	0.331
380.94	0.330
381.40	0.328
381.87	0.327
382.33	0.328
382.79	0.325
383.25	0.326
383.72	0.325
384.18	0.324
384.64	0.323
385.10	0.321
385.56	0.321
386.03	0.318
386.49	0.316
386.95	0.315
387.41	0.316
387.88	0.317
388.34	0.314
388.80	0.310
389.26	0.312
389.72	0.313
390.19	0.310
390.65	0.309
391.11	0.311
391.57	0.310
392.04	0.306
392.50	0.302
392.96	0.302
393.42	0.302
393.88	0.303
394.34	0.303
394.81	0.303
395.27	0.301
395.73	0.297
396.19	0.297
396.65	0.299
397.12	0.296
397.58	0.296
398.04	0.293
398.50	0.294
398.96	0.294
399.42	0.294
399.89	0.290
400.35	0.290
400.81	0.287
401.27	0.288
401.73	0.288
402.19	0.283
402.65	0.285
403.12	0.284
403.58	0.285
404.04	0.286
404.50	0.287
404.96	0.283
405.42	0.279
405.88	0.281
406.34	0.281
406.81	0.280
407.27	0.276
407.73	0.275
408.19	0.277
408.65	0.274
409.11	0.273
409.57	0.275
410.03	0.273
410.49	0.275
410.96	0.271
411.42	0.269
411.88	0.272
412.34	0.267
412.80	0.269
413.26	0.268
413.72	0.266
414.18	0.266
414.64	0.264
415.10	0.265
415.56	0.264
416.02	0.267
416.48	0.263
416.95	0.261
417.41	0.260
417.87	0.261
418.33	0.261
418.79	0.258
419.25	0.258
419.71	0.256
420.17	0.256
420.63	0.257
421.09	0.256
421.55	0.253
422.01	0.255
422.47	0.253
422.93	0.253
423.39	0.255
423.85	0.255
424.31	0.251
424.77	0.252
425.23	0.250
425.69	0.251
426.15	0.248
426.61	0.250
427.07	0.247
427.53	0.248
427.99	0.247
428.45	0.245
428.91	0.247
429.37	0.246
429.83	0.245
430.29	0.246
430.75	0.244
431.21	0.243
431.67	0.245
432.13	0.244
432.59	0.241
433.05	0.238
433.51	0.239
433.97	0.241
434.43	0.239
434.89	0.240
435.35	0.237
435.81	0.238
436.27	0.234
436.73	0.238
437.19	0.235
437.65	0.237
438.11	0.233
438.57	0.233
439.03	0.234
439.48	0.236
439.94	0.232
440.40	0.233
440.86	0.232
441.32	0.231
441.78	0.232
442.24	0.231
442.70	0.228
443.16	0.228
443.62	0.227
444.08	0.226
444.54	0.230
444.99	0.226
445.45	0.224
445.91	0.226
446.37	0.224
446.83	0.226
447.29	0.225
447.75	0.223
448.21	0.223
448.67	0.219
449.12	0.223
449.58	0.222
450.04	0.221
450.50	0.219
450.96	0.222
451.42	0.219
451.88	0.216
452.34	0.219
452.79	0.217
453.25	0.220
453.71	0.218
454.17	0.217
454.63	0.218
455.09	0.218
455.55	0.216
456.00	0.211
456.46	0.213
456.92	0.214
457.38	0.214
457.84	0.209
458.30	0.209
458.75	0.211
459.21	0.209
459.67	0.214
460.13	0.211
460.59	0.210
461.04	0.207
461.50	0.212
461.96	0.210
462.42	0.210
462.88	0.207
463.33	0.207
463.79	0.205
464.25	0.207
464.71	0.206
465.17	0.206
465.62	0.204
466.08	0.206
466.54	0.203
467.00	0.204
467.46	0.205
467.91	0.203
468.37	0.204
468.83	0.204
469.29	0.203
469.74	0.205
470.20	0.204
470.66	0.203
471.12	0.198
471.57	0.201
472.03	0.201
472.49	0.199
472.95	0.203
473.40	0.199
473.86	0.198
474.32	0.197
474.78	0.199
475.23	0.197
475.69	0.197
476.15	0.196
476.60	0.197
477.06	0.194
477.52	0.195
477.98	0.195
478.43	0.196
478.89	0.195
479.35	0.195
479.80	0.196
480.26	0.194
480.72	0.190
481.18	0.196
481.63	0.192
482.09	0.192
482.55	0.193
483.00	0.189
483.46	0.191
483.92	0.191
484.37	0.189
484.83	0.188
485.29	0.188
485.74	0.188
486.20	0.188
486.66	0.188
487.11	0.187
487.57	0.184
488.03	0.186
488.48	0.186
488.94	0.184
489.40	0.185
489.85	0.188
490.31	0.187
490.77	0.186
491.22	0.185
491.68	0.184
492.13	0.183
492.59	0.184
493.05	0.183
493.50	0.183
493.96	0.182
494.42	0.181
494.87	0.179
495.33	0.179
495.78	0.184
496.24	0.182
496.70	0.178
497.15	0.178
497.61	0.180
498.06	0.179
498.52	0.177
498.98	0.178
499.43	0.179
499.89	0.178
500.34	0.177
500.80	0.176
501.25	0.176
501.71	0.175
502.17	0.177
502.62	0.177
503.08	0.173
503.53	0.173
503.99	0.174
504.44	0.175
504.90	0.171
505.36	0.172
505.81	0.174
506.27	0.173
506.72	0.172
507.18	0.172
507.63	0.171
508.09	0.172
508.54	0.169
509.00	0.170
509.45	0.170
509.91	0.169
510.36	0.169
510.82	0.168
511.27	0.170
511.73	0.171
512.19	0.166
512.64	0.168
513.10	0.168
513.55	0.170
514.01	0.167
514.46	0.167
514.92	0.167
515.37	0.168
515.83	0.169
516.28	0.165
516.73	0.165
517.19	0.166
517.64	0.164
518.10	0.163
518.55	0.163
519.01	0.164
519.46	0.164
519.92	0.166
520.37	0.161
520.83	0.162
521.28	0.163
521.74	0.163
522.19	0.164
522.65	0.160
523.10	0.163
523.55	0.160
524.01	0.163
524.46	0.161
524.92	0.159
525.37	0.159
525.83	0.160
526.28	0.159
526.73	0.159
527.19	0.160
527.64	0.161
528.10	0.159
528.55	0.156
529.01	0.159
529.46	0.159
529.91	0.158
530.37	0.156
530.82	0.156
531.28	0.157
531.73	0.155
532.18	0.156
532.64	0.158
533.09	0.154
533.54	0.153
534.00	0.154
534.45	0.158
534.91	0.155
535.36	0.156
535.81	0.154
536.27	0.153
536.72	0.156
537.17	0.154
537.63	0.154
538.08	0.153
538.54	0.153
538.99	0.151
539.44	0.153
539.90	0.151
540.35	0.151
540.80	0.151
541.26	0.153
541.71	0.149
542.16	0.150
542.62	0.150
543.07	0.151
543.52	0.149
543.98	0.149
544.43	0.149
544.88	0.147
545.34	0.149
545.79	0.149
546.24	0.147
546.69	0.148
547.15	0.146
547.60	0.148
548.05	0.147
548.51	0.146
548.96	0.145
549.41	0.148
549.86	0.146
550.32	0.147
550.77	0.145
551.22	0.146
551.68	0.144
552.13	0.144
552.58	0.143
553.03	0.145
553.49	0.145
553.94	0.145
554.39	0.143
554.84	0.145
555.30	0.145
555.75	0.145
556.20	0.144
556.65	0.142
557.11	0.145
557.56	0.141
558.01	0.144
558.46	0.144
558.92	0.142
559.37	0.142
559.82	0.142
560.27	0.142
560.72	0.141
561.18	0.140
561.63	0.139
562.08	0.137
562.53	0.141
562.99	0.140
563.44	0.140
563.89	0.138
564.34	0.140
564.79	0.139
565.25	0.138
565.70	0.135
566.15	0.136
566.60	0.135
567.05	0.138
567.50	0.137
567.96	0.137
568.41	0.137
568.86	0.135
569.31	0.135
569.76	0.134
570.21	0.136
570.67	0.136
571.12	0.135
571.57	0.135
572.02	0.135
572.47	0.133
572.92	0.134
573.37	0.135
573.83	0.133
574.28	0.134
574.73	0.134
575.18	0.134
575.63	0.134
576.08	0.131
576.53	0.132
576.98	0.133
577.44	0.131
577.89	0.131
578.34	0.131
578.79	0.130
579.24	0.130
579.69	0.133
580.14	0.129
580.59	0.130
581.04	0.128
581.49	0.130
581.95	0.130
582.40	0.127
582.85	0.129
583.30	0.128
583.75	0.126
584.20	0.131
584.65	0.128
585.10	0.128
585.55	0.128
586.00	0.128
586.45	0.127
586.90	0.129
587.35	0.127
587.80	0.127
588.25	0.127
588.71	0.126
589.16	0.126
589.61	0.128
590.06	0.126
590.51	0.127
590.96	0.126
591.41	0.125
591.86	0.127
592.31	0.125
592.76	0.125
593.21	0.125
593.66	0.127
594.11	0.126
594.56	0.123
595.01	0.125
595.46	0.124
595.91	0.124
596.36	0.125
596.81	0.127
597.26	0.123
597.71	0.125
598.16	0.123
598.61	0.123
599.06	0.124
599.51	0.125
599.96	0.126
600.41	0.124
600.86	0.124
601.31	0.124
601.76	0.125
602.21	0.122
602.65	0.123
603.10	0.122
603.55	0.121
604.00	0.120
604.45	0.122
604.90	0.121
605.35	0.120
605.80	0.121
606.25	0.123
606.70	0.124
607.15	0.122
607.60	0.120
608.05	0.121
608.50	0.120
608.95	0.120
609.39	0.123
609.84	0.122
610.29	0.119
610.74	0.120
611.19	0.119
611.64	0.120
612.09	0.121
612.54	0.120
612.99	0.121
613.44	0.118
613.88	0.120
614.33	0.119
614.78	0.118
615.23	0.118
615.68	0.117
616.13	0.119
616.58	0.118
617.03	0.116
617.47	0.119
617.92	0.118
618.37	0.116
618.82	0.117
619.27	0.119
619.72	0.117
620.17	0.115
620.61	0.116
621.06	0.116
621.51	0.115
621.96	0.115
622.41	0.116
622.86	0.116
623.30	0.114
623.75	0.115
624.20	0.115
624.65	0.116
625.10	0.114
625.54	0.114
625.99	0.115
626.44	0.114
626.89	0.114
627.34	0.116
627.78	0.114
628.23	0.113
628.68	0.114
629.13	0.113
629.58	0.113
630.02	0.112
630.47	0.113
630.92	0.115
631.37	0.112
631.81	0.113
632.26	0.111
632.71	0.112
633.16	0.112
633.61	0.113
634.05	0.112
634.50	0.112
634.95	0.112
635.40	0.114
635.84	0.113
636.29	0.111
636.74	0.112
637.18	0.112
637.63	0.113
638.08	0.111
638.53	0.110
638.97	0.112
639.42	0.111
639.87	0.112
640.32	0.111
640.76	0.111
641.21	0.111
641.66	0.111
642.10	0.112
642.55	0.111
643.00	0.109
643.44	0.112
643.89	0.112
644.34	0.110
644.79	0.111
645.23	0.110
645.68	0.111
646.13	0.109
646.57	0.110
647.02	0.110
647.47	0.111
647.91	0.110
648.36	0.110
648.81	0.110
649.25	0.110
649.70	0.108
650.15	0.109
650.59	0.109
651.04	0.109
651.48	0.112
651.93	0.109
652.38	0.107
652.82	0.107
653.27	0.106
653.72	0.107
654.16	0.108
654.61	0.109
655.06	0.110
655.50	0.108
655.95	0.105
656.39	0.103
656.84	0.106
657.29	0.109
657.73	0.107
658.18	0.106
658.62	0.107
659.07	0.105
659.52	0.107
659.96	0.107
660.41	0.110
660.85	0.106
661.30	0.107
661.74	0.107
662.19	0.105
662.64	0.106
663.08	0.106
663.53	0.106
663.97	0.105
664.42	0.106
664.86	0.107
665.31	0.105
665.75	0.106
666.20	0.107
666.65	0.106
667.09	0.106
667.54	0.106
667.98	0.105
668.43	0.103
668.87	0.103
669.32	0.105
669.76	0.105
670.21	0.105
670.65	0.103
671.10	0.105
671.54	0.106
671.99	0.104
672.43	0.103
672.88	0.103
673.32	0.104
673.77	0.101
674.21	0.101
674.66	0.103
675.10	0.101
675.55	0.099
675.99	0.102
676.44	0.102
676.88	0.101
677.33	0.102
677.77	0.101
678.22	0.101
678.66	0.101
679.11	0.098
679.55	0.101
679.99	0.097
680.44	0.101
680.88	0.101
681.33	0.098
681.77	0.097
682.22	0.100
682.66	0.100
683.11	0.099
683.55	0.097
683.99	0.098
684.44	0.098
684.88	0.097
685.33	0.098
685.77	0.097
686.21	0.098
686.66	0.098
687.10	0.097
687.55	0.096
687.99	0.099
688.44	0.097
688.88	0.097
689.32	0.099
689.77	0.095
690.21	0.095
690.65	0.094
691.10	0.096
691.54	0.095
691.99	0.094
692.43	0.095
692.87	0.095
693.32	0.096
693.76	0.095
694.20	0.097
694.65	0.094
695.09	0.095
695.53	0.096
695.98	0.094
696.42	0.095
696.86	0.095
697.31	0.093
697.75	0.093
698.19	0.092
698.64	0.095
699.08	0.094
699.52	0.090
699.97	0.094
700.41	0.094
700.85	0.095
701.30	0.093
701.74	0.092
702.18	0.093
702.63	0.092
703.07	0.092
703.51	0.093
703.96	0.093
704.40	0.092
704.84	0.092
705.28	0.091
705.73	0.093
706.17	0.092
706.61	0.093
707.06	0.090
707.50	0.091
707.94	0.090
708.38	0.091
708.83	0.094
709.27	0.092
709.71	0.093
710.15	0.092
710.60	0.091
711.04	0.091
711.48	0.094
711.92	0.092
712.37	0.090
712.81	0.091
713.25	0.093
713.69	0.092
714.13	0.092
714.58	0.092
715.02	0.093
715.46	0.090
715.90	0.090
716.35	0.091
716.79	0.093
717.23	0.092
717.67	0.092
718.11	0.092
718.56	0.092
719.00	0.094
719.44	0.093
719.88	0.091
720.32	0.090
720.76	0.093
721.21	0.090
721.65	0.091
722.09	0.092
722.53	0.092
722.97	0.093
723.41	0.091
723.86	0.093
724.30	0.092
724.74	0.092
725.18	0.092
725.62	0.091
726.06	0.095
726.50	0.089
726.95	0.089
727.39	0.092
727.83	0.094
728.27	0.092
728.71	0.092
729.15	0.094
729.59	0.095
730.03	0.092
730.48	0.094
730.92	0.095
731.36	0.094
731.80	0.093
732.24	0.095
732.68	0.092
733.12	0.093
733.56	0.095
734.00	0.094
734.44	0.092
734.89	0.092
735.33	0.091
735.77	0.093
736.21	0.094
736.65	0.092
737.09	0.096
737.53	0.096
737.97	0.094
738.41	0.094
738.85	0.097
739.29	0.095
739.73	0.093
740.17	0.096
740.61	0.096
741.05	0.096
741.49	0.097
741.93	0.094
742.37	0.092
742.81	0.094
743.26	0.093
743.70	0.093
744.14	0.095
744.58	0.095
745.02	0.095
745.46	0.094
745.90	0.093
746.34	0.095
746.78	0.096
747.22	0.094
747.66	0.095
748.10	0.094
748.54	0.093
748.98	0.092
749.42	0.094
749.86	0.095
750.29	0.096
750.73	0.091
751.17	0.093
751.61	0.093
752.05	0.096
752.49	0.092
752.93	0.092
753.37	0.091
753.81	0.089
754.25	0.091
754.69	0.090
755.13	0.091
755.57	0.093
756.01	0.094
756.45	0.095
756.89	0.089
757.33	0.094
757.77	0.092
758.21	0.090
758.64	0.091
759.08	0.085
759.52	0.090
759.96	0.093
760.40	0.091
760.84	0.090
761.28	0.092
761.72	0.091
762.16	0.090
762.60	0.090
763.03	0.090
763.47	0.092
763.91	0.090
764.35	0.090
764.79	0.087
765.23	0.086
765.67	0.089
766.11	0.088
766.54	0.088
766.98	0.091
767.42	0.091
767.86	0.086
768.30	0.090
768.74	0.092
769.17	0.092
769.61	0.090
770.05	0.089
770.49	0.091
770.93	0.090
771.37	0.087
771.80	0.087
772.24	0.089
772.68	0.089
773.12	0.088
773.56	0.086
774.00	0.086
774.43	0.087
774.87	0.085
775.31	0.088
775.75	0.089
776.19	0.086
776.62	0.087
777.06	0.090
777.50	0.086
777.94	0.085
778.37	0.085
778.81	0.088
779.25	0.088
779.69	0.089
780.13	0.088
780.56	0.086
781.00	0.086
781.44	0.088
781.88	0.089
782.31	0.085
782.75	0.086
783.19	0.089
783.63	0.086
784.06	0.085
784.50	0.089
784.94	0.085
785.37	0.090
785.81	0.086
786.25	0.086
786.69	0.086
787.12	0.084
787.56	0.086
788.00	0.086
788.43	0.088
788.87	0.084
789.31	0.083
789.75	0.088
790.18	0.085
790.62	0.084
791.06	0.087
791.49	0.084
791.93	0.083
792.37	0.086
792.80	0.083
793.24	0.087
793.68	0.088
794.11	0.086
794.55	0.088
794.99	0.087
795.42	0.084
795.86	0.089
796.30	0.087
796.73	0.086
797.17	0.085
797.61	0.087
798.04	0.086
798.48	0.085
798.91	0.084
799.35	0.086
799.79	0.089
800.22	0.084
800.66	0.083
801.10	0.086
801.53	0.085
801.97	0.089
802.40	0.086
802.84	0.084
803.28	0.086
803.71	0.087
804.15	0.085
804.58	0.083
805.02	0.088
805.46	0.083
805.89	0.083
806.33	0.083
806.76	0.083
807.20	0.088
807.63	0.082
808.07	0.085
808.51	0.085
808.94	0.082
809.38	0.082
809.81	0.087
810.25	0.087
810.68	0.086
811.12	0.085
811.55	0.089
811.99	0.083
812.42	0.085
812.86	0.081
813.29	0.084
813.73	0.086
814.17	0.083
814.60	0.087
815.04	0.085
815.47	0.081
815.91	0.082
816.34	0.085
816.78	0.083
