SpectraSuite Data File
++++++++++++++++++++++++++++++++++++
Date: Sun Apr 24 16:11:52 CEST 2016
User: spectrasuite
Dark Spectrum Present: Yes
Reference Spectrum Present: Yes
Number of Sampled Component Spectra: 1
Spectrometers: HR+C0708
Integration Time (usec): 1000 (HR+C0708)
Spectra Averaged: 10 (HR+C0708)
Boxcar Smoothing: 0 (HR+C0708)
Correct for Electrical Dark: No (HR+C0708)
Strobe/Lamp Enabled: No (HR+C0708)
Correct for Detector Non-linearity: No (HR+C0708)
Correct for Stray Light: No (HR+C0708)
Number of Pixels in Processed Spectrum: 2048
>>>>>Begin Processed Spectral Data<<<<<
188.76	-0.000
189.23	-0.000
189.70	-0.000
190.17	-0.000
190.64	-0.000
191.12	-0.000
191.59	-0.000
192.06	-0.000
192.53	-0.000
193.01	-0.000
193.48	-0.000
193.95	-0.000
194.42	-0.000
194.90	0.785
195.37	-0.000
195.84	-0.000
196.31	-0.000
196.78	-0.000
197.26	-0.000
197.73	-0.000
198.20	-0.000
198.67	-0.000
199.14	-0.000
199.62	-0.000
200.09	-0.000
200.56	-0.000
201.03	1.625
201.50	0.934
201.97	-0.000
202.45	-0.000
202.92	1.445
203.39	1.013
203.86	1.713
204.33	-0.000
204.80	-0.000
205.28	-0.000
205.75	-0.000
206.22	-0.000
206.69	1.240
207.16	-0.000
207.63	1.306
208.11	1.001
208.58	2.481
209.05	-0.000
209.52	-0.000
209.99	1.260
210.46	-0.000
210.93	-0.000
211.41	1.229
211.88	1.182
212.35	-0.000
212.82	-0.000
213.29	1.020
213.76	0.844
214.23	1.336
214.70	-0.000
215.18	-0.000
215.65	-0.000
216.12	0.932
216.59	1.943
217.06	1.271
217.53	1.105
218.00	2.475
218.47	1.444
218.94	-0.000
219.41	-0.000
219.89	2.800
220.36	-0.000
220.83	1.447
221.30	1.368
221.77	1.152
222.24	1.570
222.71	-0.000
223.18	-0.000
223.65	-0.000
224.12	-0.000
224.59	-0.000
225.06	-0.000
225.54	2.036
226.01	1.185
226.48	1.475
226.95	-0.000
227.42	2.650
227.89	-0.000
228.36	1.859
228.83	2.193
229.30	1.652
229.77	2.409
230.24	1.449
230.71	-0.000
231.18	2.459
231.65	2.873
232.12	1.961
232.59	2.864
233.06	2.751
233.53	2.510
234.00	2.072
234.47	2.766
234.94	-0.000
235.41	2.452
235.88	4.112
236.35	-0.000
236.82	2.939
237.29	2.416
237.76	3.307
238.23	2.914
238.70	2.782
239.17	2.354
239.64	-0.000
240.11	-0.000
240.58	-0.000
241.05	2.633
241.52	-0.000
241.99	-0.000
242.46	2.763
242.93	2.985
243.40	3.167
243.87	2.837
244.34	2.515
244.81	3.123
245.28	-0.000
245.75	4.177
246.22	-0.000
246.69	-0.000
247.16	2.757
247.63	3.541
248.10	-0.000
248.57	3.620
249.04	-0.000
249.51	-0.000
249.98	-0.000
250.45	-0.000
250.92	3.177
251.39	-0.000
251.85	-0.000
252.32	-0.000
252.79	2.976
253.26	3.199
253.73	-0.000
254.20	3.594
254.67	3.347
255.14	3.339
255.61	-0.000
256.08	3.721
256.55	-0.000
257.02	3.171
257.49	-0.000
257.95	3.152
258.42	3.288
258.89	2.870
259.36	3.083
259.83	3.219
260.30	3.595
260.77	-0.000
261.24	3.063
261.71	4.656
262.17	-0.000
262.64	2.731
263.11	3.173
263.58	4.377
264.05	3.463
264.52	2.802
264.99	2.814
265.46	2.790
265.92	2.787
266.39	2.677
266.86	3.203
267.33	3.007
267.80	2.612
268.27	2.764
268.74	2.926
269.20	3.251
269.67	2.724
270.14	2.551
270.61	2.637
271.08	2.656
271.55	2.541
272.01	2.532
272.48	2.518
272.95	2.489
273.42	2.601
273.89	2.539
274.36	2.493
274.82	2.522
275.29	2.441
275.76	2.484
276.23	2.440
276.70	2.470
277.16	2.450
277.63	2.455
278.10	2.337
278.57	2.366
279.04	2.335
279.50	2.407
279.97	2.333
280.44	2.247
280.91	2.318
281.38	2.227
281.84	2.246
282.31	2.269
282.78	2.374
283.25	2.199
283.72	2.167
284.18	2.215
284.65	2.216
285.12	2.187
285.59	2.128
286.05	2.189
286.52	2.108
286.99	2.135
287.46	2.144
287.92	2.139
288.39	2.093
288.86	2.077
289.33	2.065
289.79	2.081
290.26	2.085
290.73	2.044
291.20	2.075
291.66	2.064
292.13	2.023
292.60	2.000
293.07	2.043
293.53	1.966
294.00	1.987
294.47	1.991
294.93	1.972
295.40	1.970
295.87	1.997
296.34	2.019
296.80	1.927
297.27	1.976
297.74	1.917
298.20	1.932
298.67	1.900
299.14	1.935
299.60	1.922
300.07	1.904
300.54	1.907
301.01	1.865
301.47	1.853
301.94	1.826
302.41	1.859
302.87	1.846
303.34	1.892
303.81	1.830
304.27	1.839
304.74	1.807
305.21	1.793
305.67	1.805
306.14	1.814
306.61	1.811
307.07	1.766
307.54	1.764
308.01	1.773
308.47	1.792
308.94	1.784
309.40	1.764
309.87	1.740
310.34	1.735
310.80	1.740
311.27	1.729
311.74	1.720
312.20	1.731
312.67	1.714
313.13	1.691
313.60	1.723
314.07	1.698
314.53	1.673
315.00	1.670
315.47	1.677
315.93	1.658
316.40	1.667
316.86	1.655
317.33	1.640
317.80	1.637
318.26	1.633
318.73	1.653
319.19	1.627
319.66	1.606
320.13	1.620
320.59	1.609
321.06	1.590
321.52	1.601
321.99	1.598
322.45	1.588
322.92	1.575
323.39	1.569
323.85	1.565
324.32	1.576
324.78	1.570
325.25	1.565
325.71	1.539
326.18	1.527
326.64	1.567
327.11	1.537
327.58	1.509
328.04	1.510
328.51	1.510
328.97	1.502
329.44	1.493
329.90	1.485
330.37	1.481
330.83	1.452
331.30	1.468
331.76	1.449
332.23	1.441
332.69	1.439
333.16	1.400
333.62	1.408
334.09	1.405
334.56	1.384
335.02	1.383
335.49	1.362
335.95	1.356
336.42	1.341
336.88	1.332
337.35	1.323
337.81	1.307
338.28	1.303
338.74	1.285
339.20	1.279
339.67	1.256
340.13	1.243
340.60	1.235
341.06	1.210
341.53	1.195
341.99	1.195
342.46	1.166
342.92	1.158
343.39	1.150
343.85	1.126
344.32	1.118
344.78	1.103
345.25	1.094
345.71	1.080
346.17	1.060
346.64	1.049
347.10	1.029
347.57	1.002
348.03	0.989
348.50	0.974
348.96	0.954
349.43	0.944
349.89	0.929
350.35	0.924
350.82	0.905
351.28	0.894
351.75	0.876
352.21	0.875
352.67	0.847
353.14	0.839
353.60	0.828
354.07	0.808
354.53	0.801
355.00	0.792
355.46	0.781
355.92	0.769
356.39	0.759
356.85	0.757
357.31	0.745
357.78	0.729
358.24	0.718
358.71	0.714
359.17	0.708
359.63	0.708
360.10	0.695
360.56	0.694
361.03	0.685
361.49	0.680
361.95	0.680
362.42	0.671
362.88	0.662
363.34	0.659
363.81	0.655
364.27	0.650
364.73	0.650
365.20	0.648
365.66	0.645
366.12	0.636
366.59	0.631
367.05	0.630
367.51	0.631
367.98	0.624
368.44	0.623
368.90	0.620
369.37	0.620
369.83	0.612
370.29	0.616
370.76	0.608
371.22	0.611
371.68	0.607
372.15	0.604
372.61	0.600
373.07	0.601
373.54	0.600
374.00	0.598
374.46	0.593
374.92	0.593
375.39	0.588
375.85	0.586
376.31	0.585
376.78	0.586
377.24	0.582
377.70	0.583
378.16	0.579
378.63	0.575
379.09	0.575
379.55	0.571
380.01	0.574
380.48	0.573
380.94	0.567
381.40	0.561
381.87	0.562
382.33	0.560
382.79	0.564
383.25	0.561
383.72	0.563
384.18	0.555
384.64	0.554
385.10	0.552
385.56	0.551
386.03	0.549
386.49	0.545
386.95	0.547
387.41	0.541
387.88	0.543
388.34	0.542
388.80	0.541
389.26	0.540
389.72	0.538
390.19	0.535
390.65	0.537
391.11	0.531
391.57	0.532
392.04	0.527
392.50	0.525
392.96	0.524
393.42	0.522
393.88	0.523
394.34	0.521
394.81	0.522
395.27	0.520
395.73	0.520
396.19	0.515
396.65	0.513
397.12	0.514
397.58	0.511
398.04	0.509
398.50	0.507
398.96	0.507
399.42	0.507
399.89	0.506
400.35	0.504
400.81	0.501
401.27	0.502
401.73	0.499
402.19	0.496
402.65	0.495
403.12	0.496
403.58	0.491
404.04	0.493
404.50	0.491
404.96	0.486
405.42	0.488
405.88	0.486
406.34	0.485
406.81	0.481
407.27	0.483
407.73	0.480
408.19	0.477
408.65	0.477
409.11	0.475
409.57	0.478
410.03	0.472
410.49	0.476
410.96	0.473
411.42	0.474
411.88	0.467
412.34	0.466
412.80	0.470
413.26	0.463
413.72	0.465
414.18	0.466
414.64	0.461
415.10	0.462
415.56	0.459
416.02	0.462
416.48	0.459
416.95	0.453
417.41	0.455
417.87	0.452
418.33	0.454
418.79	0.449
419.25	0.451
419.71	0.449
420.17	0.450
420.63	0.448
421.09	0.445
421.55	0.444
422.01	0.447
422.47	0.444
422.93	0.440
423.39	0.445
423.85	0.442
424.31	0.437
424.77	0.436
425.23	0.438
425.69	0.436
426.15	0.434
426.61	0.436
427.07	0.432
427.53	0.430
427.99	0.427
428.45	0.429
428.91	0.430
429.37	0.427
429.83	0.427
430.29	0.425
430.75	0.429
431.21	0.426
431.67	0.425
432.13	0.424
432.59	0.418
433.05	0.421
433.51	0.417
433.97	0.418
434.43	0.415
434.89	0.420
435.35	0.412
435.81	0.414
436.27	0.413
436.73	0.412
437.19	0.413
437.65	0.410
438.11	0.407
438.57	0.408
439.03	0.410
439.48	0.404
439.94	0.403
440.40	0.406
440.86	0.408
441.32	0.399
441.78	0.404
442.24	0.399
442.70	0.401
443.16	0.398
443.62	0.392
444.08	0.398
444.54	0.397
444.99	0.392
445.45	0.390
445.91	0.393
446.37	0.393
446.83	0.393
447.29	0.390
447.75	0.386
448.21	0.392
448.67	0.387
449.12	0.385
449.58	0.385
450.04	0.381
450.50	0.387
450.96	0.387
451.42	0.382
451.88	0.384
452.34	0.379
452.79	0.380
453.25	0.383
453.71	0.378
454.17	0.379
454.63	0.379
455.09	0.373
455.55	0.375
456.00	0.375
456.46	0.373
456.92	0.373
457.38	0.372
457.84	0.366
458.30	0.365
458.75	0.369
459.21	0.367
459.67	0.370
460.13	0.365
460.59	0.366
461.04	0.361
461.50	0.364
461.96	0.363
462.42	0.364
462.88	0.363
463.33	0.360
463.79	0.358
464.25	0.357
464.71	0.358
465.17	0.356
465.62	0.358
466.08	0.357
466.54	0.355
467.00	0.356
467.46	0.356
467.91	0.354
468.37	0.353
468.83	0.353
469.29	0.352
469.74	0.353
470.20	0.350
470.66	0.349
471.12	0.347
471.57	0.348
472.03	0.349
472.49	0.346
472.95	0.346
473.40	0.344
473.86	0.343
474.32	0.341
474.78	0.343
475.23	0.339
475.69	0.345
476.15	0.340
476.60	0.342
477.06	0.337
477.52	0.337
477.98	0.336
478.43	0.335
478.89	0.338
479.35	0.336
479.80	0.337
480.26	0.335
480.72	0.334
481.18	0.335
481.63	0.331
482.09	0.334
482.55	0.330
483.00	0.329
483.46	0.328
483.92	0.329
484.37	0.329
484.83	0.326
485.29	0.327
485.74	0.326
486.20	0.327
486.66	0.325
487.11	0.325
487.57	0.324
488.03	0.322
488.48	0.321
488.94	0.319
489.40	0.319
489.85	0.322
490.31	0.319
490.77	0.321
491.22	0.319
491.68	0.316
492.13	0.318
492.59	0.316
493.05	0.317
493.50	0.316
493.96	0.315
494.42	0.316
494.87	0.312
495.33	0.312
495.78	0.315
496.24	0.311
496.70	0.313
497.15	0.310
497.61	0.310
498.06	0.310
498.52	0.307
498.98	0.307
499.43	0.310
499.89	0.309
500.34	0.305
500.80	0.306
501.25	0.305
501.71	0.305
502.17	0.305
502.62	0.306
503.08	0.302
503.53	0.301
503.99	0.302
504.44	0.301
504.90	0.301
505.36	0.300
505.81	0.300
506.27	0.299
506.72	0.299
507.18	0.300
507.63	0.298
508.09	0.299
508.54	0.294
509.00	0.297
509.45	0.296
509.91	0.295
510.36	0.293
510.82	0.293
511.27	0.292
511.73	0.291
512.19	0.294
512.64	0.290
513.10	0.289
513.55	0.294
514.01	0.289
514.46	0.289
514.92	0.289
515.37	0.287
515.83	0.289
516.28	0.286
516.73	0.285
517.19	0.286
517.64	0.284
518.10	0.284
518.55	0.284
519.01	0.284
519.46	0.281
519.92	0.285
520.37	0.280
520.83	0.280
521.28	0.281
521.74	0.283
522.19	0.279
522.65	0.279
523.10	0.280
523.55	0.277
524.01	0.279
524.46	0.279
524.92	0.277
525.37	0.276
525.83	0.278
526.28	0.276
526.73	0.275
527.19	0.278
527.64	0.276
528.10	0.275
528.55	0.275
529.01	0.274
529.46	0.271
529.91	0.273
530.37	0.272
530.82	0.271
531.28	0.272
531.73	0.270
532.18	0.269
532.64	0.268
533.09	0.266
533.54	0.268
534.00	0.267
534.45	0.271
534.91	0.269
535.36	0.269
535.81	0.268
536.27	0.264
536.72	0.268
537.17	0.266
537.63	0.264
538.08	0.262
538.54	0.263
538.99	0.261
539.44	0.264
539.90	0.261
540.35	0.263
540.80	0.262
541.26	0.262
541.71	0.260
542.16	0.259
542.62	0.260
543.07	0.258
543.52	0.259
543.98	0.258
544.43	0.258
544.88	0.257
545.34	0.259
545.79	0.256
546.24	0.255
546.69	0.257
547.15	0.254
547.60	0.254
548.05	0.254
548.51	0.252
548.96	0.254
549.41	0.256
549.86	0.252
550.32	0.253
550.77	0.251
551.22	0.253
551.68	0.251
552.13	0.252
552.58	0.250
553.03	0.252
553.49	0.250
553.94	0.248
554.39	0.248
554.84	0.248
555.30	0.248
555.75	0.249
556.20	0.247
556.65	0.246
557.11	0.246
557.56	0.247
558.01	0.248
558.46	0.247
558.92	0.246
559.37	0.245
559.82	0.243
560.27	0.245
560.72	0.243
561.18	0.243
561.63	0.242
562.08	0.241
562.53	0.242
562.99	0.241
563.44	0.241
563.89	0.240
564.34	0.240
564.79	0.238
565.25	0.237
565.70	0.238
566.15	0.237
566.60	0.236
567.05	0.237
567.50	0.236
567.96	0.234
568.41	0.236
568.86	0.236
569.31	0.234
569.76	0.235
570.21	0.235
570.67	0.235
571.12	0.236
571.57	0.234
572.02	0.233
572.47	0.232
572.92	0.231
573.37	0.232
573.83	0.230
574.28	0.232
574.73	0.230
575.18	0.231
575.63	0.231
576.08	0.227
576.53	0.228
576.98	0.230
577.44	0.227
577.89	0.228
578.34	0.226
578.79	0.225
579.24	0.226
579.69	0.226
580.14	0.224
580.59	0.223
581.04	0.226
581.49	0.226
581.95	0.225
582.40	0.223
582.85	0.223
583.30	0.223
583.75	0.221
584.20	0.222
584.65	0.224
585.10	0.223
585.55	0.222
586.00	0.222
586.45	0.221
586.90	0.221
587.35	0.221
587.80	0.220
588.25	0.221
588.71	0.221
589.16	0.220
589.61	0.219
590.06	0.219
590.51	0.220
590.96	0.218
591.41	0.218
591.86	0.218
592.31	0.218
592.76	0.219
593.21	0.217
593.66	0.218
594.11	0.217
594.56	0.216
595.01	0.218
595.46	0.215
595.91	0.216
596.36	0.216
596.81	0.215
597.26	0.215
597.71	0.213
598.16	0.212
598.61	0.213
599.06	0.215
599.51	0.216
599.96	0.215
600.41	0.214
600.86	0.211
601.31	0.212
601.76	0.211
602.21	0.212
602.65	0.211
603.10	0.212
603.55	0.210
604.00	0.210
604.45	0.209
604.90	0.211
605.35	0.209
605.80	0.209
606.25	0.210
606.70	0.207
607.15	0.207
607.60	0.208
608.05	0.207
608.50	0.208
608.95	0.206
609.39	0.209
609.84	0.208
610.29	0.207
610.74	0.207
611.19	0.206
611.64	0.205
612.09	0.205
612.54	0.204
612.99	0.205
613.44	0.204
613.88	0.206
614.33	0.207
614.78	0.202
615.23	0.202
615.68	0.203
616.13	0.204
616.58	0.202
617.03	0.201
617.47	0.204
617.92	0.200
618.37	0.201
618.82	0.199
619.27	0.199
619.72	0.201
620.17	0.200
620.61	0.200
621.06	0.200
621.51	0.199
621.96	0.198
622.41	0.199
622.86	0.198
623.30	0.198
623.75	0.198
624.20	0.196
624.65	0.196
625.10	0.195
625.54	0.196
625.99	0.197
626.44	0.196
626.89	0.195
627.34	0.200
627.78	0.194
628.23	0.195
628.68	0.193
629.13	0.195
629.58	0.195
630.02	0.194
630.47	0.193
630.92	0.193
631.37	0.194
631.81	0.193
632.26	0.194
632.71	0.193
633.16	0.193
633.61	0.194
634.05	0.191
634.50	0.191
634.95	0.192
635.40	0.194
635.84	0.192
636.29	0.192
636.74	0.193
637.18	0.192
637.63	0.191
638.08	0.189
638.53	0.191
638.97	0.190
639.42	0.190
639.87	0.189
640.32	0.188
640.76	0.190
641.21	0.190
641.66	0.190
642.10	0.189
642.55	0.186
643.00	0.188
643.44	0.188
643.89	0.190
644.34	0.190
644.79	0.187
645.23	0.186
645.68	0.186
646.13	0.187
646.57	0.188
647.02	0.186
647.47	0.188
647.91	0.186
648.36	0.187
648.81	0.187
649.25	0.185
649.70	0.184
650.15	0.185
650.59	0.185
651.04	0.183
651.48	0.185
651.93	0.187
652.38	0.183
652.82	0.185
653.27	0.183
653.72	0.186
654.16	0.182
654.61	0.184
655.06	0.182
655.50	0.181
655.95	0.180
656.39	0.176
656.84	0.179
657.29	0.185
657.73	0.182
658.18	0.182
658.62	0.183
659.07	0.182
659.52	0.183
659.96	0.182
660.41	0.184
660.85	0.182
661.30	0.181
661.74	0.181
662.19	0.180
662.64	0.179
663.08	0.179
663.53	0.179
663.97	0.178
664.42	0.178
664.86	0.180
665.31	0.179
665.75	0.177
666.20	0.180
666.65	0.180
667.09	0.178
667.54	0.180
667.98	0.177
668.43	0.175
668.87	0.177
669.32	0.177
669.76	0.175
670.21	0.176
670.65	0.173
671.10	0.175
671.54	0.175
671.99	0.174
672.43	0.174
672.88	0.175
673.32	0.173
673.77	0.171
674.21	0.172
674.66	0.170
675.10	0.173
675.55	0.170
675.99	0.173
676.44	0.171
676.88	0.171
677.33	0.171
677.77	0.171
678.22	0.169
678.66	0.168
679.11	0.168
679.55	0.168
679.99	0.167
680.44	0.169
680.88	0.169
681.33	0.167
681.77	0.166
682.22	0.167
682.66	0.168
683.11	0.166
683.55	0.165
683.99	0.166
684.44	0.163
684.88	0.166
685.33	0.165
685.77	0.166
686.21	0.165
686.66	0.165
687.10	0.164
687.55	0.163
687.99	0.164
688.44	0.164
688.88	0.164
689.32	0.164
689.77	0.161
690.21	0.162
690.65	0.160
691.10	0.163
691.54	0.163
691.99	0.161
692.43	0.160
692.87	0.160
693.32	0.162
693.76	0.161
694.20	0.161
694.65	0.159
695.09	0.160
695.53	0.159
695.98	0.160
696.42	0.159
696.86	0.157
697.31	0.156
697.75	0.157
698.19	0.157
698.64	0.157
699.08	0.157
699.52	0.158
699.97	0.159
700.41	0.158
700.85	0.158
701.30	0.155
701.74	0.158
702.18	0.158
702.63	0.157
703.07	0.158
703.51	0.157
703.96	0.156
704.40	0.156
704.84	0.157
705.28	0.155
705.73	0.154
706.17	0.154
706.61	0.155
707.06	0.154
707.50	0.155
707.94	0.155
708.38	0.153
708.83	0.156
709.27	0.155
709.71	0.154
710.15	0.155
710.60	0.154
711.04	0.152
711.48	0.155
711.92	0.156
712.37	0.155
712.81	0.155
713.25	0.155
713.69	0.154
714.13	0.156
714.58	0.155
715.02	0.153
715.46	0.152
715.90	0.150
716.35	0.150
716.79	0.156
717.23	0.153
717.67	0.153
718.11	0.154
718.56	0.154
719.00	0.154
719.44	0.154
719.88	0.150
720.32	0.152
720.76	0.152
721.21	0.151
721.65	0.149
722.09	0.153
722.53	0.152
722.97	0.153
723.41	0.150
723.86	0.154
724.30	0.150
724.74	0.153
725.18	0.153
725.62	0.150
726.06	0.154
726.50	0.150
726.95	0.150
727.39	0.154
727.83	0.151
728.27	0.150
728.71	0.151
729.15	0.153
729.59	0.155
730.03	0.148
730.48	0.150
730.92	0.150
731.36	0.151
731.80	0.149
732.24	0.152
732.68	0.150
733.12	0.148
733.56	0.149
734.00	0.149
734.44	0.151
734.89	0.150
735.33	0.152
735.77	0.152
736.21	0.153
736.65	0.149
737.09	0.152
737.53	0.155
737.97	0.151
738.41	0.151
738.85	0.152
739.29	0.153
739.73	0.149
740.17	0.150
740.61	0.152
741.05	0.149
741.49	0.149
741.93	0.151
742.37	0.149
742.81	0.150
743.26	0.150
743.70	0.150
744.14	0.147
744.58	0.148
745.02	0.149
745.46	0.151
745.90	0.148
746.34	0.150
746.78	0.149
747.22	0.148
747.66	0.150
748.10	0.150
748.54	0.149
748.98	0.146
749.42	0.147
749.86	0.151
750.29	0.147
750.73	0.145
751.17	0.145
751.61	0.145
752.05	0.148
752.49	0.144
752.93	0.144
753.37	0.146
753.81	0.145
754.25	0.146
754.69	0.142
755.13	0.146
755.57	0.147
756.01	0.146
756.45	0.146
756.89	0.146
757.33	0.145
757.77	0.146
758.21	0.145
758.64	0.142
759.08	0.140
759.52	0.146
759.96	0.145
760.40	0.142
760.84	0.141
761.28	0.144
761.72	0.144
762.16	0.144
762.60	0.142
763.03	0.143
763.47	0.142
763.91	0.143
764.35	0.145
764.79	0.141
765.23	0.140
765.67	0.141
766.11	0.139
766.54	0.138
766.98	0.142
767.42	0.142
767.86	0.139
768.30	0.142
768.74	0.143
769.17	0.143
769.61	0.143
770.05	0.140
770.49	0.140
770.93	0.141
771.37	0.139
771.80	0.140
772.24	0.140
772.68	0.138
773.12	0.140
773.56	0.140
774.00	0.138
774.43	0.139
774.87	0.139
775.31	0.138
775.75	0.138
776.19	0.140
776.62	0.138
777.06	0.139
777.50	0.138
777.94	0.136
778.37	0.141
778.81	0.140
779.25	0.138
779.69	0.138
780.13	0.141
780.56	0.138
781.00	0.136
781.44	0.138
781.88	0.142
782.31	0.136
782.75	0.136
783.19	0.139
783.63	0.137
784.06	0.135
784.50	0.139
784.94	0.135
785.37	0.138
785.81	0.140
786.25	0.138
786.69	0.135
787.12	0.135
787.56	0.134
788.00	0.138
788.43	0.139
788.87	0.136
789.31	0.136
789.75	0.136
790.18	0.133
790.62	0.136
791.06	0.135
791.49	0.136
791.93	0.131
792.37	0.138
792.80	0.130
793.24	0.132
793.68	0.136
794.11	0.134
794.55	0.137
794.99	0.138
795.42	0.133
795.86	0.139
796.30	0.133
796.73	0.134
797.17	0.132
797.61	0.134
798.04	0.134
798.48	0.134
798.91	0.134
799.35	0.134
799.79	0.136
800.22	0.134
800.66	0.131
801.10	0.134
801.53	0.134
801.97	0.135
802.40	0.134
802.84	0.133
803.28	0.131
803.71	0.133
804.15	0.131
804.58	0.133
805.02	0.132
805.46	0.131
805.89	0.131
806.33	0.130
806.76	0.131
807.20	0.128
807.63	0.130
808.07	0.130
808.51	0.132
808.94	0.128
809.38	0.129
809.81	0.133
810.25	0.134
810.68	0.131
811.12	0.131
811.55	0.136
811.99	0.131
812.42	0.133
812.86	0.129
813.29	0.128
813.73	0.130
814.17	0.127
814.60	0.132
815.04	0.130
815.47	0.129
