SpectraSuite Data File
++++++++++++++++++++++++++++++++++++
Date: Sun Apr 24 17:01:06 CEST 2016
User: spectrasuite
Dark Spectrum Present: Yes
Reference Spectrum Present: Yes
Number of Sampled Component Spectra: 1
Spectrometers: HR+C0708
Integration Time (usec): 1000 (HR+C0708)
Spectra Averaged: 10 (HR+C0708)
Boxcar Smoothing: 0 (HR+C0708)
Correct for Electrical Dark: No (HR+C0708)
Strobe/Lamp Enabled: No (HR+C0708)
Correct for Detector Non-linearity: No (HR+C0708)
Correct for Stray Light: No (HR+C0708)
Number of Pixels in Processed Spectrum: 2048
>>>>>Begin Processed Spectral Data<<<<<
188.76	-0.000
189.23	-0.000
189.70	-0.000
190.17	-0.000
190.64	-0.000
191.12	-0.000
191.59	-0.000
192.06	-0.000
192.53	-0.000
193.01	-0.000
193.48	-0.000
193.95	-0.000
194.42	-0.000
194.90	-0.000
195.37	-0.000
195.84	-0.000
196.31	-0.000
196.78	-0.000
197.26	-0.000
197.73	-0.000
198.20	-0.000
198.67	-0.000
199.14	-0.000
199.62	-0.000
200.09	-0.000
200.56	-0.000
201.03	-0.000
201.50	-0.000
201.97	1.758
202.45	1.744
202.92	-0.000
203.39	1.482
203.86	1.090
204.33	-0.000
204.80	-0.000
205.28	0.979
205.75	-0.000
206.22	-0.000
206.69	1.370
207.16	-0.000
207.63	1.343
208.11	2.058
208.58	-0.000
209.05	1.633
209.52	-0.000
209.99	-0.000
210.46	1.169
210.93	-0.000
211.41	-0.000
211.88	-0.000
212.35	-0.000
212.82	-0.000
213.29	-0.000
213.76	1.554
214.23	1.697
214.70	-0.000
215.18	-0.000
215.65	0.694
216.12	1.391
216.59	-0.000
217.06	1.940
217.53	-0.000
218.00	1.232
218.47	-0.000
218.94	1.466
219.41	-0.000
219.89	-0.000
220.36	-0.000
220.83	1.194
221.30	-0.000
221.77	-0.000
222.24	1.394
222.71	-0.000
223.18	-0.000
223.65	-0.000
224.12	-0.000
224.59	-0.000
225.06	-0.000
225.54	2.036
226.01	1.152
226.48	-0.000
226.95	-0.000
227.42	-0.000
227.89	-0.000
228.36	1.950
228.83	2.397
229.30	-0.000
229.77	-0.000
230.24	2.426
230.71	-0.000
231.18	-0.000
231.65	-0.000
232.12	2.130
232.59	2.239
233.06	-0.000
233.53	-0.000
234.00	2.140
234.47	-0.000
234.94	-0.000
235.41	-0.000
235.88	2.532
236.35	2.946
236.82	-0.000
237.29	2.867
237.76	2.363
238.23	-0.000
238.70	-0.000
239.17	2.349
239.64	-0.000
240.11	4.417
240.58	-0.000
241.05	2.773
241.52	-0.000
241.99	-0.000
242.46	3.248
242.93	2.702
243.40	3.281
243.87	-0.000
244.34	2.354
244.81	4.026
245.28	-0.000
245.75	-0.000
246.22	3.626
246.69	3.598
247.16	-0.000
247.63	3.096
248.10	2.614
248.57	-0.000
249.04	-0.000
249.51	2.797
249.98	-0.000
250.45	-0.000
250.92	-0.000
251.39	-0.000
251.85	3.810
252.32	-0.000
252.79	-0.000
253.26	-0.000
253.73	-0.000
254.20	-0.000
254.67	2.529
255.14	3.114
255.61	-0.000
256.08	3.279
256.55	-0.000
257.02	2.884
257.49	3.340
257.95	3.067
258.42	2.925
258.89	3.774
259.36	2.998
259.83	2.905
260.30	3.859
260.77	3.583
261.24	2.642
261.71	3.076
262.17	2.749
262.64	2.757
263.11	2.734
263.58	2.754
264.05	2.719
264.52	2.572
264.99	2.555
265.46	2.771
265.92	2.704
266.39	2.459
266.86	2.676
267.33	2.636
267.80	2.586
268.27	2.549
268.74	2.467
269.20	2.582
269.67	2.415
270.14	2.361
270.61	2.373
271.08	2.438
271.55	2.310
272.01	2.388
272.48	2.335
272.95	2.310
273.42	2.310
273.89	2.268
274.36	2.297
274.82	2.172
275.29	2.187
275.76	2.221
276.23	2.147
276.70	2.108
277.16	2.134
277.63	2.119
278.10	2.116
278.57	2.082
279.04	2.122
279.50	2.154
279.97	2.048
280.44	1.970
280.91	2.024
281.38	2.004
281.84	1.978
282.31	2.057
282.78	2.094
283.25	1.994
283.72	1.962
284.18	1.957
284.65	1.950
285.12	1.915
285.59	1.871
286.05	1.932
286.52	1.921
286.99	1.897
287.46	1.902
287.92	1.908
288.39	1.852
288.86	1.887
289.33	1.850
289.79	1.855
290.26	1.831
290.73	1.805
291.20	1.852
291.66	1.820
292.13	1.781
292.60	1.795
293.07	1.772
293.53	1.747
294.00	1.773
294.47	1.756
294.93	1.772
295.40	1.755
295.87	1.719
296.34	1.760
296.80	1.698
297.27	1.694
297.74	1.704
298.20	1.716
298.67	1.665
299.14	1.692
299.60	1.702
300.07	1.673
300.54	1.641
301.01	1.621
301.47	1.638
301.94	1.604
302.41	1.607
302.87	1.620
303.34	1.656
303.81	1.603
304.27	1.614
304.74	1.588
305.21	1.594
305.67	1.582
306.14	1.578
306.61	1.587
307.07	1.554
307.54	1.554
308.01	1.560
308.47	1.537
308.94	1.533
309.40	1.550
309.87	1.535
310.34	1.513
310.80	1.528
311.27	1.514
311.74	1.499
312.20	1.503
312.67	1.488
313.13	1.483
313.60	1.505
314.07	1.461
314.53	1.458
315.00	1.453
315.47	1.457
315.93	1.464
316.40	1.430
316.86	1.446
317.33	1.419
317.80	1.420
318.26	1.426
318.73	1.416
319.19	1.395
319.66	1.403
320.13	1.402
320.59	1.395
321.06	1.402
321.52	1.393
321.99	1.387
322.45	1.370
322.92	1.359
323.39	1.363
323.85	1.368
324.32	1.345
324.78	1.356
325.25	1.352
325.71	1.325
326.18	1.323
326.64	1.334
327.11	1.331
327.58	1.308
328.04	1.309
328.51	1.309
328.97	1.308
329.44	1.289
329.90	1.297
330.37	1.283
330.83	1.255
331.30	1.280
331.76	1.291
332.23	1.257
332.69	1.250
333.16	1.229
333.62	1.246
334.09	1.231
334.56	1.212
335.02	1.226
335.49	1.210
335.95	1.187
336.42	1.190
336.88	1.184
337.35	1.172
337.81	1.178
338.28	1.164
338.74	1.162
339.20	1.145
339.67	1.135
340.13	1.135
340.60	1.121
341.06	1.092
341.53	1.095
341.99	1.096
342.46	1.073
342.92	1.068
343.39	1.052
343.85	1.049
344.32	1.035
344.78	1.029
345.25	1.025
345.71	1.012
346.17	0.997
346.64	0.996
347.10	0.981
347.57	0.964
348.03	0.941
348.50	0.931
348.96	0.925
349.43	0.908
349.89	0.902
350.35	0.896
350.82	0.877
351.28	0.874
351.75	0.862
352.21	0.851
352.67	0.829
353.14	0.831
353.60	0.824
354.07	0.802
354.53	0.789
355.00	0.781
355.46	0.774
355.92	0.759
356.39	0.749
356.85	0.753
357.31	0.742
357.78	0.729
358.24	0.727
358.71	0.716
359.17	0.714
359.63	0.709
360.10	0.702
360.56	0.698
361.03	0.691
361.49	0.682
361.95	0.679
362.42	0.673
362.88	0.667
363.34	0.662
363.81	0.665
364.27	0.660
364.73	0.660
365.20	0.651
365.66	0.644
366.12	0.639
366.59	0.640
367.05	0.639
367.51	0.639
367.98	0.630
368.44	0.626
368.90	0.628
369.37	0.623
369.83	0.620
370.29	0.619
370.76	0.619
371.22	0.617
371.68	0.613
372.15	0.609
372.61	0.603
373.07	0.603
373.54	0.605
374.00	0.603
374.46	0.600
374.92	0.596
375.39	0.596
375.85	0.592
376.31	0.592
376.78	0.589
377.24	0.591
377.70	0.584
378.16	0.584
378.63	0.582
379.09	0.582
379.55	0.575
380.01	0.579
380.48	0.575
380.94	0.571
381.40	0.570
381.87	0.569
382.33	0.566
382.79	0.563
383.25	0.563
383.72	0.567
384.18	0.561
384.64	0.554
385.10	0.558
385.56	0.559
386.03	0.552
386.49	0.549
386.95	0.551
387.41	0.548
387.88	0.549
388.34	0.542
388.80	0.544
389.26	0.543
389.72	0.541
390.19	0.546
390.65	0.540
391.11	0.533
391.57	0.535
392.04	0.534
392.50	0.531
392.96	0.530
393.42	0.525
393.88	0.529
394.34	0.525
394.81	0.525
395.27	0.521
395.73	0.522
396.19	0.520
396.65	0.517
397.12	0.516
397.58	0.518
398.04	0.515
398.50	0.514
398.96	0.512
399.42	0.512
399.89	0.503
400.35	0.508
400.81	0.505
401.27	0.505
401.73	0.505
402.19	0.500
402.65	0.499
403.12	0.494
403.58	0.494
404.04	0.495
404.50	0.500
404.96	0.493
405.42	0.491
405.88	0.490
406.34	0.489
406.81	0.491
407.27	0.486
407.73	0.490
408.19	0.480
408.65	0.484
409.11	0.481
409.57	0.481
410.03	0.478
410.49	0.480
410.96	0.475
411.42	0.475
411.88	0.475
412.34	0.473
412.80	0.473
413.26	0.469
413.72	0.465
414.18	0.470
414.64	0.462
415.10	0.467
415.56	0.468
416.02	0.468
416.48	0.461
416.95	0.460
417.41	0.457
417.87	0.458
418.33	0.458
418.79	0.455
419.25	0.457
419.71	0.452
420.17	0.451
420.63	0.449
421.09	0.451
421.55	0.446
422.01	0.445
422.47	0.451
422.93	0.447
423.39	0.447
423.85	0.444
424.31	0.444
424.77	0.440
425.23	0.440
425.69	0.446
426.15	0.441
426.61	0.437
427.07	0.434
427.53	0.434
427.99	0.433
428.45	0.431
428.91	0.433
429.37	0.432
429.83	0.430
430.29	0.429
430.75	0.432
431.21	0.428
431.67	0.426
432.13	0.429
432.59	0.424
433.05	0.422
433.51	0.422
433.97	0.421
434.43	0.421
434.89	0.420
435.35	0.420
435.81	0.419
436.27	0.417
436.73	0.413
437.19	0.414
437.65	0.412
438.11	0.409
438.57	0.415
439.03	0.412
439.48	0.408
439.94	0.408
440.40	0.407
440.86	0.409
441.32	0.403
441.78	0.403
442.24	0.403
442.70	0.404
443.16	0.398
443.62	0.400
444.08	0.400
444.54	0.397
444.99	0.394
445.45	0.397
445.91	0.394
446.37	0.395
446.83	0.392
447.29	0.395
447.75	0.391
448.21	0.390
448.67	0.388
449.12	0.389
449.58	0.388
450.04	0.386
450.50	0.388
450.96	0.388
451.42	0.385
451.88	0.383
452.34	0.386
452.79	0.380
453.25	0.383
453.71	0.381
454.17	0.380
454.63	0.380
455.09	0.380
455.55	0.380
456.00	0.378
456.46	0.378
456.92	0.375
457.38	0.375
457.84	0.370
458.30	0.368
458.75	0.373
459.21	0.367
459.67	0.370
460.13	0.367
460.59	0.368
461.04	0.366
461.50	0.369
461.96	0.364
462.42	0.365
462.88	0.362
463.33	0.361
463.79	0.362
464.25	0.361
464.71	0.362
465.17	0.361
465.62	0.360
466.08	0.361
466.54	0.357
467.00	0.359
467.46	0.359
467.91	0.356
468.37	0.357
468.83	0.355
469.29	0.354
469.74	0.351
470.20	0.354
470.66	0.352
471.12	0.350
471.57	0.350
472.03	0.350
472.49	0.348
472.95	0.347
473.40	0.344
473.86	0.344
474.32	0.342
474.78	0.342
475.23	0.343
475.69	0.345
476.15	0.340
476.60	0.345
477.06	0.341
477.52	0.339
477.98	0.339
478.43	0.339
478.89	0.339
479.35	0.336
479.80	0.337
480.26	0.339
480.72	0.335
481.18	0.335
481.63	0.333
482.09	0.333
482.55	0.333
483.00	0.330
483.46	0.331
483.92	0.332
484.37	0.330
484.83	0.328
485.29	0.328
485.74	0.328
486.20	0.328
486.66	0.326
487.11	0.327
487.57	0.325
488.03	0.325
488.48	0.323
488.94	0.323
489.40	0.324
489.85	0.322
490.31	0.321
490.77	0.319
491.22	0.321
491.68	0.321
492.13	0.318
492.59	0.318
493.05	0.317
493.50	0.316
493.96	0.316
494.42	0.313
494.87	0.312
495.33	0.313
495.78	0.315
496.24	0.313
496.70	0.311
497.15	0.311
497.61	0.311
498.06	0.312
498.52	0.308
498.98	0.310
499.43	0.310
499.89	0.309
500.34	0.307
500.80	0.308
501.25	0.307
501.71	0.304
502.17	0.306
502.62	0.306
503.08	0.306
503.53	0.303
503.99	0.300
504.44	0.302
504.90	0.301
505.36	0.302
505.81	0.300
506.27	0.303
506.72	0.300
507.18	0.302
507.63	0.298
508.09	0.299
508.54	0.298
509.00	0.298
509.45	0.298
509.91	0.297
510.36	0.295
510.82	0.294
511.27	0.294
511.73	0.294
512.19	0.292
512.64	0.290
513.10	0.292
513.55	0.291
514.01	0.289
514.46	0.291
514.92	0.287
515.37	0.291
515.83	0.289
516.28	0.286
516.73	0.287
517.19	0.287
517.64	0.285
518.10	0.283
518.55	0.286
519.01	0.283
519.46	0.283
519.92	0.285
520.37	0.280
520.83	0.282
521.28	0.281
521.74	0.282
522.19	0.283
522.65	0.280
523.10	0.281
523.55	0.280
524.01	0.281
524.46	0.278
524.92	0.277
525.37	0.278
525.83	0.276
526.28	0.275
526.73	0.278
527.19	0.277
527.64	0.276
528.10	0.275
528.55	0.276
529.01	0.274
529.46	0.273
529.91	0.273
530.37	0.273
530.82	0.272
531.28	0.271
531.73	0.270
532.18	0.269
532.64	0.269
533.09	0.267
533.54	0.269
534.00	0.269
534.45	0.271
534.91	0.269
535.36	0.270
535.81	0.267
536.27	0.265
536.72	0.268
537.17	0.265
537.63	0.265
538.08	0.264
538.54	0.266
538.99	0.265
539.44	0.266
539.90	0.263
540.35	0.261
540.80	0.263
541.26	0.262
541.71	0.259
542.16	0.261
542.62	0.259
543.07	0.260
543.52	0.261
543.98	0.257
544.43	0.259
544.88	0.258
545.34	0.258
545.79	0.257
546.24	0.255
546.69	0.256
547.15	0.258
547.60	0.255
548.05	0.257
548.51	0.253
548.96	0.255
549.41	0.255
549.86	0.253
550.32	0.255
550.77	0.254
551.22	0.254
551.68	0.250
552.13	0.249
552.58	0.249
553.03	0.251
553.49	0.250
553.94	0.247
554.39	0.250
554.84	0.251
555.30	0.250
555.75	0.250
556.20	0.247
556.65	0.247
557.11	0.245
557.56	0.243
558.01	0.250
558.46	0.247
558.92	0.245
559.37	0.244
559.82	0.245
560.27	0.245
560.72	0.246
561.18	0.243
561.63	0.243
562.08	0.241
562.53	0.243
562.99	0.243
563.44	0.242
563.89	0.240
564.34	0.240
564.79	0.241
565.25	0.239
565.70	0.240
566.15	0.239
566.60	0.238
567.05	0.239
567.50	0.239
567.96	0.237
568.41	0.237
568.86	0.237
569.31	0.235
569.76	0.234
570.21	0.234
570.67	0.235
571.12	0.237
571.57	0.232
572.02	0.233
572.47	0.232
572.92	0.233
573.37	0.232
573.83	0.230
574.28	0.232
574.73	0.230
575.18	0.230
575.63	0.231
576.08	0.228
576.53	0.229
576.98	0.229
577.44	0.225
577.89	0.228
578.34	0.226
578.79	0.228
579.24	0.228
579.69	0.227
580.14	0.224
580.59	0.225
581.04	0.223
581.49	0.225
581.95	0.223
582.40	0.222
582.85	0.224
583.30	0.222
583.75	0.221
584.20	0.223
584.65	0.224
585.10	0.221
585.55	0.222
586.00	0.221
586.45	0.220
586.90	0.222
587.35	0.221
587.80	0.221
588.25	0.220
588.71	0.219
589.16	0.218
589.61	0.221
590.06	0.219
590.51	0.217
590.96	0.218
591.41	0.216
591.86	0.217
592.31	0.216
592.76	0.217
593.21	0.217
593.66	0.218
594.11	0.217
594.56	0.215
595.01	0.216
595.46	0.217
595.91	0.216
596.36	0.214
596.81	0.216
597.26	0.214
597.71	0.215
598.16	0.215
598.61	0.212
599.06	0.214
599.51	0.215
599.96	0.213
600.41	0.213
600.86	0.212
601.31	0.212
601.76	0.213
602.21	0.214
602.65	0.211
603.10	0.212
603.55	0.210
604.00	0.211
604.45	0.211
604.90	0.210
605.35	0.209
605.80	0.209
606.25	0.209
606.70	0.208
607.15	0.207
607.60	0.206
608.05	0.208
608.50	0.206
608.95	0.205
609.39	0.207
609.84	0.207
610.29	0.206
610.74	0.205
611.19	0.203
611.64	0.205
612.09	0.204
612.54	0.204
612.99	0.204
613.44	0.204
613.88	0.205
614.33	0.203
614.78	0.203
615.23	0.200
615.68	0.201
616.13	0.201
616.58	0.201
617.03	0.201
617.47	0.202
617.92	0.200
618.37	0.200
618.82	0.200
619.27	0.199
619.72	0.199
620.17	0.199
620.61	0.198
621.06	0.199
621.51	0.200
621.96	0.197
622.41	0.198
622.86	0.195
623.30	0.198
623.75	0.198
624.20	0.196
624.65	0.196
625.10	0.195
625.54	0.196
625.99	0.195
626.44	0.195
626.89	0.195
627.34	0.195
627.78	0.194
628.23	0.193
628.68	0.191
629.13	0.193
629.58	0.195
630.02	0.193
630.47	0.192
630.92	0.193
631.37	0.193
631.81	0.192
632.26	0.189
632.71	0.192
633.16	0.192
633.61	0.191
634.05	0.189
634.50	0.191
634.95	0.191
635.40	0.191
635.84	0.191
636.29	0.191
636.74	0.192
637.18	0.191
637.63	0.189
638.08	0.188
638.53	0.188
638.97	0.187
639.42	0.189
639.87	0.189
640.32	0.187
640.76	0.189
641.21	0.189
641.66	0.188
642.10	0.188
642.55	0.187
643.00	0.187
643.44	0.186
643.89	0.188
644.34	0.185
644.79	0.184
645.23	0.187
645.68	0.184
646.13	0.186
646.57	0.185
647.02	0.185
647.47	0.187
647.91	0.184
648.36	0.184
648.81	0.187
649.25	0.184
649.70	0.182
650.15	0.182
650.59	0.183
651.04	0.181
651.48	0.186
651.93	0.183
652.38	0.180
652.82	0.183
653.27	0.181
653.72	0.183
654.16	0.182
654.61	0.181
655.06	0.180
655.50	0.179
655.95	0.180
656.39	0.173
656.84	0.176
657.29	0.183
657.73	0.178
658.18	0.178
658.62	0.180
659.07	0.179
659.52	0.180
659.96	0.180
660.41	0.179
660.85	0.178
661.30	0.177
661.74	0.179
662.19	0.178
662.64	0.177
663.08	0.176
663.53	0.177
663.97	0.176
664.42	0.176
664.86	0.177
665.31	0.177
665.75	0.175
666.20	0.177
666.65	0.175
667.09	0.176
667.54	0.177
667.98	0.175
668.43	0.174
668.87	0.174
669.32	0.172
669.76	0.173
670.21	0.175
670.65	0.171
671.10	0.174
671.54	0.172
671.99	0.173
672.43	0.171
672.88	0.170
673.32	0.171
673.77	0.169
674.21	0.170
674.66	0.171
675.10	0.171
675.55	0.169
675.99	0.170
676.44	0.170
676.88	0.170
677.33	0.167
677.77	0.168
678.22	0.167
678.66	0.168
679.11	0.166
679.55	0.168
679.99	0.167
680.44	0.167
680.88	0.166
681.33	0.165
681.77	0.164
682.22	0.166
682.66	0.167
683.11	0.165
683.55	0.166
683.99	0.165
684.44	0.164
684.88	0.163
685.33	0.163
685.77	0.165
686.21	0.163
686.66	0.162
687.10	0.162
687.55	0.163
687.99	0.165
688.44	0.165
688.88	0.163
689.32	0.163
689.77	0.161
690.21	0.160
690.65	0.162
691.10	0.162
691.54	0.160
691.99	0.161
692.43	0.160
692.87	0.161
693.32	0.160
693.76	0.161
694.20	0.161
694.65	0.161
695.09	0.161
695.53	0.160
695.98	0.160
696.42	0.160
696.86	0.159
697.31	0.158
697.75	0.158
698.19	0.156
698.64	0.156
699.08	0.157
699.52	0.158
699.97	0.158
700.41	0.157
700.85	0.157
701.30	0.155
701.74	0.157
702.18	0.157
702.63	0.157
703.07	0.156
703.51	0.158
703.96	0.158
704.40	0.156
704.84	0.158
705.28	0.156
705.73	0.154
706.17	0.154
706.61	0.156
707.06	0.155
707.50	0.156
707.94	0.154
708.38	0.152
708.83	0.156
709.27	0.155
709.71	0.154
710.15	0.155
710.60	0.154
711.04	0.153
711.48	0.155
711.92	0.155
712.37	0.153
712.81	0.154
713.25	0.155
713.69	0.154
714.13	0.154
714.58	0.153
715.02	0.155
715.46	0.154
715.90	0.152
716.35	0.150
716.79	0.154
717.23	0.153
717.67	0.154
718.11	0.154
718.56	0.153
719.00	0.153
719.44	0.151
719.88	0.151
720.32	0.150
720.76	0.153
721.21	0.154
721.65	0.150
722.09	0.151
722.53	0.152
722.97	0.152
723.41	0.151
723.86	0.151
724.30	0.150
724.74	0.156
725.18	0.154
725.62	0.148
726.06	0.152
726.50	0.152
726.95	0.149
727.39	0.152
727.83	0.150
728.27	0.151
728.71	0.152
729.15	0.153
729.59	0.151
730.03	0.149
730.48	0.149
730.92	0.150
731.36	0.152
731.80	0.151
732.24	0.151
732.68	0.149
733.12	0.150
733.56	0.151
734.00	0.148
734.44	0.150
734.89	0.152
735.33	0.151
735.77	0.154
736.21	0.154
736.65	0.149
737.09	0.150
737.53	0.153
737.97	0.152
738.41	0.153
738.85	0.154
739.29	0.154
739.73	0.150
740.17	0.150
740.61	0.150
741.05	0.152
741.49	0.152
741.93	0.152
742.37	0.146
742.81	0.150
743.26	0.149
743.70	0.150
744.14	0.148
744.58	0.148
745.02	0.148
745.46	0.150
745.90	0.146
746.34	0.150
746.78	0.151
747.22	0.153
747.66	0.150
748.10	0.149
748.54	0.149
748.98	0.149
749.42	0.149
749.86	0.147
750.29	0.148
750.73	0.146
751.17	0.145
751.61	0.146
752.05	0.149
752.49	0.147
752.93	0.147
753.37	0.146
753.81	0.146
754.25	0.146
754.69	0.145
755.13	0.145
755.57	0.147
756.01	0.146
756.45	0.146
756.89	0.145
757.33	0.145
757.77	0.145
758.21	0.146
758.64	0.143
759.08	0.141
759.52	0.145
759.96	0.146
760.40	0.146
760.84	0.141
761.28	0.144
761.72	0.147
762.16	0.144
762.60	0.145
763.03	0.143
763.47	0.142
763.91	0.143
764.35	0.143
764.79	0.141
765.23	0.140
765.67	0.143
766.11	0.139
766.54	0.139
766.98	0.141
767.42	0.142
767.86	0.141
768.30	0.142
768.74	0.144
769.17	0.143
769.61	0.142
770.05	0.141
770.49	0.140
770.93	0.143
771.37	0.138
771.80	0.140
772.24	0.139
772.68	0.138
773.12	0.138
773.56	0.140
774.00	0.139
774.43	0.138
774.87	0.139
775.31	0.138
775.75	0.139
776.19	0.140
776.62	0.135
777.06	0.140
777.50	0.138
777.94	0.139
778.37	0.138
778.81	0.138
779.25	0.140
779.69	0.139
780.13	0.142
780.56	0.137
781.00	0.137
781.44	0.138
781.88	0.136
782.31	0.137
782.75	0.135
783.19	0.139
783.63	0.138
784.06	0.135
784.50	0.139
784.94	0.138
785.37	0.138
785.81	0.139
786.25	0.140
786.69	0.133
787.12	0.137
787.56	0.131
788.00	0.138
788.43	0.140
788.87	0.137
789.31	0.136
789.75	0.139
790.18	0.135
790.62	0.137
791.06	0.134
791.49	0.133
791.93	0.136
792.37	0.136
792.80	0.137
793.24	0.137
793.68	0.135
794.11	0.136
794.55	0.140
794.99	0.135
795.42	0.133
795.86	0.135
796.30	0.136
796.73	0.133
797.17	0.133
797.61	0.134
798.04	0.131
798.48	0.136
798.91	0.132
799.35	0.132
799.79	0.137
800.22	0.132
800.66	0.130
801.10	0.134
801.53	0.133
801.97	0.136
802.40	0.136
802.84	0.132
803.28	0.130
803.71	0.133
804.15	0.133
804.58	0.131
805.02	0.136
805.46	0.132
805.89	0.132
806.33	0.134
806.76	0.129
807.20	0.132
807.63	0.132
808.07	0.131
808.51	0.130
808.94	0.128
809.38	0.130
809.81	0.132
810.25	0.134
810.68	0.134
811.12	0.129
811.55	0.133
811.99	0.134
812.42	0.133
812.86	0.129
813.29	0.129
813.73	0.135
814.17	0.128
814.60	0.133
815.04	0.129
