SpectraSuite Data File
++++++++++++++++++++++++++++++++++++
Date: Sun Apr 24 16:24:56 CEST 2016
User: spectrasuite
Dark Spectrum Present: Yes
Reference Spectrum Present: Yes
Number of Sampled Component Spectra: 1
Spectrometers: HR+C0708
Integration Time (usec): 1000 (HR+C0708)
Spectra Averaged: 10 (HR+C0708)
Boxcar Smoothing: 0 (HR+C0708)
Correct for Electrical Dark: No (HR+C0708)
Strobe/Lamp Enabled: No (HR+C0708)
Correct for Detector Non-linearity: No (HR+C0708)
Correct for Stray Light: No (HR+C0708)
Number of Pixels in Processed Spectrum: 2048
>>>>>Begin Processed Spectral Data<<<<<
188.76	-0.000
189.23	-0.000
189.70	-0.000
190.17	-0.000
190.64	-0.000
191.12	-0.000
191.59	-0.000
192.06	-0.000
192.53	-0.000
193.01	-0.000
193.48	-0.000
193.95	-0.000
194.42	-0.000
194.90	-0.000
195.37	-0.000
195.84	-0.000
196.31	-0.000
196.78	-0.000
197.26	-0.000
197.73	-0.000
198.20	-0.000
198.67	-0.000
199.14	-0.000
199.62	-0.000
200.09	-0.000
200.56	-0.000
201.03	-0.000
201.50	2.674
201.97	-0.000
202.45	-0.000
202.92	1.120
203.39	1.395
203.86	-0.000
204.33	2.367
204.80	-0.000
205.28	-0.000
205.75	-0.000
206.22	-0.000
206.69	1.140
207.16	-0.000
207.63	-0.000
208.11	0.912
208.58	1.440
209.05	-0.000
209.52	-0.000
209.99	1.160
210.46	-0.000
210.93	-0.000
211.41	1.606
211.88	1.047
212.35	-0.000
212.82	-0.000
213.29	-0.000
213.76	1.311
214.23	-0.000
214.70	-0.000
215.18	-0.000
215.65	2.266
216.12	2.090
216.59	1.119
217.06	1.084
217.53	-0.000
218.00	1.208
218.47	-0.000
218.94	-0.000
219.41	-0.000
219.89	-0.000
220.36	-0.000
220.83	-0.000
221.30	-0.000
221.77	2.558
222.24	1.315
222.71	-0.000
223.18	1.786
223.65	-0.000
224.12	-0.000
224.59	-0.000
225.06	-0.000
225.54	1.462
226.01	1.305
226.48	1.892
226.95	1.360
227.42	-0.000
227.89	-0.000
228.36	-0.000
228.83	2.193
229.30	2.216
229.77	-0.000
230.24	1.865
230.71	-0.000
231.18	-0.000
231.65	2.094
232.12	2.130
232.59	1.949
233.06	-0.000
233.53	-0.000
234.00	2.362
234.47	-0.000
234.94	-0.000
235.41	2.452
235.88	-0.000
236.35	-0.000
236.82	2.796
237.29	3.149
237.76	2.960
238.23	-0.000
238.70	3.048
239.17	2.385
239.64	3.689
240.11	3.375
240.58	-0.000
241.05	3.092
241.52	2.736
241.99	-0.000
242.46	2.691
242.93	-0.000
243.40	3.260
243.87	3.521
244.34	2.827
244.81	-0.000
245.28	-0.000
245.75	3.613
246.22	-0.000
246.69	-0.000
247.16	3.034
247.63	3.289
248.10	-0.000
248.57	-0.000
249.04	-0.000
249.51	3.137
249.98	-0.000
250.45	-0.000
250.92	3.310
251.39	4.415
251.85	3.351
252.32	-0.000
252.79	-0.000
253.26	-0.000
253.73	-0.000
254.20	-0.000
254.67	2.999
255.14	4.309
255.61	3.321
256.08	3.534
256.55	3.535
257.02	3.007
257.49	3.542
257.95	2.908
258.42	4.067
258.89	3.001
259.36	2.998
259.83	3.355
260.30	-0.000
260.77	-0.000
261.24	3.123
261.71	3.193
262.17	2.815
262.64	2.637
263.11	2.889
263.58	3.938
264.05	2.820
264.52	2.753
264.99	3.092
265.46	2.819
265.92	2.830
266.39	2.883
266.86	3.307
267.33	2.762
267.80	2.531
268.27	2.904
268.74	2.763
269.20	2.845
269.67	2.754
270.14	2.609
270.61	2.587
271.08	2.658
271.55	2.524
272.01	2.586
272.48	2.416
272.95	2.518
273.42	2.445
273.89	2.519
274.36	2.506
274.82	2.394
275.29	2.475
275.76	2.452
276.23	2.356
276.70	2.352
277.16	2.419
277.63	2.333
278.10	2.285
278.57	2.349
279.04	2.351
279.50	2.321
279.97	2.297
280.44	2.198
280.91	2.179
281.38	2.178
281.84	2.241
282.31	2.224
282.78	2.243
283.25	2.201
283.72	2.177
284.18	2.147
284.65	2.149
285.12	2.120
285.59	2.104
286.05	2.130
286.52	2.125
286.99	2.101
287.46	2.115
287.92	2.066
288.39	2.024
288.86	2.046
289.33	2.023
289.79	2.012
290.26	2.019
290.73	2.008
291.20	1.990
291.66	2.001
292.13	1.969
292.60	1.969
293.07	1.948
293.53	1.885
294.00	1.969
294.47	1.943
294.93	1.924
295.40	1.967
295.87	1.912
296.34	1.928
296.80	1.911
297.27	1.915
297.74	1.885
298.20	1.892
298.67	1.859
299.14	1.870
299.60	1.871
300.07	1.835
300.54	1.841
301.01	1.824
301.47	1.820
301.94	1.802
302.41	1.831
302.87	1.819
303.34	1.836
303.81	1.759
304.27	1.808
304.74	1.765
305.21	1.760
305.67	1.756
306.14	1.744
306.61	1.759
307.07	1.737
307.54	1.740
308.01	1.739
308.47	1.710
308.94	1.732
309.40	1.733
309.87	1.720
310.34	1.678
310.80	1.707
311.27	1.699
311.74	1.699
312.20	1.690
312.67	1.676
313.13	1.648
313.60	1.660
314.07	1.663
314.53	1.665
315.00	1.627
315.47	1.639
315.93	1.627
316.40	1.618
316.86	1.629
317.33	1.621
317.80	1.599
318.26	1.605
318.73	1.610
319.19	1.600
319.66	1.575
320.13	1.580
320.59	1.567
321.06	1.574
321.52	1.565
321.99	1.545
322.45	1.559
322.92	1.537
323.39	1.537
323.85	1.528
324.32	1.528
324.78	1.526
325.25	1.528
325.71	1.504
326.18	1.500
326.64	1.508
327.11	1.490
327.58	1.476
328.04	1.463
328.51	1.469
328.97	1.453
329.44	1.452
329.90	1.447
330.37	1.441
330.83	1.426
331.30	1.435
331.76	1.414
332.23	1.404
332.69	1.395
333.16	1.372
333.62	1.363
334.09	1.360
334.56	1.352
335.02	1.338
335.49	1.335
335.95	1.320
336.42	1.304
336.88	1.302
337.35	1.286
337.81	1.280
338.28	1.259
338.74	1.265
339.20	1.248
339.67	1.238
340.13	1.220
340.60	1.208
341.06	1.190
341.53	1.179
341.99	1.166
342.46	1.139
342.92	1.131
343.39	1.120
343.85	1.113
344.32	1.093
344.78	1.086
345.25	1.065
345.71	1.047
346.17	1.040
346.64	1.032
347.10	1.008
347.57	0.990
348.03	0.971
348.50	0.955
348.96	0.942
349.43	0.937
349.89	0.917
350.35	0.902
350.82	0.890
351.28	0.876
351.75	0.867
352.21	0.857
352.67	0.830
353.14	0.830
353.60	0.824
354.07	0.804
354.53	0.788
355.00	0.785
355.46	0.763
355.92	0.757
356.39	0.757
356.85	0.746
357.31	0.740
357.78	0.727
358.24	0.716
358.71	0.707
359.17	0.706
359.63	0.703
360.10	0.696
360.56	0.690
361.03	0.681
361.49	0.676
361.95	0.671
362.42	0.671
362.88	0.660
363.34	0.654
363.81	0.652
364.27	0.649
364.73	0.647
365.20	0.642
365.66	0.641
366.12	0.635
366.59	0.633
367.05	0.624
367.51	0.626
367.98	0.622
368.44	0.622
368.90	0.618
369.37	0.615
369.83	0.613
370.29	0.609
370.76	0.608
371.22	0.608
371.68	0.603
372.15	0.600
372.61	0.591
373.07	0.598
373.54	0.593
374.00	0.594
374.46	0.589
374.92	0.590
375.39	0.585
375.85	0.584
376.31	0.582
376.78	0.585
377.24	0.582
377.70	0.579
378.16	0.574
378.63	0.575
379.09	0.572
379.55	0.572
380.01	0.573
380.48	0.568
380.94	0.568
381.40	0.563
381.87	0.560
382.33	0.560
382.79	0.556
383.25	0.557
383.72	0.557
384.18	0.551
384.64	0.548
385.10	0.548
385.56	0.548
386.03	0.550
386.49	0.546
386.95	0.542
387.41	0.540
387.88	0.539
388.34	0.535
388.80	0.536
389.26	0.534
389.72	0.534
390.19	0.532
390.65	0.531
391.11	0.526
391.57	0.526
392.04	0.524
392.50	0.523
392.96	0.520
393.42	0.520
393.88	0.522
394.34	0.523
394.81	0.515
395.27	0.519
395.73	0.513
396.19	0.512
396.65	0.511
397.12	0.512
397.58	0.505
398.04	0.505
398.50	0.508
398.96	0.506
399.42	0.504
399.89	0.499
400.35	0.499
400.81	0.497
401.27	0.498
401.73	0.497
402.19	0.491
402.65	0.492
403.12	0.490
403.58	0.488
404.04	0.489
404.50	0.491
404.96	0.484
405.42	0.482
405.88	0.484
406.34	0.483
406.81	0.480
407.27	0.483
407.73	0.478
408.19	0.477
408.65	0.475
409.11	0.474
409.57	0.475
410.03	0.474
410.49	0.469
410.96	0.471
411.42	0.469
411.88	0.469
412.34	0.464
412.80	0.464
413.26	0.460
413.72	0.465
414.18	0.460
414.64	0.461
415.10	0.463
415.56	0.459
416.02	0.459
416.48	0.453
416.95	0.453
417.41	0.452
417.87	0.452
418.33	0.451
418.79	0.447
419.25	0.445
419.71	0.447
420.17	0.445
420.63	0.443
421.09	0.442
421.55	0.441
422.01	0.442
422.47	0.442
422.93	0.440
423.39	0.442
423.85	0.439
424.31	0.434
424.77	0.433
425.23	0.439
425.69	0.438
426.15	0.432
426.61	0.431
427.07	0.427
427.53	0.430
427.99	0.426
428.45	0.423
428.91	0.429
429.37	0.424
429.83	0.422
430.29	0.422
430.75	0.425
431.21	0.423
431.67	0.425
432.13	0.424
432.59	0.416
433.05	0.416
433.51	0.414
433.97	0.415
434.43	0.415
434.89	0.416
435.35	0.414
435.81	0.412
436.27	0.411
436.73	0.409
437.19	0.407
437.65	0.409
438.11	0.408
438.57	0.405
439.03	0.406
439.48	0.404
439.94	0.405
440.40	0.401
440.86	0.402
441.32	0.398
441.78	0.401
442.24	0.400
442.70	0.396
443.16	0.396
443.62	0.396
444.08	0.394
444.54	0.396
444.99	0.394
445.45	0.391
445.91	0.391
446.37	0.393
446.83	0.392
447.29	0.391
447.75	0.385
448.21	0.390
448.67	0.384
449.12	0.384
449.58	0.385
450.04	0.383
450.50	0.380
450.96	0.383
451.42	0.382
451.88	0.379
452.34	0.382
452.79	0.376
453.25	0.378
453.71	0.373
454.17	0.377
454.63	0.375
455.09	0.375
455.55	0.373
456.00	0.372
456.46	0.370
456.92	0.370
457.38	0.368
457.84	0.368
458.30	0.364
458.75	0.371
459.21	0.362
459.67	0.368
460.13	0.366
460.59	0.362
461.04	0.363
461.50	0.364
461.96	0.359
462.42	0.359
462.88	0.356
463.33	0.357
463.79	0.357
464.25	0.356
464.71	0.356
465.17	0.354
465.62	0.354
466.08	0.355
466.54	0.354
467.00	0.353
467.46	0.355
467.91	0.352
468.37	0.351
468.83	0.349
469.29	0.348
469.74	0.349
470.20	0.348
470.66	0.349
471.12	0.341
471.57	0.346
472.03	0.344
472.49	0.344
472.95	0.345
473.40	0.343
473.86	0.338
474.32	0.340
474.78	0.341
475.23	0.338
475.69	0.339
476.15	0.337
476.60	0.338
477.06	0.337
477.52	0.336
477.98	0.333
478.43	0.335
478.89	0.332
479.35	0.333
479.80	0.334
480.26	0.333
480.72	0.331
481.18	0.331
481.63	0.329
482.09	0.331
482.55	0.329
483.00	0.327
483.46	0.327
483.92	0.328
484.37	0.324
484.83	0.323
485.29	0.324
485.74	0.323
486.20	0.325
486.66	0.324
487.11	0.324
487.57	0.321
488.03	0.319
488.48	0.319
488.94	0.316
489.40	0.318
489.85	0.320
490.31	0.320
490.77	0.316
491.22	0.319
491.68	0.315
492.13	0.314
492.59	0.314
493.05	0.313
493.50	0.312
493.96	0.311
494.42	0.312
494.87	0.309
495.33	0.309
495.78	0.313
496.24	0.310
496.70	0.309
497.15	0.308
497.61	0.310
498.06	0.309
498.52	0.305
498.98	0.306
499.43	0.307
499.89	0.303
500.34	0.304
500.80	0.301
501.25	0.303
501.71	0.299
502.17	0.302
502.62	0.304
503.08	0.302
503.53	0.300
503.99	0.299
504.44	0.300
504.90	0.300
505.36	0.294
505.81	0.296
506.27	0.299
506.72	0.296
507.18	0.298
507.63	0.293
508.09	0.296
508.54	0.293
509.00	0.294
509.45	0.294
509.91	0.293
510.36	0.293
510.82	0.289
511.27	0.290
511.73	0.291
512.19	0.291
512.64	0.289
513.10	0.288
513.55	0.289
514.01	0.288
514.46	0.286
514.92	0.285
515.37	0.286
515.83	0.286
516.28	0.283
516.73	0.282
517.19	0.283
517.64	0.283
518.10	0.281
518.55	0.280
519.01	0.281
519.46	0.282
519.92	0.282
520.37	0.278
520.83	0.278
521.28	0.279
521.74	0.279
522.19	0.280
522.65	0.275
523.10	0.277
523.55	0.278
524.01	0.278
524.46	0.276
524.92	0.273
525.37	0.275
525.83	0.273
526.28	0.271
526.73	0.273
527.19	0.275
527.64	0.275
528.10	0.272
528.55	0.271
529.01	0.272
529.46	0.270
529.91	0.270
530.37	0.268
530.82	0.269
531.28	0.268
531.73	0.267
532.18	0.266
532.64	0.267
533.09	0.265
533.54	0.266
534.00	0.264
534.45	0.267
534.91	0.266
535.36	0.265
535.81	0.267
536.27	0.261
536.72	0.265
537.17	0.262
537.63	0.263
538.08	0.260
538.54	0.261
538.99	0.260
539.44	0.261
539.90	0.261
540.35	0.259
540.80	0.258
541.26	0.257
541.71	0.256
542.16	0.258
542.62	0.256
543.07	0.255
543.52	0.256
543.98	0.259
544.43	0.256
544.88	0.253
545.34	0.256
545.79	0.254
546.24	0.253
546.69	0.254
547.15	0.254
547.60	0.252
548.05	0.254
548.51	0.250
548.96	0.252
549.41	0.251
549.86	0.249
550.32	0.250
550.77	0.251
551.22	0.249
551.68	0.246
552.13	0.248
552.58	0.247
553.03	0.249
553.49	0.247
553.94	0.245
554.39	0.246
554.84	0.247
555.30	0.247
555.75	0.246
556.20	0.244
556.65	0.244
557.11	0.246
557.56	0.243
558.01	0.245
558.46	0.243
558.92	0.242
559.37	0.242
559.82	0.242
560.27	0.241
560.72	0.241
561.18	0.240
561.63	0.240
562.08	0.238
562.53	0.240
562.99	0.239
563.44	0.239
563.89	0.237
564.34	0.238
564.79	0.237
565.25	0.236
565.70	0.238
566.15	0.236
566.60	0.233
567.05	0.236
567.50	0.235
567.96	0.234
568.41	0.233
568.86	0.234
569.31	0.230
569.76	0.231
570.21	0.232
570.67	0.231
571.12	0.232
571.57	0.229
572.02	0.230
572.47	0.230
572.92	0.229
573.37	0.228
573.83	0.226
574.28	0.226
574.73	0.227
575.18	0.228
575.63	0.229
576.08	0.223
576.53	0.225
576.98	0.229
577.44	0.224
577.89	0.226
578.34	0.224
578.79	0.224
579.24	0.224
579.69	0.223
580.14	0.221
580.59	0.221
581.04	0.220
581.49	0.221
581.95	0.222
582.40	0.221
582.85	0.220
583.30	0.219
583.75	0.219
584.20	0.220
584.65	0.220
585.10	0.218
585.55	0.219
586.00	0.219
586.45	0.219
586.90	0.219
587.35	0.218
587.80	0.217
588.25	0.217
588.71	0.218
589.16	0.215
589.61	0.216
590.06	0.215
590.51	0.216
590.96	0.214
591.41	0.214
591.86	0.214
592.31	0.214
592.76	0.214
593.21	0.215
593.66	0.215
594.11	0.213
594.56	0.211
595.01	0.214
595.46	0.212
595.91	0.212
596.36	0.211
596.81	0.209
597.26	0.211
597.71	0.212
598.16	0.209
598.61	0.211
599.06	0.211
599.51	0.210
599.96	0.212
600.41	0.210
600.86	0.210
601.31	0.209
601.76	0.209
602.21	0.209
602.65	0.208
603.10	0.206
603.55	0.207
604.00	0.206
604.45	0.206
604.90	0.205
605.35	0.205
605.80	0.206
606.25	0.206
606.70	0.206
607.15	0.205
607.60	0.204
608.05	0.203
608.50	0.204
608.95	0.203
609.39	0.204
609.84	0.204
610.29	0.201
610.74	0.201
611.19	0.202
611.64	0.201
612.09	0.201
612.54	0.201
612.99	0.203
613.44	0.199
613.88	0.202
614.33	0.200
614.78	0.198
615.23	0.198
615.68	0.197
616.13	0.198
616.58	0.197
617.03	0.198
617.47	0.198
617.92	0.198
618.37	0.198
618.82	0.197
619.27	0.196
619.72	0.196
620.17	0.193
620.61	0.193
621.06	0.193
621.51	0.196
621.96	0.193
622.41	0.196
622.86	0.194
623.30	0.193
623.75	0.196
624.20	0.194
624.65	0.192
625.10	0.195
625.54	0.191
625.99	0.191
626.44	0.192
626.89	0.191
627.34	0.194
627.78	0.191
628.23	0.189
628.68	0.189
629.13	0.189
629.58	0.190
630.02	0.190
630.47	0.190
630.92	0.189
631.37	0.189
631.81	0.190
632.26	0.188
632.71	0.187
633.16	0.187
633.61	0.189
634.05	0.185
634.50	0.186
634.95	0.187
635.40	0.186
635.84	0.188
636.29	0.187
636.74	0.188
637.18	0.188
637.63	0.186
638.08	0.185
638.53	0.183
638.97	0.186
639.42	0.186
639.87	0.185
640.32	0.185
640.76	0.185
641.21	0.184
641.66	0.183
642.10	0.184
642.55	0.182
643.00	0.182
643.44	0.183
643.89	0.184
644.34	0.182
644.79	0.182
645.23	0.182
645.68	0.182
646.13	0.180
646.57	0.182
647.02	0.181
647.47	0.184
647.91	0.180
648.36	0.180
648.81	0.183
649.25	0.179
649.70	0.179
650.15	0.178
650.59	0.178
651.04	0.180
651.48	0.182
651.93	0.180
652.38	0.178
652.82	0.179
653.27	0.178
653.72	0.178
654.16	0.176
654.61	0.178
655.06	0.178
655.50	0.174
655.95	0.174
656.39	0.169
656.84	0.172
657.29	0.178
657.73	0.175
658.18	0.175
658.62	0.177
659.07	0.175
659.52	0.175
659.96	0.174
660.41	0.177
660.85	0.173
661.30	0.173
661.74	0.175
662.19	0.173
662.64	0.174
663.08	0.173
663.53	0.171
663.97	0.172
664.42	0.172
664.86	0.174
665.31	0.174
665.75	0.172
666.20	0.172
666.65	0.171
667.09	0.173
667.54	0.172
667.98	0.170
668.43	0.169
668.87	0.169
669.32	0.169
669.76	0.168
670.21	0.169
670.65	0.167
671.10	0.169
671.54	0.170
671.99	0.170
672.43	0.167
672.88	0.169
673.32	0.167
673.77	0.167
674.21	0.167
674.66	0.166
675.10	0.168
675.55	0.166
675.99	0.168
676.44	0.167
676.88	0.168
677.33	0.168
677.77	0.166
678.22	0.163
678.66	0.164
679.11	0.165
679.55	0.166
679.99	0.164
680.44	0.166
680.88	0.165
681.33	0.165
681.77	0.163
682.22	0.163
682.66	0.163
683.11	0.163
683.55	0.164
683.99	0.164
684.44	0.161
684.88	0.161
685.33	0.162
685.77	0.162
686.21	0.162
686.66	0.161
687.10	0.160
687.55	0.158
687.99	0.162
688.44	0.161
688.88	0.160
689.32	0.160
689.77	0.159
690.21	0.159
690.65	0.160
691.10	0.161
691.54	0.159
691.99	0.159
692.43	0.158
692.87	0.157
693.32	0.159
693.76	0.157
694.20	0.159
694.65	0.157
695.09	0.160
695.53	0.156
695.98	0.159
696.42	0.159
696.86	0.156
697.31	0.153
697.75	0.156
698.19	0.155
698.64	0.156
699.08	0.157
699.52	0.154
699.97	0.157
700.41	0.155
700.85	0.156
701.30	0.154
701.74	0.154
702.18	0.155
702.63	0.154
703.07	0.156
703.51	0.156
703.96	0.153
704.40	0.153
704.84	0.155
705.28	0.155
705.73	0.153
706.17	0.154
706.61	0.154
707.06	0.154
707.50	0.153
707.94	0.154
708.38	0.152
708.83	0.155
709.27	0.153
709.71	0.154
710.15	0.152
710.60	0.151
711.04	0.151
711.48	0.156
711.92	0.153
712.37	0.151
712.81	0.154
713.25	0.152
713.69	0.152
714.13	0.155
714.58	0.152
715.02	0.153
715.46	0.151
715.90	0.151
716.35	0.151
716.79	0.154
717.23	0.151
717.67	0.153
718.11	0.153
718.56	0.151
719.00	0.153
719.44	0.153
719.88	0.151
720.32	0.148
720.76	0.152
721.21	0.150
721.65	0.148
722.09	0.151
722.53	0.151
722.97	0.151
723.41	0.150
723.86	0.151
724.30	0.152
724.74	0.151
725.18	0.150
725.62	0.151
726.06	0.149
726.50	0.149
726.95	0.148
727.39	0.150
727.83	0.149
728.27	0.151
728.71	0.148
729.15	0.150
729.59	0.151
730.03	0.147
730.48	0.150
730.92	0.147
731.36	0.151
731.80	0.149
732.24	0.151
732.68	0.148
733.12	0.148
733.56	0.150
734.00	0.149
734.44	0.149
734.89	0.148
735.33	0.151
735.77	0.152
736.21	0.152
736.65	0.148
737.09	0.152
737.53	0.150
737.97	0.148
738.41	0.148
738.85	0.153
739.29	0.152
739.73	0.149
740.17	0.150
740.61	0.149
741.05	0.149
741.49	0.152
741.93	0.150
742.37	0.149
742.81	0.148
743.26	0.151
743.70	0.148
744.14	0.149
744.58	0.148
745.02	0.148
745.46	0.147
745.90	0.148
746.34	0.148
746.78	0.147
747.22	0.149
747.66	0.148
748.10	0.148
748.54	0.147
748.98	0.147
749.42	0.147
749.86	0.147
750.29	0.146
750.73	0.147
751.17	0.145
751.61	0.143
752.05	0.146
752.49	0.145
752.93	0.146
753.37	0.145
753.81	0.145
754.25	0.142
754.69	0.146
755.13	0.143
755.57	0.146
756.01	0.148
756.45	0.145
756.89	0.145
757.33	0.146
757.77	0.145
758.21	0.143
758.64	0.144
759.08	0.140
759.52	0.143
759.96	0.145
760.40	0.142
760.84	0.143
761.28	0.141
761.72	0.144
762.16	0.143
762.60	0.144
763.03	0.140
763.47	0.139
763.91	0.143
764.35	0.142
764.79	0.143
765.23	0.139
765.67	0.137
766.11	0.137
766.54	0.138
766.98	0.141
767.42	0.142
767.86	0.139
768.30	0.140
768.74	0.143
769.17	0.142
769.61	0.143
770.05	0.140
770.49	0.142
770.93	0.142
771.37	0.136
771.80	0.138
772.24	0.138
772.68	0.137
773.12	0.138
773.56	0.139
774.00	0.138
774.43	0.135
774.87	0.139
775.31	0.138
775.75	0.139
776.19	0.138
776.62	0.138
777.06	0.140
777.50	0.139
777.94	0.140
778.37	0.136
778.81	0.137
779.25	0.138
779.69	0.137
780.13	0.140
780.56	0.138
781.00	0.136
781.44	0.138
781.88	0.136
782.31	0.135
782.75	0.134
783.19	0.137
783.63	0.135
784.06	0.136
784.50	0.138
784.94	0.137
785.37	0.139
785.81	0.138
786.25	0.133
786.69	0.136
787.12	0.135
787.56	0.134
788.00	0.137
788.43	0.135
788.87	0.136
789.31	0.136
789.75	0.137
790.18	0.132
790.62	0.135
791.06	0.134
791.49	0.132
791.93	0.133
792.37	0.136
792.80	0.134
793.24	0.131
793.68	0.133
794.11	0.134
794.55	0.135
794.99	0.134
795.42	0.134
795.86	0.136
796.30	0.131
796.73	0.133
797.17	0.132
797.61	0.127
798.04	0.133
798.48	0.134
798.91	0.131
799.35	0.132
799.79	0.137
800.22	0.132
800.66	0.130
801.10	0.134
801.53	0.129
801.97	0.135
802.40	0.133
802.84	0.135
803.28	0.129
803.71	0.131
804.15	0.129
804.58	0.132
805.02	0.134
805.46	0.134
805.89	0.132
806.33	0.132
806.76	0.132
807.20	0.131
807.63	0.131
808.07	0.135
808.51	0.130
808.94	0.125
809.38	0.130
809.81	0.128
810.25	0.134
810.68	0.131
811.12	0.129
811.55	0.132
811.99	0.130
812.42	0.133
812.86	0.129
813.29	0.131
813.73	0.131
814.17	0.127
814.60	0.128
815.04	0.130
