SpectraSuite Data File
++++++++++++++++++++++++++++++++++++
Date: Sun Apr 24 12:52:58 CEST 2016
User: spectrasuite
Dark Spectrum Present: Yes
Reference Spectrum Present: Yes
Number of Sampled Component Spectra: 1
Spectrometers: HR+C0708
Integration Time (usec): 1000 (HR+C0708)
Spectra Averaged: 10 (HR+C0708)
Boxcar Smoothing: 0 (HR+C0708)
Correct for Electrical Dark: No (HR+C0708)
Strobe/Lamp Enabled: No (HR+C0708)
Correct for Detector Non-linearity: No (HR+C0708)
Correct for Stray Light: No (HR+C0708)
Number of Pixels in Processed Spectrum: 2048
>>>>>Begin Processed Spectral Data<<<<<
188.76	0.436
189.23	0.691
189.70	0.423
190.17	1.283
190.64	-0.000
191.12	0.903
191.59	1.531
192.06	-0.000
192.53	-0.000
193.01	-0.000
193.48	1.082
193.95	-0.000
194.42	-0.000
194.90	0.249
195.37	-0.000
195.84	-0.000
196.31	0.974
196.78	1.383
197.26	1.663
197.73	-0.000
198.20	0.602
198.67	-0.000
199.14	0.521
199.62	0.670
200.09	0.317
200.56	0.804
201.03	0.662
201.50	0.464
201.97	0.575
202.45	0.588
202.92	0.488
203.39	0.502
203.86	0.583
204.33	0.464
204.80	0.463
205.28	0.583
205.75	0.569
206.22	0.696
206.69	0.634
207.16	0.422
207.63	0.493
208.11	0.547
208.58	0.499
209.05	0.573
209.52	0.633
209.99	0.438
210.46	0.540
210.93	0.703
211.41	0.590
211.88	0.705
212.35	0.676
212.82	0.700
213.29	0.567
213.76	0.638
214.23	0.794
214.70	0.610
215.18	0.481
215.65	0.451
216.12	0.367
216.59	0.660
217.06	0.458
217.53	0.535
218.00	0.763
218.47	0.561
218.94	0.491
219.41	0.793
219.89	0.783
220.36	0.634
220.83	0.582
221.30	0.719
221.77	0.766
222.24	0.529
222.71	0.829
223.18	0.946
223.65	0.737
224.12	0.889
224.59	1.373
225.06	0.895
225.54	0.750
226.01	0.782
226.48	1.156
226.95	0.967
227.42	1.199
227.89	1.622
228.36	1.068
228.83	1.392
229.30	1.204
229.77	1.392
230.24	1.265
230.71	1.306
231.18	1.433
231.65	1.500
232.12	1.437
232.59	1.598
233.06	1.707
233.53	1.875
234.00	1.587
234.47	1.809
234.94	2.459
235.41	1.871
235.88	1.887
236.35	2.121
236.82	1.878
237.29	1.902
237.76	2.011
238.23	2.142
238.70	2.183
239.17	1.964
239.64	2.230
240.11	2.360
240.58	2.184
241.05	2.132
241.52	2.244
241.99	2.264
242.46	2.135
242.93	2.364
243.40	2.269
243.87	2.202
244.34	2.195
244.81	2.444
245.28	2.640
245.75	2.442
246.22	2.303
246.69	2.605
247.16	2.480
247.63	2.212
248.10	2.322
248.57	2.755
249.04	2.477
249.51	2.496
249.98	2.450
250.45	2.552
250.92	2.314
251.39	2.320
251.85	2.534
252.32	3.107
252.79	2.490
253.26	2.544
253.73	2.576
254.20	2.594
254.67	2.514
255.14	2.574
255.61	2.667
256.08	2.501
256.55	2.775
257.02	2.658
257.49	2.791
257.95	2.516
258.42	2.775
258.89	2.636
259.36	2.533
259.83	2.625
260.30	3.112
260.77	2.990
261.24	2.613
261.71	2.692
262.17	2.749
262.64	2.619
263.11	2.734
263.58	2.922
264.05	2.796
264.52	2.550
264.99	2.671
265.46	2.653
265.92	2.795
266.39	2.631
266.86	2.920
267.33	2.817
267.80	2.607
268.27	2.761
268.74	2.765
269.20	2.768
269.67	2.666
270.14	2.557
270.61	2.733
271.08	2.749
271.55	2.571
272.01	2.547
272.48	2.619
272.95	2.518
273.42	2.667
273.89	2.609
274.36	2.690
274.82	2.441
275.29	2.491
275.76	2.603
276.23	2.540
276.70	2.514
277.16	2.518
277.63	2.515
278.10	2.462
278.57	2.439
279.04	2.565
279.50	2.574
279.97	2.393
280.44	2.433
280.91	2.452
281.38	2.485
281.84	2.531
282.31	2.456
282.78	2.745
283.25	2.513
283.72	2.439
284.18	2.605
284.65	2.584
285.12	2.481
285.59	2.404
286.05	2.574
286.52	2.527
286.99	2.492
287.46	2.471
287.92	2.461
288.39	2.411
288.86	2.475
289.33	2.533
289.79	2.536
290.26	2.459
290.73	2.455
291.20	2.460
291.66	2.418
292.13	2.550
292.60	2.457
293.07	2.426
293.53	2.308
294.00	2.416
294.47	2.519
294.93	2.454
295.40	2.453
295.87	2.465
296.34	2.507
296.80	2.359
297.27	2.439
297.74	2.380
298.20	2.472
298.67	2.405
299.14	2.410
299.60	2.465
300.07	2.329
300.54	2.448
301.01	2.412
301.47	2.363
301.94	2.312
302.41	2.390
302.87	2.406
303.34	2.429
303.81	2.293
304.27	2.295
304.74	2.316
305.21	2.318
305.67	2.269
306.14	2.309
306.61	2.352
307.07	2.222
307.54	2.261
308.01	2.315
308.47	2.403
308.94	2.394
309.40	2.414
309.87	2.383
310.34	2.244
310.80	2.285
311.27	2.344
311.74	2.254
312.20	2.316
312.67	2.312
313.13	2.235
313.60	2.387
314.07	2.249
314.53	2.241
315.00	2.191
315.47	2.226
315.93	2.236
316.40	2.214
316.86	2.198
317.33	2.176
317.80	2.138
318.26	2.173
318.73	2.137
319.19	2.079
319.66	2.065
320.13	2.021
320.59	1.991
321.06	1.957
321.52	1.942
321.99	1.892
322.45	1.812
322.92	1.780
323.39	1.753
323.85	1.700
324.32	1.639
324.78	1.589
325.25	1.520
325.71	1.456
326.18	1.394
326.64	1.351
327.11	1.278
327.58	1.211
328.04	1.158
328.51	1.091
328.97	1.039
329.44	0.969
329.90	0.914
330.37	0.858
330.83	0.803
331.30	0.752
331.76	0.708
332.23	0.657
332.69	0.609
333.16	0.569
333.62	0.523
334.09	0.489
334.56	0.454
335.02	0.416
335.49	0.384
335.95	0.354
336.42	0.325
336.88	0.301
337.35	0.280
337.81	0.260
338.28	0.245
338.74	0.229
339.20	0.213
339.67	0.201
340.13	0.184
340.60	0.175
341.06	0.160
341.53	0.153
341.99	0.147
342.46	0.138
342.92	0.130
343.39	0.123
343.85	0.120
344.32	0.115
344.78	0.112
345.25	0.109
345.71	0.110
346.17	0.108
346.64	0.104
347.10	0.099
347.57	0.095
348.03	0.090
348.50	0.087
348.96	0.084
349.43	0.087
349.89	0.086
350.35	0.080
350.82	0.082
351.28	0.085
351.75	0.081
352.21	0.080
352.67	0.078
353.14	0.078
353.60	0.077
354.07	0.077
354.53	0.073
355.00	0.076
355.46	0.073
355.92	0.073
356.39	0.071
356.85	0.070
357.31	0.070
357.78	0.069
358.24	0.066
358.71	0.068
359.17	0.066
359.63	0.066
360.10	0.064
360.56	0.065
361.03	0.066
361.49	0.064
361.95	0.065
362.42	0.063
362.88	0.063
363.34	0.061
363.81	0.062
364.27	0.061
364.73	0.062
365.20	0.061
365.66	0.061
366.12	0.060
366.59	0.060
367.05	0.061
367.51	0.061
367.98	0.059
368.44	0.058
368.90	0.060
369.37	0.062
369.83	0.057
370.29	0.061
370.76	0.060
371.22	0.059
371.68	0.059
372.15	0.057
372.61	0.056
373.07	0.056
373.54	0.057
374.00	0.058
374.46	0.058
374.92	0.055
375.39	0.055
375.85	0.055
376.31	0.057
376.78	0.055
377.24	0.057
377.70	0.056
378.16	0.052
378.63	0.054
379.09	0.054
379.55	0.053
380.01	0.053
380.48	0.054
380.94	0.053
381.40	0.052
381.87	0.053
382.33	0.052
382.79	0.051
383.25	0.054
383.72	0.056
384.18	0.054
384.64	0.052
385.10	0.051
385.56	0.053
386.03	0.052
386.49	0.053
386.95	0.052
387.41	0.053
387.88	0.052
388.34	0.053
388.80	0.052
389.26	0.052
389.72	0.054
390.19	0.053
390.65	0.052
391.11	0.052
391.57	0.054
392.04	0.052
392.50	0.050
392.96	0.050
393.42	0.049
393.88	0.052
394.34	0.050
394.81	0.052
395.27	0.050
395.73	0.050
396.19	0.051
396.65	0.050
397.12	0.050
397.58	0.050
398.04	0.050
398.50	0.049
398.96	0.048
399.42	0.051
399.89	0.046
400.35	0.048
400.81	0.047
401.27	0.047
401.73	0.046
402.19	0.046
402.65	0.047
403.12	0.046
403.58	0.045
404.04	0.047
404.50	0.046
404.96	0.045
405.42	0.046
405.88	0.045
406.34	0.043
406.81	0.042
407.27	0.043
407.73	0.043
408.19	0.041
408.65	0.043
409.11	0.043
409.57	0.044
410.03	0.042
410.49	0.042
410.96	0.041
411.42	0.044
411.88	0.041
412.34	0.040
412.80	0.042
413.26	0.039
413.72	0.039
414.18	0.040
414.64	0.036
415.10	0.041
415.56	0.040
416.02	0.041
416.48	0.039
416.95	0.037
417.41	0.039
417.87	0.037
418.33	0.039
418.79	0.038
419.25	0.040
419.71	0.036
420.17	0.039
420.63	0.039
421.09	0.037
421.55	0.036
422.01	0.039
422.47	0.038
422.93	0.038
423.39	0.038
423.85	0.038
424.31	0.038
424.77	0.036
425.23	0.040
425.69	0.040
426.15	0.038
426.61	0.040
427.07	0.036
427.53	0.039
427.99	0.036
428.45	0.039
428.91	0.041
429.37	0.038
429.83	0.036
430.29	0.036
430.75	0.038
431.21	0.038
431.67	0.038
432.13	0.038
432.59	0.037
433.05	0.040
433.51	0.037
433.97	0.037
434.43	0.036
434.89	0.040
435.35	0.039
435.81	0.038
436.27	0.038
436.73	0.038
437.19	0.036
437.65	0.039
438.11	0.037
438.57	0.038
439.03	0.040
439.48	0.038
439.94	0.036
440.40	0.038
440.86	0.042
441.32	0.039
441.78	0.040
442.24	0.038
442.70	0.037
443.16	0.037
443.62	0.037
444.08	0.038
444.54	0.041
444.99	0.038
445.45	0.039
445.91	0.040
446.37	0.041
446.83	0.039
447.29	0.039
447.75	0.039
448.21	0.042
448.67	0.039
449.12	0.039
449.58	0.040
450.04	0.037
450.50	0.043
450.96	0.042
451.42	0.039
451.88	0.036
452.34	0.042
452.79	0.038
453.25	0.043
453.71	0.039
454.17	0.040
454.63	0.044
455.09	0.041
455.55	0.041
456.00	0.042
456.46	0.041
456.92	0.042
457.38	0.042
457.84	0.041
458.30	0.041
458.75	0.041
459.21	0.040
459.67	0.044
460.13	0.041
460.59	0.042
461.04	0.040
461.50	0.043
461.96	0.043
462.42	0.043
462.88	0.042
463.33	0.043
463.79	0.041
464.25	0.042
464.71	0.041
465.17	0.042
465.62	0.041
466.08	0.043
466.54	0.042
467.00	0.043
467.46	0.044
467.91	0.042
468.37	0.043
468.83	0.043
469.29	0.044
469.74	0.044
470.20	0.044
470.66	0.042
471.12	0.042
471.57	0.044
472.03	0.044
472.49	0.043
472.95	0.045
473.40	0.045
473.86	0.044
474.32	0.042
474.78	0.046
475.23	0.043
475.69	0.044
476.15	0.043
476.60	0.046
477.06	0.046
477.52	0.045
477.98	0.044
478.43	0.045
478.89	0.045
479.35	0.045
479.80	0.047
480.26	0.049
480.72	0.048
481.18	0.048
481.63	0.047
482.09	0.046
482.55	0.048
483.00	0.048
483.46	0.048
483.92	0.047
484.37	0.048
484.83	0.046
485.29	0.047
485.74	0.049
486.20	0.048
486.66	0.049
487.11	0.048
487.57	0.046
488.03	0.045
488.48	0.048
488.94	0.045
489.40	0.048
489.85	0.047
490.31	0.049
490.77	0.049
491.22	0.048
491.68	0.047
492.13	0.048
492.59	0.050
493.05	0.049
493.50	0.049
493.96	0.048
494.42	0.049
494.87	0.048
495.33	0.048
495.78	0.051
496.24	0.050
496.70	0.048
497.15	0.049
497.61	0.049
498.06	0.050
498.52	0.048
498.98	0.048
499.43	0.050
499.89	0.051
500.34	0.049
500.80	0.050
501.25	0.050
501.71	0.049
502.17	0.050
502.62	0.052
503.08	0.051
503.53	0.048
503.99	0.048
504.44	0.050
504.90	0.048
505.36	0.048
505.81	0.050
506.27	0.049
506.72	0.049
507.18	0.050
507.63	0.048
508.09	0.050
508.54	0.048
509.00	0.049
509.45	0.050
509.91	0.049
510.36	0.048
510.82	0.048
511.27	0.048
511.73	0.049
512.19	0.048
512.64	0.048
513.10	0.047
513.55	0.050
514.01	0.049
514.46	0.049
514.92	0.048
515.37	0.051
515.83	0.050
516.28	0.048
516.73	0.048
517.19	0.049
517.64	0.047
518.10	0.048
518.55	0.047
519.01	0.047
519.46	0.047
519.92	0.050
520.37	0.047
520.83	0.048
521.28	0.050
521.74	0.050
522.19	0.051
522.65	0.048
523.10	0.049
523.55	0.049
524.01	0.051
524.46	0.050
524.92	0.049
525.37	0.048
525.83	0.048
526.28	0.050
526.73	0.051
527.19	0.053
527.64	0.052
528.10	0.049
528.55	0.051
529.01	0.053
529.46	0.051
529.91	0.052
530.37	0.050
530.82	0.052
531.28	0.051
531.73	0.050
532.18	0.053
532.64	0.053
533.09	0.052
533.54	0.053
534.00	0.052
534.45	0.056
534.91	0.056
535.36	0.058
535.81	0.054
536.27	0.054
536.72	0.056
537.17	0.057
537.63	0.057
538.08	0.055
538.54	0.058
538.99	0.057
539.44	0.060
539.90	0.059
540.35	0.059
540.80	0.059
541.26	0.061
541.71	0.059
542.16	0.060
542.62	0.061
543.07	0.063
543.52	0.063
543.98	0.065
544.43	0.064
544.88	0.064
545.34	0.066
545.79	0.067
546.24	0.066
546.69	0.068
547.15	0.067
547.60	0.068
548.05	0.070
548.51	0.069
548.96	0.069
549.41	0.072
549.86	0.072
550.32	0.072
550.77	0.077
551.22	0.075
551.68	0.073
552.13	0.075
552.58	0.075
553.03	0.077
553.49	0.080
553.94	0.079
554.39	0.080
554.84	0.082
555.30	0.083
555.75	0.082
556.20	0.083
556.65	0.084
557.11	0.086
557.56	0.085
558.01	0.088
558.46	0.091
558.92	0.087
559.37	0.091
559.82	0.091
560.27	0.092
560.72	0.092
561.18	0.093
561.63	0.094
562.08	0.093
562.53	0.098
562.99	0.099
563.44	0.100
563.89	0.099
564.34	0.102
564.79	0.101
565.25	0.102
565.70	0.103
566.15	0.106
566.60	0.105
567.05	0.107
567.50	0.108
567.96	0.109
568.41	0.109
568.86	0.110
569.31	0.111
569.76	0.111
570.21	0.114
570.67	0.116
571.12	0.117
571.57	0.120
572.02	0.118
572.47	0.121
572.92	0.121
573.37	0.124
573.83	0.123
574.28	0.126
574.73	0.127
575.18	0.129
575.63	0.130
576.08	0.131
576.53	0.134
576.98	0.135
577.44	0.134
577.89	0.138
578.34	0.140
578.79	0.140
579.24	0.141
579.69	0.143
580.14	0.146
580.59	0.147
581.04	0.148
581.49	0.151
581.95	0.153
582.40	0.155
582.85	0.157
583.30	0.159
583.75	0.162
584.20	0.163
584.65	0.165
585.10	0.168
585.55	0.172
586.00	0.171
586.45	0.175
586.90	0.178
587.35	0.180
587.80	0.182
588.25	0.185
588.71	0.188
589.16	0.192
589.61	0.193
590.06	0.195
590.51	0.200
590.96	0.203
591.41	0.206
591.86	0.207
592.31	0.210
592.76	0.213
593.21	0.217
593.66	0.223
594.11	0.224
594.56	0.225
595.01	0.231
595.46	0.233
595.91	0.236
596.36	0.239
596.81	0.242
597.26	0.247
597.71	0.249
598.16	0.252
598.61	0.257
599.06	0.260
599.51	0.264
599.96	0.265
600.41	0.269
600.86	0.273
601.31	0.276
601.76	0.280
602.21	0.286
602.65	0.287
603.10	0.288
603.55	0.291
604.00	0.295
604.45	0.298
604.90	0.301
605.35	0.303
605.80	0.306
606.25	0.314
606.70	0.312
607.15	0.316
607.60	0.318
608.05	0.320
608.50	0.322
608.95	0.323
609.39	0.331
609.84	0.333
610.29	0.332
610.74	0.335
611.19	0.334
611.64	0.337
612.09	0.339
612.54	0.341
612.99	0.343
613.44	0.345
613.88	0.350
614.33	0.348
614.78	0.347
615.23	0.348
615.68	0.348
616.13	0.352
616.58	0.350
617.03	0.354
617.47	0.355
617.92	0.355
618.37	0.355
618.82	0.357
619.27	0.358
619.72	0.358
620.17	0.358
620.61	0.356
621.06	0.361
621.51	0.360
621.96	0.359
622.41	0.362
622.86	0.361
623.30	0.360
623.75	0.364
624.20	0.363
624.65	0.366
625.10	0.365
625.54	0.366
625.99	0.367
626.44	0.368
626.89	0.371
627.34	0.374
627.78	0.372
628.23	0.371
628.68	0.376
629.13	0.377
629.58	0.379
630.02	0.381
630.47	0.384
630.92	0.383
631.37	0.385
631.81	0.390
632.26	0.393
632.71	0.393
633.16	0.396
633.61	0.399
634.05	0.401
634.50	0.405
634.95	0.409
635.40	0.414
635.84	0.416
636.29	0.419
636.74	0.423
637.18	0.428
637.63	0.428
638.08	0.434
638.53	0.436
638.97	0.440
639.42	0.446
639.87	0.453
640.32	0.454
640.76	0.458
641.21	0.464
641.66	0.469
642.10	0.475
642.55	0.477
643.00	0.481
643.44	0.490
643.89	0.492
644.34	0.497
644.79	0.505
645.23	0.512
645.68	0.516
646.13	0.523
646.57	0.528
647.02	0.531
647.47	0.541
647.91	0.545
648.36	0.550
648.81	0.553
649.25	0.561
649.70	0.566
650.15	0.572
650.59	0.580
651.04	0.582
651.48	0.592
651.93	0.594
652.38	0.599
652.82	0.606
653.27	0.610
653.72	0.616
654.16	0.619
654.61	0.625
655.06	0.631
655.50	0.635
655.95	0.638
656.39	0.640
656.84	0.645
657.29	0.651
657.73	0.656
658.18	0.663
658.62	0.666
659.07	0.671
659.52	0.676
659.96	0.677
660.41	0.681
660.85	0.685
661.30	0.687
661.74	0.692
662.19	0.694
662.64	0.696
663.08	0.701
663.53	0.704
663.97	0.707
664.42	0.703
664.86	0.711
665.31	0.707
665.75	0.707
666.20	0.713
666.65	0.712
667.09	0.712
667.54	0.710
667.98	0.706
668.43	0.702
668.87	0.704
669.32	0.699
669.76	0.698
670.21	0.693
670.65	0.689
671.10	0.685
671.54	0.678
671.99	0.670
672.43	0.660
672.88	0.654
673.32	0.646
673.77	0.635
674.21	0.628
674.66	0.614
675.10	0.604
675.55	0.592
675.99	0.587
676.44	0.572
676.88	0.560
677.33	0.549
677.77	0.535
678.22	0.519
678.66	0.508
679.11	0.491
679.55	0.484
679.99	0.466
680.44	0.454
680.88	0.440
681.33	0.426
681.77	0.412
682.22	0.398
682.66	0.384
683.11	0.373
683.55	0.360
683.99	0.346
684.44	0.333
684.88	0.322
685.33	0.309
685.77	0.297
686.21	0.285
686.66	0.275
687.10	0.264
687.55	0.253
687.99	0.243
688.44	0.235
688.88	0.225
689.32	0.217
689.77	0.205
690.21	0.196
690.65	0.190
691.10	0.182
691.54	0.173
691.99	0.166
692.43	0.158
692.87	0.153
693.32	0.146
693.76	0.141
694.20	0.137
694.65	0.128
695.09	0.125
695.53	0.117
695.98	0.115
696.42	0.110
696.86	0.104
697.31	0.099
697.75	0.097
698.19	0.093
698.64	0.090
699.08	0.086
699.52	0.083
699.97	0.082
700.41	0.077
700.85	0.073
701.30	0.070
701.74	0.069
702.18	0.068
702.63	0.065
703.07	0.063
703.51	0.063
703.96	0.057
704.40	0.056
704.84	0.056
705.28	0.051
705.73	0.050
706.17	0.052
706.61	0.048
707.06	0.047
707.50	0.047
707.94	0.045
708.38	0.043
708.83	0.044
709.27	0.042
709.71	0.042
710.15	0.042
710.60	0.039
711.04	0.037
711.48	0.039
711.92	0.038
712.37	0.037
712.81	0.038
713.25	0.034
713.69	0.034
714.13	0.038
714.58	0.034
715.02	0.032
715.46	0.032
715.90	0.032
716.35	0.032
716.79	0.032
717.23	0.032
717.67	0.032
718.11	0.032
718.56	0.030
719.00	0.031
719.44	0.031
719.88	0.029
720.32	0.029
720.76	0.032
721.21	0.028
721.65	0.029
722.09	0.029
722.53	0.028
722.97	0.027
723.41	0.029
723.86	0.029
724.30	0.030
724.74	0.029
725.18	0.027
725.62	0.026
726.06	0.028
726.50	0.026
726.95	0.028
727.39	0.031
727.83	0.028
728.27	0.027
728.71	0.028
729.15	0.030
729.59	0.029
730.03	0.027
730.48	0.029
730.92	0.027
731.36	0.030
731.80	0.029
732.24	0.030
732.68	0.026
733.12	0.028
733.56	0.029
734.00	0.030
734.44	0.029
734.89	0.029
735.33	0.030
735.77	0.032
736.21	0.030
736.65	0.030
737.09	0.031
737.53	0.032
737.97	0.033
738.41	0.031
738.85	0.034
739.29	0.031
739.73	0.029
740.17	0.030
740.61	0.030
741.05	0.033
741.49	0.032
741.93	0.031
742.37	0.030
742.81	0.029
743.26	0.031
743.70	0.032
744.14	0.029
744.58	0.030
745.02	0.032
745.46	0.031
745.90	0.031
746.34	0.030
746.78	0.031
747.22	0.029
747.66	0.031
748.10	0.031
748.54	0.031
748.98	0.029
749.42	0.029
749.86	0.031
750.29	0.027
750.73	0.028
751.17	0.028
751.61	0.027
752.05	0.032
752.49	0.028
752.93	0.028
753.37	0.029
753.81	0.028
754.25	0.029
754.69	0.030
755.13	0.028
755.57	0.029
756.01	0.031
756.45	0.031
756.89	0.030
757.33	0.031
757.77	0.030
758.21	0.031
758.64	0.028
759.08	0.026
759.52	0.031
759.96	0.034
760.40	0.031
760.84	0.030
761.28	0.030
761.72	0.032
762.16	0.031
762.60	0.028
763.03	0.028
763.47	0.030
763.91	0.030
764.35	0.028
764.79	0.028
765.23	0.031
765.67	0.030
766.11	0.027
766.54	0.029
766.98	0.033
767.42	0.030
767.86	0.028
768.30	0.032
768.74	0.032
769.17	0.031
769.61	0.029
770.05	0.031
770.49	0.032
770.93	0.030
771.37	0.027
771.80	0.029
772.24	0.029
772.68	0.029
773.12	0.030
773.56	0.031
774.00	0.029
774.43	0.027
774.87	0.030
775.31	0.031
775.75	0.031
776.19	0.031
776.62	0.030
777.06	0.033
777.50	0.030
777.94	0.030
778.37	0.028
778.81	0.031
779.25	0.033
779.69	0.031
780.13	0.031
780.56	0.030
781.00	0.027
781.44	0.028
781.88	0.031
782.31	0.029
782.75	0.029
783.19	0.030
783.63	0.029
784.06	0.028
784.50	0.034
784.94	0.028
785.37	0.028
785.81	0.032
786.25	0.030
786.69	0.027
787.12	0.031
787.56	0.028
788.00	0.030
788.43	0.032
788.87	0.029
789.31	0.028
789.75	0.029
790.18	0.029
790.62	0.030
791.06	0.029
791.49	0.027
791.93	0.029
792.37	0.031
792.80	0.027
793.24	0.030
793.68	0.031
794.11	0.030
794.55	0.032
794.99	0.032
795.42	0.029
795.86	0.034
796.30	0.028
796.73	0.027
797.17	0.029
797.61	0.029
798.04	0.028
798.48	0.029
798.91	0.027
799.35	0.029
799.79	0.032
800.22	0.029
800.66	0.029
801.10	0.030
801.53	0.030
801.97	0.035
802.40	0.031
802.84	0.029
803.28	0.029
803.71	0.031
804.15	0.030
804.58	0.028
805.02	0.031
805.46	0.031
805.89	0.029
806.33	0.030
806.76	0.030
807.20	0.033
807.63	0.031
808.07	0.032
808.51	0.026
808.94	0.027
809.38	0.028
809.81	0.030
810.25	0.031
810.68	0.031
811.12	0.031
811.55	0.031
811.99	0.034
812.42	0.034
812.86	0.028
813.29	0.029
813.73	0.028
814.17	0.029
814.60	0.033
815.04	0.032
815.47	0.027
815.91	0.030
816.34	0.033
816.78	0.028
817.21	0.034
817.65	0.034
