SpectraSuite Data File
++++++++++++++++++++++++++++++++++++
Date: Sun Apr 24 17:05:07 CEST 2016
User: spectrasuite
Dark Spectrum Present: Yes
Reference Spectrum Present: Yes
Number of Sampled Component Spectra: 1
Spectrometers: HR+C0708
Integration Time (usec): 1000 (HR+C0708)
Spectra Averaged: 10 (HR+C0708)
Boxcar Smoothing: 0 (HR+C0708)
Correct for Electrical Dark: No (HR+C0708)
Strobe/Lamp Enabled: No (HR+C0708)
Correct for Detector Non-linearity: No (HR+C0708)
Correct for Stray Light: No (HR+C0708)
Number of Pixels in Processed Spectrum: 2048
>>>>>Begin Processed Spectral Data<<<<<
188.76	-0.000
189.23	-0.000
189.70	-0.000
190.17	-0.000
190.64	-0.000
191.12	-0.000
191.59	-0.000
192.06	-0.000
192.53	-0.000
193.01	-0.000
193.48	-0.000
193.95	-0.000
194.42	-0.000
194.90	-0.000
195.37	-0.000
195.84	-0.000
196.31	-0.000
196.78	-0.000
197.26	-0.000
197.73	-0.000
198.20	-0.000
198.67	-0.000
199.14	-0.000
199.62	-0.000
200.09	2.095
200.56	-0.000
201.03	-0.000
201.50	0.993
201.97	1.318
202.45	-0.000
202.92	0.831
203.39	-0.000
203.86	1.251
204.33	-0.000
204.80	-0.000
205.28	1.188
205.75	-0.000
206.22	-0.000
206.69	-0.000
207.16	-0.000
207.63	1.014
208.11	1.075
208.58	-0.000
209.05	0.740
209.52	-0.000
209.99	1.104
210.46	1.032
210.93	-0.000
211.41	1.419
211.88	0.993
212.35	-0.000
212.82	1.556
213.29	1.640
213.76	-0.000
214.23	1.618
214.70	-0.000
215.18	-0.000
215.65	2.744
216.12	-0.000
216.59	0.936
217.06	1.604
217.53	1.324
218.00	0.841
218.47	-0.000
218.94	1.365
219.41	1.993
219.89	-0.000
220.36	-0.000
220.83	1.042
221.30	-0.000
221.77	1.517
222.24	-0.000
222.71	-0.000
223.18	-0.000
223.65	-0.000
224.12	-0.000
224.59	-0.000
225.06	-0.000
225.54	-0.000
226.01	1.267
226.48	2.033
226.95	-0.000
227.42	-0.000
227.89	-0.000
228.36	-0.000
228.83	-0.000
229.30	1.858
229.77	1.630
230.24	2.426
230.71	-0.000
231.18	2.030
231.65	2.174
232.12	1.910
232.59	2.262
233.06	-0.000
233.53	2.227
234.00	2.384
234.47	2.491
234.94	2.717
235.41	2.218
235.88	-0.000
236.35	-0.000
236.82	2.717
237.29	3.187
237.76	2.770
238.23	-0.000
238.70	-0.000
239.17	2.519
239.64	2.990
240.11	-0.000
240.58	3.186
241.05	3.773
241.52	2.667
241.99	3.240
242.46	2.756
242.93	2.875
243.40	3.436
243.87	2.490
244.34	2.749
244.81	-0.000
245.28	-0.000
245.75	-0.000
246.22	3.968
246.69	2.864
247.16	3.155
247.63	3.646
248.10	2.818
248.57	-0.000
249.04	-0.000
249.51	-0.000
249.98	3.433
250.45	3.060
250.92	3.478
251.39	3.136
251.85	3.122
252.32	-0.000
252.79	-0.000
253.26	2.891
253.73	-0.000
254.20	3.077
254.67	2.733
255.14	2.941
255.61	3.415
256.08	2.943
256.55	-0.000
257.02	3.694
257.49	3.542
257.95	3.107
258.42	2.719
258.89	3.248
259.36	2.829
259.83	2.767
260.30	2.942
260.77	2.990
261.24	2.682
261.71	3.012
262.17	2.651
262.64	2.641
263.11	2.724
263.58	2.879
264.05	2.674
264.52	2.615
264.99	2.626
265.46	2.628
265.92	2.592
266.39	2.471
266.86	2.526
267.33	2.502
267.80	2.387
268.27	2.494
268.74	2.395
269.20	2.502
269.67	2.405
270.14	2.299
270.61	2.303
271.08	2.345
271.55	2.310
272.01	2.293
272.48	2.223
272.95	2.259
273.42	2.255
273.89	2.215
274.36	2.215
274.82	2.149
275.29	2.142
275.76	2.146
276.23	2.166
276.70	2.122
277.16	2.098
277.63	2.073
278.10	2.086
278.57	2.072
279.04	2.037
279.50	2.058
279.97	2.086
280.44	2.007
280.91	1.985
281.38	1.976
281.84	1.964
282.31	1.971
282.78	2.001
283.25	1.934
283.72	1.911
284.18	1.898
284.65	1.926
285.12	1.916
285.59	1.877
286.05	1.913
286.52	1.877
286.99	1.872
287.46	1.887
287.92	1.843
288.39	1.820
288.86	1.836
289.33	1.811
289.79	1.818
290.26	1.787
290.73	1.780
291.20	1.795
291.66	1.774
292.13	1.767
292.60	1.735
293.07	1.756
293.53	1.703
294.00	1.725
294.47	1.727
294.93	1.719
295.40	1.704
295.87	1.694
296.34	1.707
296.80	1.690
297.27	1.672
297.74	1.666
298.20	1.685
298.67	1.660
299.14	1.650
299.60	1.636
300.07	1.636
300.54	1.622
301.01	1.608
301.47	1.614
301.94	1.604
302.41	1.578
302.87	1.593
303.34	1.602
303.81	1.554
304.27	1.564
304.74	1.556
305.21	1.551
305.67	1.549
306.14	1.529
306.61	1.547
307.07	1.524
307.54	1.508
308.01	1.514
308.47	1.499
308.94	1.497
309.40	1.495
309.87	1.496
310.34	1.470
310.80	1.491
311.27	1.480
311.74	1.467
312.20	1.466
312.67	1.447
313.13	1.450
313.60	1.443
314.07	1.435
314.53	1.431
315.00	1.415
315.47	1.421
315.93	1.405
316.40	1.408
316.86	1.402
317.33	1.400
317.80	1.373
318.26	1.385
318.73	1.379
319.19	1.365
319.66	1.372
320.13	1.368
320.59	1.363
321.06	1.368
321.52	1.349
321.99	1.342
322.45	1.339
322.92	1.311
323.39	1.320
323.85	1.329
324.32	1.318
324.78	1.318
325.25	1.307
325.71	1.299
326.18	1.291
326.64	1.308
327.11	1.294
327.58	1.295
328.04	1.275
328.51	1.268
328.97	1.274
329.44	1.261
329.90	1.255
330.37	1.258
330.83	1.240
331.30	1.254
331.76	1.247
332.23	1.229
332.69	1.221
333.16	1.216
333.62	1.205
334.09	1.207
334.56	1.204
335.02	1.189
335.49	1.194
335.95	1.174
336.42	1.172
336.88	1.156
337.35	1.165
337.81	1.160
338.28	1.138
338.74	1.147
339.20	1.133
339.67	1.120
340.13	1.122
340.60	1.107
341.06	1.092
341.53	1.089
341.99	1.085
342.46	1.072
342.92	1.068
343.39	1.048
343.85	1.051
344.32	1.036
344.78	1.029
345.25	1.024
345.71	1.017
346.17	1.009
346.64	0.992
347.10	0.979
347.57	0.965
348.03	0.955
348.50	0.947
348.96	0.937
349.43	0.927
349.89	0.907
350.35	0.903
350.82	0.897
351.28	0.884
351.75	0.873
352.21	0.870
352.67	0.855
353.14	0.844
353.60	0.831
354.07	0.818
354.53	0.800
355.00	0.791
355.46	0.795
355.92	0.778
356.39	0.763
356.85	0.764
357.31	0.756
357.78	0.742
358.24	0.735
358.71	0.726
359.17	0.717
359.63	0.717
360.10	0.703
360.56	0.709
361.03	0.698
361.49	0.689
361.95	0.682
362.42	0.684
362.88	0.673
363.34	0.669
363.81	0.668
364.27	0.669
364.73	0.662
365.20	0.655
365.66	0.652
366.12	0.648
366.59	0.644
367.05	0.645
367.51	0.642
367.98	0.637
368.44	0.631
368.90	0.631
369.37	0.626
369.83	0.629
370.29	0.622
370.76	0.623
371.22	0.623
371.68	0.617
372.15	0.610
372.61	0.612
373.07	0.609
373.54	0.608
374.00	0.606
374.46	0.603
374.92	0.604
375.39	0.601
375.85	0.600
376.31	0.596
376.78	0.595
377.24	0.594
377.70	0.592
378.16	0.587
378.63	0.585
379.09	0.584
379.55	0.585
380.01	0.586
380.48	0.579
380.94	0.574
381.40	0.575
381.87	0.569
382.33	0.571
382.79	0.568
383.25	0.566
383.72	0.568
384.18	0.563
384.64	0.563
385.10	0.564
385.56	0.562
386.03	0.556
386.49	0.556
386.95	0.554
387.41	0.554
387.88	0.553
388.34	0.553
388.80	0.551
389.26	0.544
389.72	0.546
390.19	0.544
390.65	0.544
391.11	0.541
391.57	0.539
392.04	0.535
392.50	0.534
392.96	0.535
393.42	0.534
393.88	0.532
394.34	0.533
394.81	0.526
395.27	0.527
395.73	0.525
396.19	0.524
396.65	0.522
397.12	0.519
397.58	0.520
398.04	0.518
398.50	0.517
398.96	0.518
399.42	0.516
399.89	0.513
400.35	0.511
400.81	0.509
401.27	0.510
401.73	0.507
402.19	0.503
402.65	0.505
403.12	0.500
403.58	0.498
404.04	0.499
404.50	0.502
404.96	0.495
405.42	0.497
405.88	0.495
406.34	0.493
406.81	0.493
407.27	0.490
407.73	0.490
408.19	0.484
408.65	0.486
409.11	0.488
409.57	0.487
410.03	0.482
410.49	0.486
410.96	0.481
411.42	0.481
411.88	0.479
412.34	0.471
412.80	0.475
413.26	0.469
413.72	0.470
414.18	0.470
414.64	0.471
415.10	0.470
415.56	0.468
416.02	0.468
416.48	0.467
416.95	0.462
417.41	0.461
417.87	0.460
418.33	0.460
418.79	0.456
419.25	0.458
419.71	0.454
420.17	0.454
420.63	0.453
421.09	0.452
421.55	0.453
422.01	0.452
422.47	0.449
422.93	0.450
423.39	0.450
423.85	0.448
424.31	0.444
424.77	0.446
425.23	0.445
425.69	0.448
426.15	0.445
426.61	0.440
427.07	0.441
427.53	0.440
427.99	0.435
428.45	0.439
428.91	0.433
429.37	0.432
429.83	0.433
430.29	0.430
430.75	0.432
431.21	0.432
431.67	0.432
432.13	0.430
432.59	0.426
433.05	0.428
433.51	0.424
433.97	0.425
434.43	0.425
434.89	0.426
435.35	0.423
435.81	0.419
436.27	0.418
436.73	0.417
437.19	0.418
437.65	0.417
438.11	0.413
438.57	0.418
439.03	0.414
439.48	0.413
439.94	0.412
440.40	0.409
440.86	0.415
441.32	0.406
441.78	0.408
442.24	0.404
442.70	0.403
443.16	0.402
443.62	0.401
444.08	0.402
444.54	0.402
444.99	0.399
445.45	0.400
445.91	0.400
446.37	0.398
446.83	0.395
447.29	0.397
447.75	0.396
448.21	0.396
448.67	0.394
449.12	0.392
449.58	0.394
450.04	0.391
450.50	0.389
450.96	0.390
451.42	0.386
451.88	0.385
452.34	0.388
452.79	0.385
453.25	0.385
453.71	0.383
454.17	0.383
454.63	0.385
455.09	0.383
455.55	0.382
456.00	0.379
456.46	0.378
456.92	0.378
457.38	0.377
457.84	0.377
458.30	0.372
458.75	0.378
459.21	0.369
459.67	0.375
460.13	0.373
460.59	0.369
461.04	0.367
461.50	0.370
461.96	0.366
462.42	0.365
462.88	0.366
463.33	0.364
463.79	0.362
464.25	0.364
464.71	0.365
465.17	0.363
465.62	0.361
466.08	0.364
466.54	0.361
467.00	0.361
467.46	0.361
467.91	0.358
468.37	0.360
468.83	0.358
469.29	0.357
469.74	0.354
470.20	0.357
470.66	0.354
471.12	0.351
471.57	0.353
472.03	0.352
472.49	0.351
472.95	0.352
473.40	0.349
473.86	0.348
474.32	0.347
474.78	0.348
475.23	0.346
475.69	0.348
476.15	0.346
476.60	0.346
477.06	0.345
477.52	0.342
477.98	0.340
478.43	0.340
478.89	0.342
479.35	0.340
479.80	0.341
480.26	0.339
480.72	0.337
481.18	0.341
481.63	0.334
482.09	0.339
482.55	0.338
483.00	0.333
483.46	0.334
483.92	0.332
484.37	0.333
484.83	0.332
485.29	0.331
485.74	0.330
486.20	0.332
486.66	0.331
487.11	0.328
487.57	0.328
488.03	0.327
488.48	0.325
488.94	0.326
489.40	0.327
489.85	0.325
490.31	0.327
490.77	0.322
491.22	0.322
491.68	0.323
492.13	0.321
492.59	0.324
493.05	0.319
493.50	0.320
493.96	0.319
494.42	0.319
494.87	0.317
495.33	0.315
495.78	0.322
496.24	0.318
496.70	0.315
497.15	0.314
497.61	0.315
498.06	0.314
498.52	0.312
498.98	0.312
499.43	0.313
499.89	0.312
500.34	0.311
500.80	0.308
501.25	0.309
501.71	0.308
502.17	0.308
502.62	0.311
503.08	0.307
503.53	0.305
503.99	0.306
504.44	0.306
504.90	0.304
505.36	0.303
505.81	0.303
506.27	0.301
506.72	0.303
507.18	0.303
507.63	0.302
508.09	0.301
508.54	0.301
509.00	0.300
509.45	0.300
509.91	0.298
510.36	0.300
510.82	0.298
511.27	0.296
511.73	0.299
512.19	0.297
512.64	0.297
513.10	0.294
513.55	0.297
514.01	0.291
514.46	0.291
514.92	0.292
515.37	0.292
515.83	0.292
516.28	0.290
516.73	0.288
517.19	0.287
517.64	0.287
518.10	0.288
518.55	0.288
519.01	0.287
519.46	0.285
519.92	0.288
520.37	0.284
520.83	0.283
521.28	0.284
521.74	0.286
522.19	0.287
522.65	0.282
523.10	0.281
523.55	0.282
524.01	0.283
524.46	0.280
524.92	0.281
525.37	0.279
525.83	0.279
526.28	0.281
526.73	0.281
527.19	0.280
527.64	0.280
528.10	0.278
528.55	0.278
529.01	0.278
529.46	0.276
529.91	0.276
530.37	0.276
530.82	0.273
531.28	0.273
531.73	0.272
532.18	0.273
532.64	0.273
533.09	0.271
533.54	0.270
534.00	0.270
534.45	0.272
534.91	0.270
535.36	0.274
535.81	0.271
536.27	0.268
536.72	0.271
537.17	0.267
537.63	0.266
538.08	0.265
538.54	0.269
538.99	0.268
539.44	0.268
539.90	0.268
540.35	0.264
540.80	0.264
541.26	0.264
541.71	0.263
542.16	0.264
542.62	0.262
543.07	0.265
543.52	0.263
543.98	0.262
544.43	0.260
544.88	0.261
545.34	0.261
545.79	0.260
546.24	0.260
546.69	0.263
547.15	0.259
547.60	0.259
548.05	0.261
548.51	0.255
548.96	0.256
549.41	0.258
549.86	0.255
550.32	0.258
550.77	0.255
551.22	0.255
551.68	0.255
552.13	0.254
552.58	0.252
553.03	0.254
553.49	0.254
553.94	0.253
554.39	0.253
554.84	0.252
555.30	0.253
555.75	0.253
556.20	0.252
556.65	0.249
557.11	0.252
557.56	0.249
558.01	0.253
558.46	0.254
558.92	0.248
559.37	0.250
559.82	0.250
560.27	0.249
560.72	0.248
561.18	0.248
561.63	0.248
562.08	0.244
562.53	0.248
562.99	0.246
563.44	0.246
563.89	0.247
564.34	0.245
564.79	0.244
565.25	0.243
565.70	0.242
566.15	0.242
566.60	0.243
567.05	0.243
567.50	0.242
567.96	0.241
568.41	0.242
568.86	0.240
569.31	0.240
569.76	0.239
570.21	0.240
570.67	0.239
571.12	0.240
571.57	0.240
572.02	0.239
572.47	0.236
572.92	0.237
573.37	0.238
573.83	0.235
574.28	0.238
574.73	0.237
575.18	0.236
575.63	0.238
576.08	0.235
576.53	0.234
576.98	0.235
577.44	0.231
577.89	0.234
578.34	0.231
578.79	0.231
579.24	0.232
579.69	0.232
580.14	0.229
580.59	0.230
581.04	0.228
581.49	0.229
581.95	0.229
582.40	0.228
582.85	0.227
583.30	0.228
583.75	0.228
584.20	0.228
584.65	0.229
585.10	0.227
585.55	0.228
586.00	0.228
586.45	0.227
586.90	0.229
587.35	0.227
587.80	0.226
588.25	0.227
588.71	0.227
589.16	0.225
589.61	0.226
590.06	0.223
590.51	0.224
590.96	0.225
591.41	0.225
591.86	0.224
592.31	0.223
592.76	0.224
593.21	0.224
593.66	0.224
594.11	0.223
594.56	0.221
595.01	0.223
595.46	0.222
595.91	0.223
596.36	0.223
596.81	0.222
597.26	0.221
597.71	0.222
598.16	0.221
598.61	0.220
599.06	0.219
599.51	0.220
599.96	0.221
600.41	0.221
600.86	0.221
601.31	0.219
601.76	0.221
602.21	0.221
602.65	0.219
603.10	0.219
603.55	0.217
604.00	0.218
604.45	0.219
604.90	0.218
605.35	0.215
605.80	0.217
606.25	0.219
606.70	0.218
607.15	0.216
607.60	0.216
608.05	0.214
608.50	0.214
608.95	0.214
609.39	0.217
609.84	0.215
610.29	0.215
610.74	0.215
611.19	0.212
611.64	0.214
612.09	0.212
612.54	0.213
612.99	0.213
613.44	0.213
613.88	0.212
614.33	0.212
614.78	0.210
615.23	0.209
615.68	0.212
616.13	0.212
616.58	0.209
617.03	0.208
617.47	0.211
617.92	0.210
618.37	0.206
618.82	0.209
619.27	0.210
619.72	0.206
620.17	0.207
620.61	0.206
621.06	0.207
621.51	0.209
621.96	0.209
622.41	0.207
622.86	0.207
623.30	0.206
623.75	0.207
624.20	0.205
624.65	0.204
625.10	0.207
625.54	0.206
625.99	0.205
626.44	0.206
626.89	0.207
627.34	0.205
627.78	0.203
628.23	0.202
628.68	0.203
629.13	0.203
629.58	0.201
630.02	0.203
630.47	0.201
630.92	0.203
631.37	0.203
631.81	0.203
632.26	0.203
632.71	0.201
633.16	0.202
633.61	0.202
634.05	0.199
634.50	0.200
634.95	0.201
635.40	0.202
635.84	0.201
636.29	0.201
636.74	0.201
637.18	0.202
637.63	0.201
638.08	0.200
638.53	0.200
638.97	0.198
639.42	0.199
639.87	0.199
640.32	0.198
640.76	0.197
641.21	0.201
641.66	0.200
642.10	0.199
642.55	0.196
643.00	0.198
643.44	0.199
643.89	0.198
644.34	0.199
644.79	0.199
645.23	0.198
645.68	0.198
646.13	0.198
646.57	0.197
647.02	0.196
647.47	0.199
647.91	0.196
648.36	0.197
648.81	0.197
649.25	0.195
649.70	0.195
650.15	0.195
650.59	0.196
651.04	0.197
651.48	0.199
651.93	0.196
652.38	0.196
652.82	0.196
653.27	0.194
653.72	0.195
654.16	0.194
654.61	0.195
655.06	0.194
655.50	0.194
655.95	0.191
656.39	0.186
656.84	0.190
657.29	0.195
657.73	0.193
658.18	0.193
658.62	0.192
659.07	0.192
659.52	0.193
659.96	0.192
660.41	0.193
660.85	0.192
661.30	0.190
661.74	0.191
662.19	0.190
662.64	0.191
663.08	0.189
663.53	0.188
663.97	0.189
664.42	0.190
664.86	0.191
665.31	0.189
665.75	0.186
666.20	0.190
666.65	0.188
667.09	0.188
667.54	0.189
667.98	0.188
668.43	0.186
668.87	0.184
669.32	0.186
669.76	0.184
670.21	0.185
670.65	0.183
671.10	0.185
671.54	0.182
671.99	0.184
672.43	0.182
672.88	0.182
673.32	0.182
673.77	0.181
674.21	0.181
674.66	0.181
675.10	0.180
675.55	0.176
675.99	0.183
676.44	0.179
676.88	0.179
677.33	0.177
677.77	0.178
678.22	0.173
678.66	0.177
679.11	0.175
679.55	0.177
679.99	0.174
680.44	0.175
680.88	0.175
681.33	0.174
681.77	0.171
682.22	0.172
682.66	0.172
683.11	0.172
683.55	0.173
683.99	0.172
684.44	0.172
684.88	0.169
685.33	0.170
685.77	0.169
686.21	0.168
686.66	0.168
687.10	0.168
687.55	0.168
687.99	0.169
688.44	0.168
688.88	0.167
689.32	0.169
689.77	0.166
690.21	0.166
690.65	0.165
691.10	0.165
691.54	0.165
691.99	0.164
692.43	0.163
692.87	0.163
693.32	0.164
693.76	0.162
694.20	0.164
694.65	0.162
695.09	0.164
695.53	0.160
695.98	0.161
696.42	0.162
696.86	0.162
697.31	0.159
697.75	0.161
698.19	0.159
698.64	0.161
699.08	0.160
699.52	0.160
699.97	0.161
700.41	0.159
700.85	0.160
701.30	0.158
701.74	0.158
702.18	0.158
702.63	0.157
703.07	0.159
703.51	0.158
703.96	0.158
704.40	0.159
704.84	0.158
705.28	0.157
705.73	0.158
706.17	0.157
706.61	0.157
707.06	0.155
707.50	0.158
707.94	0.154
708.38	0.155
708.83	0.157
709.27	0.154
709.71	0.154
710.15	0.155
710.60	0.155
711.04	0.155
711.48	0.159
711.92	0.156
712.37	0.152
712.81	0.155
713.25	0.153
713.69	0.154
714.13	0.156
714.58	0.152
715.02	0.154
715.46	0.155
715.90	0.152
716.35	0.151
716.79	0.155
717.23	0.155
717.67	0.154
718.11	0.155
718.56	0.154
719.00	0.152
719.44	0.154
719.88	0.152
720.32	0.155
720.76	0.153
721.21	0.152
721.65	0.154
722.09	0.152
722.53	0.153
722.97	0.150
723.41	0.152
723.86	0.154
724.30	0.154
724.74	0.155
725.18	0.155
725.62	0.153
726.06	0.154
726.50	0.149
726.95	0.153
727.39	0.151
727.83	0.150
728.27	0.153
728.71	0.152
729.15	0.152
729.59	0.153
730.03	0.152
730.48	0.153
730.92	0.152
731.36	0.151
731.80	0.152
732.24	0.153
732.68	0.149
733.12	0.150
733.56	0.149
734.00	0.150
734.44	0.153
734.89	0.153
735.33	0.153
735.77	0.154
736.21	0.153
736.65	0.149
737.09	0.153
737.53	0.154
737.97	0.151
738.41	0.152
738.85	0.154
739.29	0.153
739.73	0.151
740.17	0.151
740.61	0.152
741.05	0.152
741.49	0.153
741.93	0.153
742.37	0.146
742.81	0.148
743.26	0.152
743.70	0.149
744.14	0.151
744.58	0.152
745.02	0.150
745.46	0.153
745.90	0.149
746.34	0.150
746.78	0.152
747.22	0.150
747.66	0.151
748.10	0.150
748.54	0.148
748.98	0.148
749.42	0.147
749.86	0.150
750.29	0.149
750.73	0.148
751.17	0.146
751.61	0.146
752.05	0.151
752.49	0.146
752.93	0.148
753.37	0.146
753.81	0.145
754.25	0.147
754.69	0.144
755.13	0.146
755.57	0.147
756.01	0.145
756.45	0.146
756.89	0.148
757.33	0.146
757.77	0.147
758.21	0.146
758.64	0.144
759.08	0.143
759.52	0.144
759.96	0.148
760.40	0.146
760.84	0.144
761.28	0.142
761.72	0.145
762.16	0.144
762.60	0.144
763.03	0.142
763.47	0.142
763.91	0.144
764.35	0.140
764.79	0.142
765.23	0.140
765.67	0.140
766.11	0.140
766.54	0.140
766.98	0.141
767.42	0.143
767.86	0.140
768.30	0.142
768.74	0.145
769.17	0.144
769.61	0.144
770.05	0.141
770.49	0.142
770.93	0.147
771.37	0.139
771.80	0.139
772.24	0.138
772.68	0.137
773.12	0.138
773.56	0.140
774.00	0.136
774.43	0.140
774.87	0.140
775.31	0.140
775.75	0.140
776.19	0.141
776.62	0.137
777.06	0.143
777.50	0.142
777.94	0.139
778.37	0.140
778.81	0.136
779.25	0.139
779.69	0.140
780.13	0.138
780.56	0.138
781.00	0.139
781.44	0.139
781.88	0.140
782.31	0.138
782.75	0.139
783.19	0.138
783.63	0.136
784.06	0.140
784.50	0.142
784.94	0.137
785.37	0.135
785.81	0.137
786.25	0.137
786.69	0.136
787.12	0.138
787.56	0.135
788.00	0.140
788.43	0.140
788.87	0.135
789.31	0.137
789.75	0.137
790.18	0.135
790.62	0.135
791.06	0.137
791.49	0.136
791.93	0.134
792.37	0.140
792.80	0.137
793.24	0.136
793.68	0.136
794.11	0.135
794.55	0.134
794.99	0.139
795.42	0.137
795.86	0.138
796.30	0.133
796.73	0.138
797.17	0.131
797.61	0.131
798.04	0.134
798.48	0.134
798.91	0.136
799.35	0.132
799.79	0.138
800.22	0.134
800.66	0.132
801.10	0.133
801.53	0.135
801.97	0.137
802.40	0.136
802.84	0.134
803.28	0.130
803.71	0.135
804.15	0.131
804.58	0.132
805.02	0.135
805.46	0.132
805.89	0.132
806.33	0.135
806.76	0.132
807.20	0.133
807.63	0.131
808.07	0.135
808.51	0.131
808.94	0.129
809.38	0.131
809.81	0.134
810.25	0.134
810.68	0.133
811.12	0.133
811.55	0.134
811.99	0.131
812.42	0.134
812.86	0.130
813.29	0.130
813.73	0.130
814.17	0.131
814.60	0.133
815.04	0.129
815.47	0.128
