SpectraSuite Data File
++++++++++++++++++++++++++++++++++++
Date: Sun Apr 24 16:14:53 CEST 2016
User: spectrasuite
Dark Spectrum Present: Yes
Reference Spectrum Present: Yes
Number of Sampled Component Spectra: 1
Spectrometers: HR+C0708
Integration Time (usec): 1000 (HR+C0708)
Spectra Averaged: 10 (HR+C0708)
Boxcar Smoothing: 0 (HR+C0708)
Correct for Electrical Dark: No (HR+C0708)
Strobe/Lamp Enabled: No (HR+C0708)
Correct for Detector Non-linearity: No (HR+C0708)
Correct for Stray Light: No (HR+C0708)
Number of Pixels in Processed Spectrum: 2048
>>>>>Begin Processed Spectral Data<<<<<
188.76	-0.000
189.23	-0.000
189.70	-0.000
190.17	-0.000
190.64	-0.000
191.12	-0.000
191.59	-0.000
192.06	-0.000
192.53	-0.000
193.01	-0.000
193.48	-0.000
193.95	-0.000
194.42	-0.000
194.90	-0.000
195.37	-0.000
195.84	-0.000
196.31	-0.000
196.78	-0.000
197.26	-0.000
197.73	-0.000
198.20	-0.000
198.67	-0.000
199.14	-0.000
199.62	-0.000
200.09	-0.000
200.56	-0.000
201.03	-0.000
201.50	-0.000
201.97	-0.000
202.45	-0.000
202.92	1.208
203.39	0.868
203.86	-0.000
204.33	-0.000
204.80	-0.000
205.28	0.941
205.75	-0.000
206.22	1.328
206.69	-0.000
207.16	-0.000
207.63	1.005
208.11	1.238
208.58	1.460
209.05	1.351
209.52	-0.000
209.99	0.823
210.46	1.101
210.93	-0.000
211.41	0.964
211.88	1.224
212.35	-0.000
212.82	-0.000
213.29	2.418
213.76	1.804
214.23	-0.000
214.70	-0.000
215.18	1.218
215.65	-0.000
216.12	-0.000
216.59	1.491
217.06	-0.000
217.53	0.939
218.00	1.095
218.47	-0.000
218.94	-0.000
219.41	-0.000
219.89	-0.000
220.36	1.740
220.83	-0.000
221.30	-0.000
221.77	0.838
222.24	-0.000
222.71	-0.000
223.18	-0.000
223.65	-0.000
224.12	-0.000
224.59	-0.000
225.06	-0.000
225.54	1.152
226.01	1.354
226.48	-0.000
226.95	1.830
227.42	-0.000
227.89	-0.000
228.36	1.950
228.83	-0.000
229.30	3.471
229.77	2.221
230.24	2.970
230.71	-0.000
231.18	-0.000
231.65	2.303
232.12	1.968
232.59	2.128
233.06	-0.000
233.53	2.317
234.00	2.189
234.47	-0.000
234.94	-0.000
235.41	-0.000
235.88	-0.000
236.35	-0.000
236.82	-0.000
237.29	-0.000
237.76	2.784
238.23	-0.000
238.70	2.645
239.17	2.313
239.64	4.087
240.11	-0.000
240.58	3.441
241.05	2.756
241.52	3.721
241.99	-0.000
242.46	3.206
242.93	-0.000
243.40	-0.000
243.87	2.436
244.34	2.448
244.81	-0.000
245.28	-0.000
245.75	3.450
246.22	4.065
246.69	3.501
247.16	-0.000
247.63	3.064
248.10	-0.000
248.57	-0.000
249.04	3.501
249.51	3.705
249.98	-0.000
250.45	3.371
250.92	-0.000
251.39	3.035
251.85	-0.000
252.32	-0.000
252.79	-0.000
253.26	3.319
253.73	-0.000
254.20	3.536
254.67	2.651
255.14	4.309
255.61	2.926
256.08	3.279
256.55	-0.000
257.02	3.130
257.49	4.106
257.95	3.237
258.42	3.310
258.89	3.428
259.36	3.008
259.83	2.943
260.30	-0.000
260.77	4.166
261.24	2.904
261.71	-0.000
262.17	3.135
262.64	2.861
263.11	3.018
263.58	4.979
264.05	3.118
264.52	2.780
264.99	2.826
265.46	3.027
265.92	2.818
266.39	2.893
266.86	3.240
267.33	3.040
267.80	2.675
268.27	3.180
268.74	2.757
269.20	2.845
269.67	2.604
270.14	2.642
270.61	2.788
271.08	2.622
271.55	2.539
272.01	2.704
272.48	2.507
272.95	2.655
273.42	2.520
273.89	2.536
274.36	2.528
274.82	2.364
275.29	2.378
275.76	2.506
276.23	2.372
276.70	2.444
277.16	2.374
277.63	2.276
278.10	2.312
278.57	2.364
279.04	2.334
279.50	2.359
279.97	2.257
280.44	2.237
280.91	2.231
281.38	2.223
281.84	2.257
282.31	2.289
282.78	2.240
283.25	2.190
283.72	2.164
284.18	2.199
284.65	2.176
285.12	2.140
285.59	2.130
286.05	2.189
286.52	2.141
286.99	2.100
287.46	2.154
287.92	2.148
288.39	2.087
288.86	2.099
289.33	2.046
289.79	2.078
290.26	2.078
290.73	2.036
291.20	2.039
291.66	2.013
292.13	1.993
292.60	2.044
293.07	1.969
293.53	1.936
294.00	1.989
294.47	1.989
294.93	1.987
295.40	1.963
295.87	1.957
296.34	1.936
296.80	1.906
297.27	1.955
297.74	1.920
298.20	1.930
298.67	1.868
299.14	1.941
299.60	1.912
300.07	1.879
300.54	1.897
301.01	1.863
301.47	1.836
301.94	1.818
302.41	1.842
302.87	1.828
303.34	1.851
303.81	1.794
304.27	1.830
304.74	1.794
305.21	1.794
305.67	1.791
306.14	1.780
306.61	1.801
307.07	1.768
307.54	1.768
308.01	1.758
308.47	1.740
308.94	1.728
309.40	1.756
309.87	1.728
310.34	1.720
310.80	1.722
311.27	1.734
311.74	1.706
312.20	1.696
312.67	1.715
313.13	1.683
313.60	1.703
314.07	1.683
314.53	1.688
315.00	1.647
315.47	1.665
315.93	1.676
316.40	1.636
316.86	1.644
317.33	1.647
317.80	1.604
318.26	1.642
318.73	1.626
319.19	1.626
319.66	1.615
320.13	1.589
320.59	1.595
321.06	1.610
321.52	1.596
321.99	1.573
322.45	1.574
322.92	1.555
323.39	1.569
323.85	1.553
324.32	1.556
324.78	1.555
325.25	1.538
325.71	1.525
326.18	1.517
326.64	1.519
327.11	1.519
327.58	1.501
328.04	1.500
328.51	1.515
328.97	1.489
329.44	1.473
329.90	1.464
330.37	1.465
330.83	1.448
331.30	1.474
331.76	1.428
332.23	1.439
332.69	1.420
333.16	1.403
333.62	1.402
334.09	1.391
334.56	1.376
335.02	1.382
335.49	1.358
335.95	1.343
336.42	1.327
336.88	1.316
337.35	1.319
337.81	1.307
338.28	1.288
338.74	1.284
339.20	1.271
339.67	1.253
340.13	1.248
340.60	1.226
341.06	1.210
341.53	1.201
341.99	1.178
342.46	1.169
342.92	1.163
343.39	1.139
343.85	1.129
344.32	1.117
344.78	1.099
345.25	1.096
345.71	1.077
346.17	1.065
346.64	1.052
347.10	1.026
347.57	1.004
348.03	0.984
348.50	0.972
348.96	0.954
349.43	0.941
349.89	0.935
350.35	0.913
350.82	0.898
351.28	0.889
351.75	0.869
352.21	0.860
352.67	0.848
353.14	0.840
353.60	0.825
354.07	0.809
354.53	0.799
355.00	0.790
355.46	0.780
355.92	0.766
356.39	0.755
356.85	0.754
357.31	0.745
357.78	0.734
358.24	0.721
358.71	0.708
359.17	0.708
359.63	0.703
360.10	0.694
360.56	0.689
361.03	0.683
361.49	0.680
361.95	0.672
362.42	0.667
362.88	0.667
363.34	0.656
363.81	0.656
364.27	0.653
364.73	0.646
365.20	0.644
365.66	0.643
366.12	0.638
366.59	0.632
367.05	0.634
367.51	0.633
367.98	0.626
368.44	0.625
368.90	0.621
369.37	0.618
369.83	0.616
370.29	0.613
370.76	0.609
371.22	0.611
371.68	0.606
372.15	0.604
372.61	0.598
373.07	0.599
373.54	0.597
374.00	0.591
374.46	0.592
374.92	0.589
375.39	0.589
375.85	0.586
376.31	0.586
376.78	0.581
377.24	0.582
377.70	0.577
378.16	0.575
378.63	0.575
379.09	0.574
379.55	0.570
380.01	0.571
380.48	0.567
380.94	0.569
381.40	0.565
381.87	0.565
382.33	0.565
382.79	0.557
383.25	0.560
383.72	0.565
384.18	0.553
384.64	0.551
385.10	0.551
385.56	0.548
386.03	0.548
386.49	0.546
386.95	0.547
387.41	0.542
387.88	0.539
388.34	0.535
388.80	0.537
389.26	0.537
389.72	0.535
390.19	0.534
390.65	0.533
391.11	0.530
391.57	0.531
392.04	0.527
392.50	0.524
392.96	0.523
393.42	0.524
393.88	0.523
394.34	0.519
394.81	0.518
395.27	0.518
395.73	0.515
396.19	0.514
396.65	0.514
397.12	0.510
397.58	0.509
398.04	0.507
398.50	0.508
398.96	0.505
399.42	0.508
399.89	0.503
400.35	0.502
400.81	0.501
401.27	0.500
401.73	0.495
402.19	0.496
402.65	0.496
403.12	0.491
403.58	0.492
404.04	0.492
404.50	0.489
404.96	0.487
405.42	0.493
405.88	0.486
406.34	0.483
406.81	0.485
407.27	0.481
407.73	0.481
408.19	0.478
408.65	0.475
409.11	0.473
409.57	0.472
410.03	0.473
410.49	0.475
410.96	0.475
411.42	0.470
411.88	0.467
412.34	0.463
412.80	0.468
413.26	0.464
413.72	0.466
414.18	0.463
414.64	0.460
415.10	0.459
415.56	0.461
416.02	0.461
416.48	0.455
416.95	0.458
417.41	0.455
417.87	0.451
418.33	0.450
418.79	0.447
419.25	0.449
419.71	0.446
420.17	0.449
420.63	0.446
421.09	0.446
421.55	0.442
422.01	0.445
422.47	0.445
422.93	0.443
423.39	0.441
423.85	0.439
424.31	0.437
424.77	0.437
425.23	0.439
425.69	0.440
426.15	0.434
426.61	0.432
427.07	0.433
427.53	0.431
427.99	0.428
428.45	0.430
428.91	0.425
429.37	0.424
429.83	0.426
430.29	0.426
430.75	0.427
431.21	0.426
431.67	0.425
432.13	0.422
432.59	0.417
433.05	0.419
433.51	0.418
433.97	0.415
434.43	0.417
434.89	0.420
435.35	0.413
435.81	0.413
436.27	0.407
436.73	0.410
437.19	0.410
437.65	0.414
438.11	0.405
438.57	0.409
439.03	0.408
439.48	0.404
439.94	0.405
440.40	0.404
440.86	0.404
441.32	0.399
441.78	0.403
442.24	0.403
442.70	0.396
443.16	0.397
443.62	0.396
444.08	0.393
444.54	0.399
444.99	0.393
445.45	0.391
445.91	0.392
446.37	0.393
446.83	0.390
447.29	0.389
447.75	0.390
448.21	0.391
448.67	0.386
449.12	0.385
449.58	0.382
450.04	0.383
450.50	0.385
450.96	0.381
451.42	0.381
451.88	0.382
452.34	0.384
452.79	0.379
453.25	0.377
453.71	0.376
454.17	0.374
454.63	0.379
455.09	0.374
455.55	0.376
456.00	0.373
456.46	0.371
456.92	0.372
457.38	0.370
457.84	0.368
458.30	0.366
458.75	0.369
459.21	0.365
459.67	0.369
460.13	0.367
460.59	0.361
461.04	0.363
461.50	0.364
461.96	0.362
462.42	0.362
462.88	0.360
463.33	0.360
463.79	0.357
464.25	0.359
464.71	0.357
465.17	0.357
465.62	0.356
466.08	0.359
466.54	0.358
467.00	0.354
467.46	0.356
467.91	0.352
468.37	0.353
468.83	0.350
469.29	0.351
469.74	0.349
470.20	0.349
470.66	0.347
471.12	0.346
471.57	0.349
472.03	0.345
472.49	0.345
472.95	0.344
473.40	0.342
473.86	0.341
474.32	0.341
474.78	0.341
475.23	0.342
475.69	0.340
476.15	0.337
476.60	0.339
477.06	0.337
477.52	0.338
477.98	0.338
478.43	0.336
478.89	0.337
479.35	0.335
479.80	0.337
480.26	0.334
480.72	0.332
481.18	0.333
481.63	0.329
482.09	0.332
482.55	0.332
483.00	0.327
483.46	0.329
483.92	0.327
484.37	0.325
484.83	0.327
485.29	0.326
485.74	0.323
486.20	0.323
486.66	0.324
487.11	0.324
487.57	0.323
488.03	0.322
488.48	0.323
488.94	0.321
489.40	0.319
489.85	0.322
490.31	0.322
490.77	0.317
491.22	0.318
491.68	0.319
492.13	0.318
492.59	0.317
493.05	0.317
493.50	0.315
493.96	0.314
494.42	0.313
494.87	0.310
495.33	0.310
495.78	0.312
496.24	0.312
496.70	0.310
497.15	0.310
497.61	0.310
498.06	0.308
498.52	0.305
498.98	0.306
499.43	0.308
499.89	0.309
500.34	0.306
500.80	0.304
501.25	0.307
501.71	0.304
502.17	0.302
502.62	0.305
503.08	0.305
503.53	0.300
503.99	0.301
504.44	0.300
504.90	0.301
505.36	0.300
505.81	0.299
506.27	0.300
506.72	0.300
507.18	0.300
507.63	0.295
508.09	0.297
508.54	0.294
509.00	0.296
509.45	0.294
509.91	0.293
510.36	0.293
510.82	0.293
511.27	0.294
511.73	0.293
512.19	0.291
512.64	0.291
513.10	0.291
513.55	0.291
514.01	0.289
514.46	0.288
514.92	0.285
515.37	0.288
515.83	0.288
516.28	0.285
516.73	0.286
517.19	0.283
517.64	0.282
518.10	0.284
518.55	0.282
519.01	0.282
519.46	0.282
519.92	0.283
520.37	0.281
520.83	0.280
521.28	0.280
521.74	0.281
522.19	0.279
522.65	0.277
523.10	0.279
523.55	0.277
524.01	0.277
524.46	0.279
524.92	0.275
525.37	0.275
525.83	0.275
526.28	0.275
526.73	0.276
527.19	0.277
527.64	0.277
528.10	0.274
528.55	0.271
529.01	0.273
529.46	0.272
529.91	0.273
530.37	0.269
530.82	0.270
531.28	0.270
531.73	0.267
532.18	0.268
532.64	0.268
533.09	0.267
533.54	0.267
534.00	0.265
534.45	0.268
534.91	0.266
535.36	0.267
535.81	0.268
536.27	0.262
536.72	0.267
537.17	0.263
537.63	0.263
538.08	0.263
538.54	0.266
538.99	0.261
539.44	0.264
539.90	0.260
540.35	0.261
540.80	0.260
541.26	0.258
541.71	0.258
542.16	0.259
542.62	0.259
543.07	0.258
543.52	0.257
543.98	0.259
544.43	0.259
544.88	0.253
545.34	0.256
545.79	0.257
546.24	0.252
546.69	0.256
547.15	0.256
547.60	0.254
548.05	0.255
548.51	0.252
548.96	0.253
549.41	0.254
549.86	0.251
550.32	0.252
550.77	0.252
551.22	0.252
551.68	0.251
552.13	0.246
552.58	0.247
553.03	0.249
553.49	0.250
553.94	0.247
554.39	0.248
554.84	0.246
555.30	0.248
555.75	0.247
556.20	0.247
556.65	0.246
557.11	0.247
557.56	0.244
558.01	0.247
558.46	0.246
558.92	0.242
559.37	0.243
559.82	0.242
560.27	0.245
560.72	0.242
561.18	0.240
561.63	0.239
562.08	0.240
562.53	0.242
562.99	0.240
563.44	0.241
563.89	0.238
564.34	0.240
564.79	0.238
565.25	0.238
565.70	0.236
566.15	0.236
566.60	0.235
567.05	0.237
567.50	0.237
567.96	0.234
568.41	0.236
568.86	0.234
569.31	0.233
569.76	0.232
570.21	0.234
570.67	0.233
571.12	0.234
571.57	0.232
572.02	0.233
572.47	0.231
572.92	0.229
573.37	0.229
573.83	0.229
574.28	0.229
574.73	0.230
575.18	0.229
575.63	0.229
576.08	0.225
576.53	0.229
576.98	0.229
577.44	0.224
577.89	0.225
578.34	0.225
578.79	0.225
579.24	0.225
579.69	0.224
580.14	0.223
580.59	0.223
581.04	0.224
581.49	0.222
581.95	0.223
582.40	0.220
582.85	0.222
583.30	0.219
583.75	0.221
584.20	0.222
584.65	0.221
585.10	0.220
585.55	0.220
586.00	0.221
586.45	0.220
586.90	0.220
587.35	0.220
587.80	0.216
588.25	0.218
588.71	0.218
589.16	0.219
589.61	0.216
590.06	0.216
590.51	0.218
590.96	0.214
591.41	0.214
591.86	0.216
592.31	0.214
592.76	0.215
593.21	0.214
593.66	0.215
594.11	0.216
594.56	0.213
595.01	0.213
595.46	0.214
595.91	0.214
596.36	0.212
596.81	0.213
597.26	0.213
597.71	0.213
598.16	0.212
598.61	0.209
599.06	0.210
599.51	0.212
599.96	0.211
600.41	0.210
600.86	0.210
601.31	0.211
601.76	0.211
602.21	0.210
602.65	0.210
603.10	0.210
603.55	0.208
604.00	0.209
604.45	0.209
604.90	0.211
605.35	0.205
605.80	0.206
606.25	0.208
606.70	0.207
607.15	0.206
607.60	0.205
608.05	0.204
608.50	0.205
608.95	0.204
609.39	0.207
609.84	0.204
610.29	0.204
610.74	0.202
611.19	0.203
611.64	0.204
612.09	0.201
612.54	0.202
612.99	0.202
613.44	0.200
613.88	0.203
614.33	0.202
614.78	0.201
615.23	0.201
615.68	0.201
616.13	0.200
616.58	0.199
617.03	0.198
617.47	0.200
617.92	0.199
618.37	0.199
618.82	0.198
619.27	0.198
619.72	0.195
620.17	0.196
620.61	0.195
621.06	0.195
621.51	0.197
621.96	0.196
622.41	0.196
622.86	0.196
623.30	0.193
623.75	0.196
624.20	0.195
624.65	0.193
625.10	0.194
625.54	0.194
625.99	0.192
626.44	0.193
626.89	0.192
627.34	0.196
627.78	0.193
628.23	0.191
628.68	0.191
629.13	0.193
629.58	0.191
630.02	0.190
630.47	0.189
630.92	0.190
631.37	0.190
631.81	0.191
632.26	0.189
632.71	0.189
633.16	0.190
633.61	0.190
634.05	0.188
634.50	0.188
634.95	0.187
635.40	0.188
635.84	0.189
636.29	0.188
636.74	0.187
637.18	0.188
637.63	0.186
638.08	0.185
638.53	0.185
638.97	0.186
639.42	0.185
639.87	0.186
640.32	0.185
640.76	0.187
641.21	0.185
641.66	0.186
642.10	0.186
642.55	0.183
643.00	0.183
643.44	0.185
643.89	0.185
644.34	0.183
644.79	0.183
645.23	0.183
645.68	0.182
646.13	0.184
646.57	0.184
647.02	0.181
647.47	0.184
647.91	0.182
648.36	0.182
648.81	0.182
649.25	0.181
649.70	0.180
650.15	0.180
650.59	0.182
651.04	0.179
651.48	0.182
651.93	0.181
652.38	0.178
652.82	0.178
653.27	0.178
653.72	0.179
654.16	0.177
654.61	0.179
655.06	0.179
655.50	0.177
655.95	0.177
656.39	0.171
656.84	0.174
657.29	0.180
657.73	0.178
658.18	0.177
658.62	0.178
659.07	0.178
659.52	0.176
659.96	0.178
660.41	0.177
660.85	0.175
661.30	0.175
661.74	0.175
662.19	0.174
662.64	0.175
663.08	0.174
663.53	0.173
663.97	0.174
664.42	0.174
664.86	0.175
665.31	0.173
665.75	0.171
666.20	0.175
666.65	0.173
667.09	0.174
667.54	0.174
667.98	0.174
668.43	0.174
668.87	0.171
669.32	0.171
669.76	0.170
670.21	0.173
670.65	0.170
671.10	0.170
671.54	0.169
671.99	0.168
672.43	0.169
672.88	0.169
673.32	0.170
673.77	0.168
674.21	0.167
674.66	0.169
675.10	0.167
675.55	0.166
675.99	0.168
676.44	0.168
676.88	0.167
677.33	0.166
677.77	0.169
678.22	0.167
678.66	0.167
679.11	0.165
679.55	0.165
679.99	0.166
680.44	0.167
680.88	0.166
681.33	0.164
681.77	0.164
682.22	0.166
682.66	0.164
683.11	0.164
683.55	0.164
683.99	0.166
684.44	0.164
684.88	0.160
685.33	0.163
685.77	0.164
686.21	0.163
686.66	0.162
687.10	0.162
687.55	0.160
687.99	0.162
688.44	0.164
688.88	0.161
689.32	0.164
689.77	0.161
690.21	0.163
690.65	0.161
691.10	0.163
691.54	0.160
691.99	0.157
692.43	0.158
692.87	0.159
693.32	0.159
693.76	0.160
694.20	0.161
694.65	0.161
695.09	0.159
695.53	0.158
695.98	0.158
696.42	0.159
696.86	0.158
697.31	0.155
697.75	0.156
698.19	0.158
698.64	0.161
699.08	0.158
699.52	0.155
699.97	0.156
700.41	0.155
700.85	0.156
701.30	0.156
701.74	0.157
702.18	0.156
702.63	0.157
703.07	0.157
703.51	0.157
703.96	0.155
704.40	0.157
704.84	0.155
705.28	0.155
705.73	0.155
706.17	0.155
706.61	0.153
707.06	0.153
707.50	0.151
707.94	0.155
708.38	0.154
708.83	0.155
709.27	0.154
709.71	0.155
710.15	0.153
710.60	0.152
711.04	0.151
711.48	0.156
711.92	0.153
712.37	0.155
712.81	0.154
713.25	0.153
713.69	0.154
714.13	0.156
714.58	0.153
715.02	0.154
715.46	0.152
715.90	0.151
716.35	0.150
716.79	0.152
717.23	0.151
717.67	0.153
718.11	0.151
718.56	0.151
719.00	0.152
719.44	0.152
719.88	0.151
720.32	0.150
720.76	0.152
721.21	0.153
721.65	0.150
722.09	0.153
722.53	0.152
722.97	0.153
723.41	0.149
723.86	0.152
724.30	0.152
724.74	0.153
725.18	0.150
725.62	0.150
726.06	0.152
726.50	0.149
726.95	0.150
727.39	0.153
727.83	0.150
728.27	0.153
728.71	0.152
729.15	0.151
729.59	0.153
730.03	0.150
730.48	0.152
730.92	0.150
731.36	0.151
731.80	0.153
732.24	0.152
732.68	0.149
733.12	0.147
733.56	0.151
734.00	0.151
734.44	0.151
734.89	0.152
735.33	0.151
735.77	0.154
736.21	0.152
736.65	0.149
737.09	0.151
737.53	0.151
737.97	0.150
738.41	0.152
738.85	0.153
739.29	0.152
739.73	0.148
740.17	0.147
740.61	0.150
741.05	0.150
741.49	0.151
741.93	0.152
742.37	0.147
742.81	0.146
743.26	0.150
743.70	0.147
744.14	0.149
744.58	0.150
745.02	0.150
745.46	0.151
745.90	0.148
746.34	0.150
746.78	0.150
747.22	0.149
747.66	0.149
748.10	0.150
748.54	0.149
748.98	0.147
749.42	0.148
749.86	0.150
750.29	0.148
750.73	0.145
751.17	0.146
751.61	0.146
752.05	0.146
752.49	0.145
752.93	0.147
753.37	0.145
753.81	0.145
754.25	0.144
754.69	0.144
755.13	0.143
755.57	0.145
756.01	0.146
756.45	0.146
756.89	0.146
757.33	0.147
757.77	0.144
758.21	0.144
758.64	0.142
759.08	0.140
759.52	0.146
759.96	0.146
760.40	0.146
760.84	0.145
761.28	0.143
761.72	0.146
762.16	0.145
762.60	0.142
763.03	0.143
763.47	0.140
763.91	0.144
764.35	0.140
764.79	0.141
765.23	0.138
765.67	0.141
766.11	0.139
766.54	0.139
766.98	0.142
767.42	0.141
767.86	0.138
768.30	0.142
768.74	0.143
769.17	0.140
769.61	0.143
770.05	0.142
770.49	0.142
770.93	0.141
771.37	0.139
771.80	0.138
772.24	0.139
772.68	0.141
773.12	0.141
773.56	0.139
774.00	0.140
774.43	0.139
774.87	0.137
775.31	0.139
775.75	0.139
776.19	0.136
776.62	0.137
777.06	0.139
777.50	0.136
777.94	0.137
778.37	0.135
778.81	0.137
779.25	0.137
779.69	0.141
780.13	0.138
780.56	0.138
781.00	0.138
781.44	0.139
781.88	0.140
782.31	0.137
782.75	0.138
783.19	0.136
783.63	0.137
784.06	0.134
784.50	0.138
784.94	0.135
785.37	0.137
785.81	0.138
786.25	0.135
786.69	0.134
787.12	0.136
787.56	0.133
788.00	0.138
788.43	0.136
788.87	0.139
789.31	0.135
789.75	0.136
790.18	0.137
790.62	0.136
791.06	0.133
791.49	0.136
791.93	0.133
792.37	0.136
792.80	0.134
793.24	0.134
793.68	0.134
794.11	0.134
794.55	0.138
794.99	0.136
795.42	0.136
795.86	0.139
796.30	0.135
796.73	0.136
797.17	0.136
797.61	0.133
798.04	0.133
798.48	0.136
798.91	0.134
799.35	0.131
799.79	0.137
800.22	0.136
800.66	0.134
801.10	0.135
801.53	0.131
801.97	0.137
802.40	0.136
802.84	0.132
803.28	0.131
803.71	0.135
804.15	0.132
804.58	0.135
805.02	0.134
805.46	0.134
805.89	0.132
806.33	0.131
806.76	0.131
807.20	0.132
807.63	0.131
808.07	0.134
808.51	0.132
808.94	0.128
809.38	0.130
809.81	0.131
810.25	0.134
810.68	0.132
811.12	0.130
811.55	0.133
811.99	0.132
812.42	0.129
812.86	0.129
813.29	0.129
813.73	0.132
814.17	0.131
814.60	0.129
815.04	0.130
