SpectraSuite Data File
++++++++++++++++++++++++++++++++++++
Date: Sun Apr 24 16:55:04 CEST 2016
User: spectrasuite
Dark Spectrum Present: Yes
Reference Spectrum Present: Yes
Number of Sampled Component Spectra: 1
Spectrometers: HR+C0708
Integration Time (usec): 1000 (HR+C0708)
Spectra Averaged: 10 (HR+C0708)
Boxcar Smoothing: 0 (HR+C0708)
Correct for Electrical Dark: No (HR+C0708)
Strobe/Lamp Enabled: No (HR+C0708)
Correct for Detector Non-linearity: No (HR+C0708)
Correct for Stray Light: No (HR+C0708)
Number of Pixels in Processed Spectrum: 2048
>>>>>Begin Processed Spectral Data<<<<<
188.76	-0.000
189.23	-0.000
189.70	-0.000
190.17	-0.000
190.64	-0.000
191.12	-0.000
191.59	-0.000
192.06	-0.000
192.53	-0.000
193.01	-0.000
193.48	-0.000
193.95	-0.000
194.42	-0.000
194.90	-0.000
195.37	-0.000
195.84	-0.000
196.31	-0.000
196.78	-0.000
197.26	-0.000
197.73	-0.000
198.20	-0.000
198.67	-0.000
199.14	-0.000
199.62	-0.000
200.09	-0.000
200.56	-0.000
201.03	-0.000
201.50	1.051
201.97	-0.000
202.45	-0.000
202.92	1.019
203.39	1.658
203.86	-0.000
204.33	-0.000
204.80	-0.000
205.28	-0.000
205.75	-0.000
206.22	1.173
206.69	-0.000
207.16	-0.000
207.63	-0.000
208.11	1.103
208.58	1.504
209.05	-0.000
209.52	-0.000
209.99	1.418
210.46	-0.000
210.93	-0.000
211.41	1.606
211.88	-0.000
212.35	-0.000
212.82	-0.000
213.29	1.321
213.76	-0.000
214.23	-0.000
214.70	-0.000
215.18	-0.000
215.65	-0.000
216.12	-0.000
216.59	1.420
217.06	-0.000
217.53	-0.000
218.00	2.776
218.47	-0.000
218.94	-0.000
219.41	-0.000
219.89	-0.000
220.36	-0.000
220.83	-0.000
221.30	-0.000
221.77	0.962
222.24	-0.000
222.71	-0.000
223.18	-0.000
223.65	-0.000
224.12	-0.000
224.59	-0.000
225.06	2.077
225.54	1.408
226.01	-0.000
226.48	-0.000
226.95	3.192
227.42	-0.000
227.89	-0.000
228.36	1.545
228.83	-0.000
229.30	2.109
229.77	-0.000
230.24	2.459
230.71	-0.000
231.18	-0.000
231.65	2.161
232.12	1.643
232.59	-0.000
233.06	-0.000
233.53	2.145
234.00	2.245
234.47	-0.000
234.94	-0.000
235.41	2.661
235.88	-0.000
236.35	-0.000
236.82	-0.000
237.29	2.416
237.76	-0.000
238.23	-0.000
238.70	3.004
239.17	2.715
239.64	-0.000
240.11	-0.000
240.58	2.979
241.05	-0.000
241.52	-0.000
241.99	-0.000
242.46	2.947
242.93	-0.000
243.40	-0.000
243.87	2.928
244.34	2.709
244.81	-0.000
245.28	-0.000
245.75	-0.000
246.22	-0.000
246.69	-0.000
247.16	-0.000
247.63	2.795
248.10	-0.000
248.57	4.222
249.04	3.148
249.51	-0.000
249.98	-0.000
250.45	2.997
250.92	3.453
251.39	3.374
251.85	-0.000
252.32	-0.000
252.79	3.217
253.26	-0.000
253.73	-0.000
254.20	2.927
254.67	3.063
255.14	4.786
255.61	2.926
256.08	2.972
256.55	-0.000
257.02	3.509
257.49	3.843
257.95	2.729
258.42	4.067
258.89	2.980
259.36	2.677
259.83	3.366
260.30	3.461
260.77	2.919
261.24	2.832
261.71	3.333
262.17	3.228
262.64	2.664
263.11	2.943
263.58	4.201
264.05	2.769
264.52	2.517
264.99	2.772
265.46	2.698
265.92	2.483
266.39	2.681
266.86	3.029
267.33	2.666
267.80	2.406
268.27	2.685
268.74	2.773
269.20	2.547
269.67	2.502
270.14	2.470
270.61	2.407
271.08	2.352
271.55	2.387
272.01	2.461
272.48	2.325
272.95	2.298
273.42	2.273
273.89	2.407
274.36	2.272
274.82	2.203
275.29	2.303
275.76	2.223
276.23	2.138
276.70	2.203
277.16	2.188
277.63	2.145
278.10	2.151
278.57	2.156
279.04	2.129
279.50	2.110
279.97	2.079
280.44	2.079
280.91	2.068
281.38	1.997
281.84	2.080
282.31	2.103
282.78	2.042
283.25	2.034
283.72	2.007
284.18	2.043
284.65	1.987
285.12	1.953
285.59	1.965
286.05	1.980
286.52	1.937
286.99	1.972
287.46	1.928
287.92	1.891
288.39	1.910
288.86	1.904
289.33	1.903
289.79	1.883
290.26	1.880
290.73	1.881
291.20	1.846
291.66	1.840
292.13	1.834
292.60	1.826
293.07	1.792
293.53	1.796
294.00	1.823
294.47	1.814
294.93	1.804
295.40	1.799
295.87	1.775
296.34	1.756
296.80	1.723
297.27	1.762
297.74	1.729
298.20	1.713
298.67	1.726
299.14	1.727
299.60	1.703
300.07	1.697
300.54	1.693
301.01	1.685
301.47	1.662
301.94	1.655
302.41	1.653
302.87	1.652
303.34	1.653
303.81	1.646
304.27	1.635
304.74	1.608
305.21	1.614
305.67	1.612
306.14	1.609
306.61	1.611
307.07	1.594
307.54	1.589
308.01	1.563
308.47	1.555
308.94	1.574
309.40	1.558
309.87	1.532
310.34	1.550
310.80	1.565
311.27	1.544
311.74	1.531
312.20	1.534
312.67	1.520
313.13	1.494
313.60	1.500
314.07	1.507
314.53	1.487
315.00	1.463
315.47	1.492
315.93	1.475
316.40	1.471
316.86	1.457
317.33	1.445
317.80	1.453
318.26	1.439
318.73	1.431
319.19	1.441
319.66	1.422
320.13	1.422
320.59	1.425
321.06	1.423
321.52	1.408
321.99	1.405
322.45	1.390
322.92	1.383
323.39	1.382
323.85	1.374
324.32	1.376
324.78	1.377
325.25	1.355
325.71	1.375
326.18	1.359
326.64	1.375
327.11	1.360
327.58	1.348
328.04	1.346
328.51	1.330
328.97	1.319
329.44	1.322
329.90	1.314
330.37	1.308
330.83	1.306
331.30	1.305
331.76	1.287
332.23	1.279
332.69	1.291
333.16	1.274
333.62	1.260
334.09	1.260
334.56	1.248
335.02	1.245
335.49	1.226
335.95	1.216
336.42	1.216
336.88	1.197
337.35	1.202
337.81	1.196
338.28	1.187
338.74	1.188
339.20	1.182
339.67	1.167
340.13	1.153
340.60	1.143
341.06	1.138
341.53	1.125
341.99	1.109
342.46	1.113
342.92	1.098
343.39	1.088
343.85	1.069
344.32	1.065
344.78	1.058
345.25	1.044
345.71	1.038
346.17	1.029
346.64	1.007
347.10	0.997
347.57	0.982
348.03	0.967
348.50	0.955
348.96	0.943
349.43	0.939
349.89	0.931
350.35	0.909
350.82	0.896
351.28	0.891
351.75	0.880
352.21	0.863
352.67	0.849
353.14	0.848
353.60	0.827
354.07	0.821
354.53	0.810
355.00	0.795
355.46	0.793
355.92	0.774
356.39	0.771
356.85	0.759
357.31	0.751
357.78	0.737
358.24	0.734
358.71	0.722
359.17	0.719
359.63	0.716
360.10	0.710
360.56	0.700
361.03	0.696
361.49	0.688
361.95	0.679
362.42	0.671
362.88	0.671
363.34	0.664
363.81	0.657
364.27	0.659
364.73	0.654
365.20	0.654
365.66	0.644
366.12	0.645
366.59	0.643
367.05	0.641
367.51	0.633
367.98	0.633
368.44	0.631
368.90	0.628
369.37	0.624
369.83	0.620
370.29	0.616
370.76	0.614
371.22	0.617
371.68	0.615
372.15	0.606
372.61	0.602
373.07	0.606
373.54	0.601
374.00	0.598
374.46	0.598
374.92	0.599
375.39	0.593
375.85	0.592
376.31	0.591
376.78	0.586
377.24	0.585
377.70	0.583
378.16	0.583
378.63	0.581
379.09	0.580
379.55	0.574
380.01	0.578
380.48	0.571
380.94	0.573
381.40	0.571
381.87	0.569
382.33	0.568
382.79	0.564
383.25	0.565
383.72	0.566
384.18	0.557
384.64	0.559
385.10	0.560
385.56	0.556
386.03	0.551
386.49	0.550
386.95	0.549
387.41	0.545
387.88	0.546
388.34	0.542
388.80	0.543
389.26	0.544
389.72	0.543
390.19	0.545
390.65	0.536
391.11	0.538
391.57	0.536
392.04	0.533
392.50	0.529
392.96	0.527
393.42	0.526
393.88	0.528
394.34	0.524
394.81	0.524
395.27	0.522
395.73	0.518
396.19	0.517
396.65	0.518
397.12	0.513
397.58	0.515
398.04	0.515
398.50	0.514
398.96	0.510
399.42	0.510
399.89	0.508
400.35	0.509
400.81	0.504
401.27	0.505
401.73	0.502
402.19	0.498
402.65	0.499
403.12	0.500
403.58	0.497
404.04	0.493
404.50	0.496
404.96	0.495
405.42	0.491
405.88	0.489
406.34	0.491
406.81	0.492
407.27	0.489
407.73	0.485
408.19	0.481
408.65	0.482
409.11	0.479
409.57	0.481
410.03	0.480
410.49	0.475
410.96	0.474
411.42	0.474
411.88	0.470
412.34	0.470
412.80	0.469
413.26	0.465
413.72	0.467
414.18	0.462
414.64	0.464
415.10	0.467
415.56	0.463
416.02	0.462
416.48	0.459
416.95	0.459
417.41	0.457
417.87	0.458
418.33	0.457
418.79	0.453
419.25	0.453
419.71	0.450
420.17	0.453
420.63	0.449
421.09	0.446
421.55	0.448
422.01	0.450
422.47	0.446
422.93	0.447
423.39	0.445
423.85	0.444
424.31	0.441
424.77	0.438
425.23	0.443
425.69	0.440
426.15	0.440
426.61	0.437
427.07	0.434
427.53	0.430
427.99	0.432
428.45	0.431
428.91	0.430
429.37	0.430
429.83	0.429
430.29	0.428
430.75	0.427
431.21	0.429
431.67	0.429
432.13	0.428
432.59	0.417
433.05	0.422
433.51	0.419
433.97	0.420
434.43	0.418
434.89	0.421
435.35	0.416
435.81	0.416
436.27	0.413
436.73	0.418
437.19	0.410
437.65	0.414
438.11	0.410
438.57	0.412
439.03	0.409
439.48	0.407
439.94	0.409
440.40	0.412
440.86	0.407
441.32	0.400
441.78	0.406
442.24	0.405
442.70	0.400
443.16	0.400
443.62	0.397
444.08	0.403
444.54	0.399
444.99	0.399
445.45	0.398
445.91	0.394
446.37	0.395
446.83	0.392
447.29	0.390
447.75	0.393
448.21	0.393
448.67	0.389
449.12	0.386
449.58	0.390
450.04	0.386
450.50	0.383
450.96	0.386
451.42	0.385
451.88	0.382
452.34	0.383
452.79	0.384
453.25	0.383
453.71	0.377
454.17	0.379
454.63	0.378
455.09	0.378
455.55	0.376
456.00	0.374
456.46	0.372
456.92	0.374
457.38	0.374
457.84	0.371
458.30	0.368
458.75	0.367
459.21	0.368
459.67	0.369
460.13	0.367
460.59	0.367
461.04	0.367
461.50	0.366
461.96	0.365
462.42	0.363
462.88	0.361
463.33	0.363
463.79	0.359
464.25	0.361
464.71	0.361
465.17	0.361
465.62	0.357
466.08	0.361
466.54	0.359
467.00	0.359
467.46	0.357
467.91	0.356
468.37	0.355
468.83	0.356
469.29	0.350
469.74	0.355
470.20	0.353
470.66	0.350
471.12	0.346
471.57	0.350
472.03	0.349
472.49	0.347
472.95	0.346
473.40	0.349
473.86	0.346
474.32	0.343
474.78	0.347
475.23	0.343
475.69	0.341
476.15	0.343
476.60	0.343
477.06	0.342
477.52	0.341
477.98	0.335
478.43	0.341
478.89	0.337
479.35	0.333
479.80	0.339
480.26	0.338
480.72	0.331
481.18	0.338
481.63	0.335
482.09	0.333
482.55	0.334
483.00	0.332
483.46	0.332
483.92	0.330
484.37	0.330
484.83	0.330
485.29	0.326
485.74	0.328
486.20	0.328
486.66	0.327
487.11	0.323
487.57	0.325
488.03	0.323
488.48	0.323
488.94	0.322
489.40	0.321
489.85	0.324
490.31	0.323
490.77	0.320
491.22	0.321
491.68	0.319
492.13	0.317
492.59	0.318
493.05	0.316
493.50	0.317
493.96	0.315
494.42	0.316
494.87	0.313
495.33	0.313
495.78	0.315
496.24	0.313
496.70	0.313
497.15	0.311
497.61	0.313
498.06	0.311
498.52	0.309
498.98	0.307
499.43	0.311
499.89	0.309
500.34	0.306
500.80	0.306
501.25	0.306
501.71	0.303
502.17	0.305
502.62	0.306
503.08	0.303
503.53	0.303
503.99	0.303
504.44	0.304
504.90	0.303
505.36	0.300
505.81	0.301
506.27	0.302
506.72	0.302
507.18	0.299
507.63	0.298
508.09	0.298
508.54	0.295
509.00	0.298
509.45	0.298
509.91	0.296
510.36	0.295
510.82	0.296
511.27	0.294
511.73	0.294
512.19	0.292
512.64	0.292
513.10	0.293
513.55	0.294
514.01	0.292
514.46	0.287
514.92	0.287
515.37	0.287
515.83	0.290
516.28	0.288
516.73	0.285
517.19	0.286
517.64	0.283
518.10	0.286
518.55	0.286
519.01	0.282
519.46	0.283
519.92	0.285
520.37	0.280
520.83	0.281
521.28	0.283
521.74	0.283
522.19	0.280
522.65	0.279
523.10	0.280
523.55	0.278
524.01	0.282
524.46	0.281
524.92	0.277
525.37	0.276
525.83	0.276
526.28	0.277
526.73	0.277
527.19	0.278
527.64	0.276
528.10	0.276
528.55	0.273
529.01	0.275
529.46	0.275
529.91	0.272
530.37	0.273
530.82	0.273
531.28	0.272
531.73	0.270
532.18	0.268
532.64	0.271
533.09	0.268
533.54	0.268
534.00	0.268
534.45	0.270
534.91	0.268
535.36	0.271
535.81	0.268
536.27	0.266
536.72	0.267
537.17	0.266
537.63	0.266
538.08	0.263
538.54	0.265
538.99	0.262
539.44	0.264
539.90	0.262
540.35	0.263
540.80	0.260
541.26	0.262
541.71	0.261
542.16	0.259
542.62	0.260
543.07	0.259
543.52	0.262
543.98	0.260
544.43	0.259
544.88	0.259
545.34	0.259
545.79	0.260
546.24	0.256
546.69	0.259
547.15	0.255
547.60	0.257
548.05	0.255
548.51	0.254
548.96	0.256
549.41	0.256
549.86	0.253
550.32	0.256
550.77	0.256
551.22	0.255
551.68	0.251
552.13	0.253
552.58	0.251
553.03	0.253
553.49	0.251
553.94	0.252
554.39	0.250
554.84	0.249
555.30	0.251
555.75	0.250
556.20	0.249
556.65	0.248
557.11	0.249
557.56	0.246
558.01	0.248
558.46	0.248
558.92	0.245
559.37	0.244
559.82	0.247
560.27	0.247
560.72	0.243
561.18	0.244
561.63	0.245
562.08	0.242
562.53	0.245
562.99	0.243
563.44	0.242
563.89	0.242
564.34	0.244
564.79	0.241
565.25	0.242
565.70	0.240
566.15	0.239
566.60	0.241
567.05	0.240
567.50	0.238
567.96	0.237
568.41	0.237
568.86	0.238
569.31	0.236
569.76	0.237
570.21	0.236
570.67	0.237
571.12	0.236
571.57	0.237
572.02	0.234
572.47	0.233
572.92	0.236
573.37	0.233
573.83	0.233
574.28	0.234
574.73	0.232
575.18	0.233
575.63	0.232
576.08	0.230
576.53	0.233
576.98	0.232
577.44	0.228
577.89	0.230
578.34	0.229
578.79	0.229
579.24	0.228
579.69	0.228
580.14	0.227
580.59	0.227
581.04	0.226
581.49	0.226
581.95	0.227
582.40	0.224
582.85	0.226
583.30	0.223
583.75	0.224
584.20	0.225
584.65	0.227
585.10	0.225
585.55	0.225
586.00	0.224
586.45	0.223
586.90	0.224
587.35	0.222
587.80	0.221
588.25	0.222
588.71	0.222
589.16	0.222
589.61	0.223
590.06	0.221
590.51	0.221
590.96	0.219
591.41	0.220
591.86	0.220
592.31	0.220
592.76	0.219
593.21	0.219
593.66	0.223
594.11	0.220
594.56	0.218
595.01	0.219
595.46	0.218
595.91	0.218
596.36	0.218
596.81	0.216
597.26	0.218
597.71	0.217
598.16	0.217
598.61	0.215
599.06	0.215
599.51	0.218
599.96	0.218
600.41	0.216
600.86	0.215
601.31	0.216
601.76	0.214
602.21	0.216
602.65	0.214
603.10	0.213
603.55	0.214
604.00	0.215
604.45	0.212
604.90	0.214
605.35	0.211
605.80	0.213
606.25	0.216
606.70	0.215
607.15	0.210
607.60	0.210
608.05	0.209
608.50	0.209
608.95	0.207
609.39	0.212
609.84	0.212
610.29	0.209
610.74	0.209
611.19	0.209
611.64	0.209
612.09	0.208
612.54	0.209
612.99	0.210
613.44	0.208
613.88	0.209
614.33	0.208
614.78	0.206
615.23	0.205
615.68	0.207
616.13	0.207
616.58	0.204
617.03	0.205
617.47	0.205
617.92	0.204
618.37	0.203
618.82	0.207
619.27	0.203
619.72	0.205
620.17	0.202
620.61	0.202
621.06	0.204
621.51	0.203
621.96	0.201
622.41	0.204
622.86	0.204
623.30	0.201
623.75	0.202
624.20	0.202
624.65	0.200
625.10	0.199
625.54	0.202
625.99	0.200
626.44	0.200
626.89	0.199
627.34	0.202
627.78	0.198
628.23	0.197
628.68	0.198
629.13	0.198
629.58	0.199
630.02	0.197
630.47	0.197
630.92	0.198
631.37	0.197
631.81	0.197
632.26	0.198
632.71	0.199
633.16	0.195
633.61	0.195
634.05	0.193
634.50	0.193
634.95	0.196
635.40	0.196
635.84	0.196
636.29	0.196
636.74	0.195
637.18	0.197
637.63	0.195
638.08	0.192
638.53	0.195
638.97	0.192
639.42	0.193
639.87	0.195
640.32	0.194
640.76	0.193
641.21	0.194
641.66	0.194
642.10	0.193
642.55	0.192
643.00	0.192
643.44	0.193
643.89	0.193
644.34	0.191
644.79	0.191
645.23	0.192
645.68	0.190
646.13	0.191
646.57	0.193
647.02	0.190
647.47	0.192
647.91	0.191
648.36	0.191
648.81	0.190
649.25	0.189
649.70	0.189
650.15	0.188
650.59	0.191
651.04	0.189
651.48	0.192
651.93	0.189
652.38	0.187
652.82	0.188
653.27	0.187
653.72	0.191
654.16	0.187
654.61	0.188
655.06	0.188
655.50	0.186
655.95	0.186
656.39	0.181
656.84	0.185
657.29	0.190
657.73	0.187
658.18	0.187
658.62	0.186
659.07	0.185
659.52	0.188
659.96	0.187
660.41	0.186
660.85	0.185
661.30	0.184
661.74	0.186
662.19	0.185
662.64	0.183
663.08	0.183
663.53	0.183
663.97	0.183
664.42	0.183
664.86	0.184
665.31	0.183
665.75	0.180
666.20	0.183
666.65	0.184
667.09	0.181
667.54	0.184
667.98	0.181
668.43	0.181
668.87	0.179
669.32	0.180
669.76	0.179
670.21	0.180
670.65	0.179
671.10	0.180
671.54	0.178
671.99	0.176
672.43	0.177
672.88	0.178
673.32	0.177
673.77	0.176
674.21	0.176
674.66	0.175
675.10	0.175
675.55	0.173
675.99	0.175
676.44	0.175
676.88	0.173
677.33	0.173
677.77	0.176
678.22	0.174
678.66	0.170
679.11	0.172
679.55	0.172
679.99	0.169
680.44	0.173
680.88	0.169
681.33	0.171
681.77	0.170
682.22	0.170
682.66	0.170
683.11	0.167
683.55	0.168
683.99	0.168
684.44	0.166
684.88	0.165
685.33	0.168
685.77	0.167
686.21	0.167
686.66	0.167
687.10	0.165
687.55	0.164
687.99	0.167
688.44	0.163
688.88	0.164
689.32	0.166
689.77	0.163
690.21	0.163
690.65	0.163
691.10	0.162
691.54	0.163
691.99	0.161
692.43	0.162
692.87	0.161
693.32	0.163
693.76	0.164
694.20	0.160
694.65	0.161
695.09	0.161
695.53	0.158
695.98	0.160
696.42	0.161
696.86	0.158
697.31	0.156
697.75	0.158
698.19	0.156
698.64	0.158
699.08	0.157
699.52	0.159
699.97	0.159
700.41	0.158
700.85	0.159
701.30	0.157
701.74	0.157
702.18	0.157
702.63	0.156
703.07	0.157
703.51	0.158
703.96	0.157
704.40	0.157
704.84	0.160
705.28	0.157
705.73	0.156
706.17	0.156
706.61	0.156
707.06	0.156
707.50	0.153
707.94	0.154
708.38	0.154
708.83	0.155
709.27	0.155
709.71	0.154
710.15	0.155
710.60	0.155
711.04	0.154
711.48	0.155
711.92	0.155
712.37	0.153
712.81	0.155
713.25	0.152
713.69	0.154
714.13	0.154
714.58	0.152
715.02	0.152
715.46	0.154
715.90	0.151
716.35	0.150
716.79	0.154
717.23	0.153
717.67	0.153
718.11	0.154
718.56	0.153
719.00	0.152
719.44	0.153
719.88	0.152
720.32	0.150
720.76	0.153
721.21	0.153
721.65	0.151
722.09	0.153
722.53	0.152
722.97	0.152
723.41	0.152
723.86	0.154
724.30	0.152
724.74	0.155
725.18	0.152
725.62	0.149
726.06	0.152
726.50	0.149
726.95	0.152
727.39	0.153
727.83	0.149
728.27	0.151
728.71	0.151
729.15	0.153
729.59	0.152
730.03	0.150
730.48	0.152
730.92	0.149
731.36	0.151
731.80	0.152
732.24	0.152
732.68	0.150
733.12	0.150
733.56	0.151
734.00	0.152
734.44	0.151
734.89	0.152
735.33	0.152
735.77	0.153
736.21	0.151
736.65	0.150
737.09	0.153
737.53	0.152
737.97	0.152
738.41	0.151
738.85	0.153
739.29	0.153
739.73	0.151
740.17	0.152
740.61	0.150
741.05	0.153
741.49	0.154
741.93	0.152
742.37	0.147
742.81	0.150
743.26	0.151
743.70	0.149
744.14	0.150
744.58	0.148
745.02	0.151
745.46	0.149
745.90	0.148
746.34	0.151
746.78	0.149
747.22	0.149
747.66	0.150
748.10	0.148
748.54	0.148
748.98	0.147
749.42	0.148
749.86	0.148
750.29	0.146
750.73	0.144
751.17	0.146
751.61	0.145
752.05	0.149
752.49	0.146
752.93	0.147
753.37	0.146
753.81	0.146
754.25	0.147
754.69	0.146
755.13	0.145
755.57	0.145
756.01	0.147
756.45	0.145
756.89	0.145
757.33	0.146
757.77	0.143
758.21	0.144
758.64	0.142
759.08	0.143
759.52	0.144
759.96	0.145
760.40	0.146
760.84	0.142
761.28	0.142
761.72	0.146
762.16	0.145
762.60	0.143
763.03	0.144
763.47	0.142
763.91	0.143
764.35	0.145
764.79	0.139
765.23	0.139
765.67	0.142
766.11	0.141
766.54	0.138
766.98	0.145
767.42	0.141
767.86	0.138
768.30	0.143
768.74	0.145
769.17	0.143
769.61	0.143
770.05	0.142
770.49	0.143
770.93	0.144
771.37	0.141
771.80	0.142
772.24	0.139
772.68	0.139
773.12	0.138
773.56	0.140
774.00	0.138
774.43	0.138
774.87	0.141
775.31	0.139
775.75	0.139
776.19	0.137
776.62	0.139
777.06	0.137
777.50	0.137
777.94	0.138
778.37	0.136
778.81	0.139
779.25	0.141
779.69	0.140
780.13	0.141
780.56	0.136
781.00	0.138
781.44	0.138
781.88	0.139
782.31	0.136
782.75	0.135
783.19	0.139
783.63	0.136
784.06	0.136
784.50	0.140
784.94	0.135
785.37	0.138
785.81	0.135
786.25	0.136
786.69	0.134
787.12	0.134
787.56	0.136
788.00	0.137
788.43	0.138
788.87	0.138
789.31	0.138
789.75	0.137
790.18	0.135
790.62	0.136
791.06	0.135
791.49	0.133
791.93	0.134
792.37	0.138
792.80	0.133
793.24	0.132
793.68	0.136
794.11	0.134
794.55	0.138
794.99	0.133
795.42	0.132
795.86	0.136
796.30	0.135
796.73	0.132
797.17	0.135
797.61	0.134
798.04	0.133
798.48	0.136
798.91	0.133
799.35	0.135
799.79	0.136
800.22	0.135
800.66	0.131
801.10	0.135
801.53	0.135
801.97	0.139
802.40	0.134
802.84	0.132
803.28	0.131
803.71	0.134
804.15	0.130
804.58	0.132
805.02	0.134
805.46	0.134
805.89	0.133
806.33	0.133
806.76	0.132
807.20	0.132
807.63	0.131
808.07	0.131
808.51	0.134
808.94	0.129
809.38	0.134
809.81	0.136
810.25	0.137
810.68	0.134
811.12	0.129
811.55	0.136
811.99	0.130
812.42	0.130
812.86	0.134
813.29	0.130
813.73	0.128
814.17	0.131
814.60	0.129
