SpectraSuite Data File
++++++++++++++++++++++++++++++++++++
Date: Sun Apr 24 14:33:25 CEST 2016
User: spectrasuite
Dark Spectrum Present: Yes
Reference Spectrum Present: Yes
Number of Sampled Component Spectra: 1
Spectrometers: HR+C0708
Integration Time (usec): 1000 (HR+C0708)
Spectra Averaged: 10 (HR+C0708)
Boxcar Smoothing: 0 (HR+C0708)
Correct for Electrical Dark: No (HR+C0708)
Strobe/Lamp Enabled: No (HR+C0708)
Correct for Detector Non-linearity: No (HR+C0708)
Correct for Stray Light: No (HR+C0708)
Number of Pixels in Processed Spectrum: 2048
>>>>>Begin Processed Spectral Data<<<<<
188.76	-0.000
189.23	-0.000
189.70	-0.000
190.17	-0.000
190.64	-0.000
191.12	-0.000
191.59	-0.000
192.06	-0.000
192.53	-0.000
193.01	-0.000
193.48	-0.000
193.95	-0.000
194.42	-0.000
194.90	-0.000
195.37	-0.000
195.84	-0.000
196.31	0.699
196.78	-0.000
197.26	-0.000
197.73	-0.000
198.20	-0.000
198.67	-0.000
199.14	-0.000
199.62	-0.000
200.09	-0.000
200.56	-0.000
201.03	1.553
201.50	1.083
201.97	0.848
202.45	0.906
202.92	0.861
203.39	0.892
203.86	1.111
204.33	1.765
204.80	-0.000
205.28	0.839
205.75	0.932
206.22	-0.000
206.69	0.872
207.16	1.325
207.63	1.106
208.11	0.704
208.58	0.863
209.05	1.194
209.52	1.265
209.99	-0.000
210.46	0.653
210.93	1.351
211.41	1.358
211.88	1.525
212.35	1.476
212.82	-0.000
213.29	1.543
213.76	0.763
214.23	0.957
214.70	1.303
215.18	-0.000
215.65	1.090
216.12	1.011
216.59	1.244
217.06	1.337
217.53	1.105
218.00	0.963
218.47	1.115
218.94	1.505
219.41	1.993
219.89	1.008
220.36	1.819
220.83	1.155
221.30	-0.000
221.77	0.990
222.24	1.258
222.71	1.130
223.18	-0.000
223.65	-0.000
224.12	-0.000
224.59	-0.000
225.06	1.162
225.54	1.391
226.01	1.134
226.48	1.309
226.95	2.151
227.42	2.173
227.89	-0.000
228.36	1.572
228.83	1.878
229.30	1.596
229.77	1.798
230.24	1.519
230.71	2.440
231.18	1.973
231.65	1.815
232.12	1.865
232.59	2.048
233.06	2.094
233.53	1.871
234.00	1.892
234.47	2.519
234.94	-0.000
235.41	2.377
235.88	-0.000
236.35	2.645
236.82	2.186
237.29	2.595
237.76	2.404
238.23	2.613
238.70	2.911
239.17	2.251
239.64	2.957
240.11	3.815
240.58	2.910
241.05	2.870
241.52	2.602
241.99	3.028
242.46	2.614
242.93	3.662
243.40	2.600
243.87	2.486
244.34	2.433
244.81	2.655
245.28	-0.000
245.75	2.730
246.22	2.896
246.69	2.871
247.16	2.661
247.63	2.947
248.10	2.753
248.57	3.585
249.04	-0.000
249.51	3.307
249.98	3.297
250.45	3.412
250.92	2.805
251.39	2.924
251.85	2.773
252.32	4.107
252.79	-0.000
253.26	3.355
253.73	-0.000
254.20	2.940
254.67	2.687
255.14	3.295
255.61	3.049
256.08	3.721
256.55	3.954
257.02	3.393
257.49	3.770
257.95	3.152
258.42	2.934
258.89	2.890
259.36	3.059
259.83	3.083
260.30	-0.000
260.77	3.602
261.24	2.967
261.71	3.726
262.17	-0.000
262.64	3.271
263.11	-0.000
263.58	-0.000
264.05	2.932
264.52	2.949
264.99	3.024
265.46	3.027
265.92	3.551
266.39	2.970
266.86	3.325
267.33	3.984
267.80	2.913
268.27	4.509
268.74	2.918
269.20	3.046
269.67	3.495
270.14	2.794
270.61	2.774
271.08	2.984
271.55	2.874
272.01	2.919
272.48	3.010
272.95	2.819
273.42	2.916
273.89	2.759
274.36	2.805
274.82	2.622
275.29	2.839
275.76	2.730
276.23	2.960
276.70	3.094
277.16	2.573
277.63	2.606
278.10	2.608
278.57	2.734
279.04	2.734
279.50	2.720
279.97	2.807
280.44	2.390
280.91	2.623
281.38	2.587
281.84	2.740
282.31	2.643
282.78	2.875
283.25	2.489
283.72	2.506
284.18	2.636
284.65	2.551
285.12	2.504
285.59	2.479
286.05	2.593
286.52	2.566
286.99	2.505
287.46	2.559
287.92	2.560
288.39	2.478
288.86	2.535
289.33	2.464
289.79	2.497
290.26	2.479
290.73	2.497
291.20	2.440
291.66	2.525
292.13	2.419
292.60	2.377
293.07	2.456
293.53	2.323
294.00	2.375
294.47	2.525
294.93	2.384
295.40	2.359
295.87	2.361
296.34	2.406
296.80	2.319
297.27	2.307
297.74	2.329
298.20	2.329
298.67	2.245
299.14	2.351
299.60	2.271
300.07	2.253
300.54	2.331
301.01	2.266
301.47	2.194
301.94	2.223
302.41	2.202
302.87	2.185
303.34	2.312
303.81	2.135
304.27	2.155
304.74	2.153
305.21	2.171
305.67	2.159
306.14	2.139
306.61	2.200
307.07	2.217
307.54	2.122
308.01	2.096
308.47	2.132
308.94	2.147
309.40	2.152
309.87	2.133
310.34	2.095
310.80	2.164
311.27	2.090
311.74	2.074
312.20	2.142
312.67	2.053
313.13	2.056
313.60	2.138
314.07	2.120
314.53	2.079
315.00	2.027
315.47	2.084
315.93	2.091
316.40	2.050
316.86	2.068
317.33	2.051
317.80	2.013
318.26	2.033
318.73	2.058
319.19	2.027
319.66	1.983
320.13	2.000
320.59	2.016
321.06	2.026
321.52	1.990
321.99	1.957
322.45	1.976
322.92	1.910
323.39	1.974
323.85	1.979
324.32	1.948
324.78	1.948
325.25	1.936
325.71	1.931
326.18	1.884
326.64	1.978
327.11	1.898
327.58	1.838
328.04	1.841
328.51	1.867
328.97	1.860
329.44	1.863
329.90	1.834
330.37	1.829
330.83	1.798
331.30	1.809
331.76	1.789
332.23	1.757
332.69	1.763
333.16	1.721
333.62	1.721
334.09	1.704
334.56	1.654
335.02	1.645
335.49	1.627
335.95	1.592
336.42	1.567
336.88	1.563
337.35	1.528
337.81	1.514
338.28	1.488
338.74	1.456
339.20	1.446
339.67	1.405
340.13	1.382
340.60	1.345
341.06	1.314
341.53	1.282
341.99	1.267
342.46	1.232
342.92	1.197
343.39	1.176
343.85	1.148
344.32	1.124
344.78	1.104
345.25	1.078
345.71	1.065
346.17	1.032
346.64	1.006
347.10	0.982
347.57	0.948
348.03	0.924
348.50	0.900
348.96	0.880
349.43	0.864
349.89	0.839
350.35	0.816
350.82	0.811
351.28	0.793
351.75	0.770
352.21	0.762
352.67	0.738
353.14	0.728
353.60	0.715
354.07	0.702
354.53	0.686
355.00	0.674
355.46	0.654
355.92	0.652
356.39	0.635
356.85	0.635
357.31	0.626
357.78	0.614
358.24	0.602
358.71	0.595
359.17	0.592
359.63	0.585
360.10	0.584
360.56	0.574
361.03	0.570
361.49	0.560
361.95	0.558
362.42	0.551
362.88	0.549
363.34	0.543
363.81	0.541
364.27	0.538
364.73	0.535
365.20	0.534
365.66	0.531
366.12	0.526
366.59	0.524
367.05	0.521
367.51	0.523
367.98	0.519
368.44	0.515
368.90	0.516
369.37	0.512
369.83	0.509
370.29	0.507
370.76	0.507
371.22	0.504
371.68	0.500
372.15	0.496
372.61	0.492
373.07	0.492
373.54	0.494
374.00	0.490
374.46	0.490
374.92	0.491
375.39	0.486
375.85	0.484
376.31	0.484
376.78	0.483
377.24	0.480
377.70	0.478
378.16	0.475
378.63	0.472
379.09	0.474
379.55	0.472
380.01	0.473
380.48	0.468
380.94	0.468
381.40	0.465
381.87	0.464
382.33	0.465
382.79	0.460
383.25	0.460
383.72	0.462
384.18	0.456
384.64	0.453
385.10	0.453
385.56	0.453
386.03	0.450
386.49	0.452
386.95	0.450
387.41	0.450
387.88	0.447
388.34	0.442
388.80	0.441
389.26	0.446
389.72	0.441
390.19	0.440
390.65	0.438
391.11	0.436
391.57	0.438
392.04	0.436
392.50	0.432
392.96	0.435
393.42	0.431
393.88	0.431
394.34	0.430
394.81	0.425
395.27	0.425
395.73	0.424
396.19	0.425
396.65	0.423
397.12	0.422
397.58	0.419
398.04	0.420
398.50	0.416
398.96	0.416
399.42	0.419
399.89	0.416
400.35	0.414
400.81	0.409
401.27	0.411
401.73	0.411
402.19	0.408
402.65	0.407
403.12	0.405
403.58	0.404
404.04	0.405
404.50	0.404
404.96	0.398
405.42	0.399
405.88	0.404
406.34	0.402
406.81	0.394
407.27	0.396
407.73	0.395
408.19	0.396
408.65	0.392
409.11	0.389
409.57	0.395
410.03	0.389
410.49	0.391
410.96	0.390
411.42	0.387
411.88	0.388
412.34	0.386
412.80	0.384
413.26	0.382
413.72	0.381
414.18	0.379
414.64	0.381
415.10	0.380
415.56	0.379
416.02	0.379
416.48	0.377
416.95	0.373
417.41	0.375
417.87	0.370
418.33	0.370
418.79	0.369
419.25	0.370
419.71	0.368
420.17	0.371
420.63	0.368
421.09	0.363
421.55	0.363
422.01	0.364
422.47	0.364
422.93	0.363
423.39	0.363
423.85	0.363
424.31	0.357
424.77	0.360
425.23	0.360
425.69	0.355
426.15	0.357
426.61	0.358
427.07	0.353
427.53	0.355
427.99	0.351
428.45	0.352
428.91	0.353
429.37	0.349
429.83	0.351
430.29	0.349
430.75	0.348
431.21	0.350
431.67	0.351
432.13	0.347
432.59	0.343
433.05	0.346
433.51	0.340
433.97	0.345
434.43	0.344
434.89	0.345
435.35	0.342
435.81	0.342
436.27	0.337
436.73	0.337
437.19	0.337
437.65	0.339
438.11	0.333
438.57	0.336
439.03	0.334
439.48	0.330
439.94	0.333
440.40	0.334
440.86	0.332
441.32	0.329
441.78	0.332
442.24	0.330
442.70	0.331
443.16	0.327
443.62	0.325
444.08	0.327
444.54	0.327
444.99	0.325
445.45	0.322
445.91	0.322
446.37	0.324
446.83	0.321
447.29	0.318
447.75	0.321
448.21	0.322
448.67	0.320
449.12	0.318
449.58	0.321
450.04	0.316
450.50	0.315
450.96	0.315
451.42	0.313
451.88	0.311
452.34	0.311
452.79	0.312
453.25	0.312
453.71	0.310
454.17	0.310
454.63	0.314
455.09	0.310
455.55	0.308
456.00	0.308
456.46	0.308
456.92	0.306
457.38	0.303
457.84	0.304
458.30	0.300
458.75	0.301
459.21	0.299
459.67	0.305
460.13	0.301
460.59	0.299
461.04	0.299
461.50	0.299
461.96	0.297
462.42	0.296
462.88	0.297
463.33	0.297
463.79	0.293
464.25	0.298
464.71	0.296
465.17	0.294
465.62	0.295
466.08	0.296
466.54	0.294
467.00	0.295
467.46	0.295
467.91	0.292
468.37	0.291
468.83	0.292
469.29	0.289
469.74	0.290
470.20	0.290
470.66	0.288
471.12	0.285
471.57	0.287
472.03	0.286
472.49	0.284
472.95	0.285
473.40	0.282
473.86	0.281
474.32	0.280
474.78	0.283
475.23	0.280
475.69	0.281
476.15	0.280
476.60	0.279
477.06	0.279
477.52	0.278
477.98	0.280
478.43	0.276
478.89	0.277
479.35	0.275
479.80	0.276
480.26	0.275
480.72	0.277
481.18	0.276
481.63	0.273
482.09	0.273
482.55	0.274
483.00	0.271
483.46	0.272
483.92	0.271
484.37	0.270
484.83	0.270
485.29	0.271
485.74	0.270
486.20	0.269
486.66	0.269
487.11	0.268
487.57	0.266
488.03	0.266
488.48	0.268
488.94	0.265
489.40	0.265
489.85	0.266
490.31	0.265
490.77	0.265
491.22	0.264
491.68	0.259
492.13	0.261
492.59	0.262
493.05	0.261
493.50	0.262
493.96	0.259
494.42	0.258
494.87	0.257
495.33	0.257
495.78	0.260
496.24	0.259
496.70	0.256
497.15	0.256
497.61	0.257
498.06	0.256
498.52	0.250
498.98	0.255
499.43	0.255
499.89	0.253
500.34	0.252
500.80	0.253
501.25	0.252
501.71	0.251
502.17	0.252
502.62	0.252
503.08	0.250
503.53	0.250
503.99	0.249
504.44	0.250
504.90	0.247
505.36	0.247
505.81	0.247
506.27	0.247
506.72	0.247
507.18	0.246
507.63	0.246
508.09	0.246
508.54	0.242
509.00	0.242
509.45	0.246
509.91	0.243
510.36	0.245
510.82	0.243
511.27	0.243
511.73	0.243
512.19	0.242
512.64	0.239
513.10	0.238
513.55	0.241
514.01	0.239
514.46	0.239
514.92	0.237
515.37	0.239
515.83	0.240
516.28	0.236
516.73	0.236
517.19	0.238
517.64	0.233
518.10	0.234
518.55	0.234
519.01	0.234
519.46	0.232
519.92	0.235
520.37	0.231
520.83	0.231
521.28	0.233
521.74	0.234
522.19	0.233
522.65	0.231
523.10	0.230
523.55	0.231
524.01	0.233
524.46	0.229
524.92	0.228
525.37	0.229
525.83	0.229
526.28	0.227
526.73	0.228
527.19	0.231
527.64	0.231
528.10	0.228
528.55	0.227
529.01	0.227
529.46	0.227
529.91	0.224
530.37	0.225
530.82	0.225
531.28	0.222
531.73	0.221
532.18	0.224
532.64	0.222
533.09	0.221
533.54	0.222
534.00	0.221
534.45	0.224
534.91	0.221
535.36	0.223
535.81	0.221
536.27	0.218
536.72	0.221
537.17	0.220
537.63	0.218
538.08	0.218
538.54	0.218
538.99	0.217
539.44	0.218
539.90	0.218
540.35	0.218
540.80	0.217
541.26	0.215
541.71	0.214
542.16	0.215
542.62	0.213
543.07	0.214
543.52	0.216
543.98	0.214
544.43	0.213
544.88	0.212
545.34	0.213
545.79	0.212
546.24	0.210
546.69	0.212
547.15	0.211
547.60	0.210
548.05	0.213
548.51	0.208
548.96	0.208
549.41	0.209
549.86	0.207
550.32	0.208
550.77	0.207
551.22	0.209
551.68	0.205
552.13	0.205
552.58	0.206
553.03	0.205
553.49	0.207
553.94	0.206
554.39	0.205
554.84	0.207
555.30	0.205
555.75	0.204
556.20	0.203
556.65	0.202
557.11	0.202
557.56	0.203
558.01	0.205
558.46	0.203
558.92	0.201
559.37	0.201
559.82	0.201
560.27	0.201
560.72	0.200
561.18	0.199
561.63	0.200
562.08	0.197
562.53	0.200
562.99	0.200
563.44	0.199
563.89	0.197
564.34	0.198
564.79	0.198
565.25	0.197
565.70	0.195
566.15	0.195
566.60	0.195
567.05	0.195
567.50	0.195
567.96	0.193
568.41	0.194
568.86	0.194
569.31	0.193
569.76	0.193
570.21	0.192
570.67	0.190
571.12	0.192
571.57	0.191
572.02	0.190
572.47	0.190
572.92	0.189
573.37	0.189
573.83	0.188
574.28	0.189
574.73	0.189
575.18	0.190
575.63	0.190
576.08	0.186
576.53	0.189
576.98	0.187
577.44	0.186
577.89	0.187
578.34	0.186
578.79	0.186
579.24	0.185
579.69	0.186
580.14	0.185
580.59	0.183
581.04	0.183
581.49	0.184
581.95	0.183
582.40	0.183
582.85	0.184
583.30	0.182
583.75	0.181
584.20	0.180
584.65	0.181
585.10	0.182
585.55	0.182
586.00	0.181
586.45	0.180
586.90	0.183
587.35	0.181
587.80	0.179
588.25	0.181
588.71	0.182
589.16	0.178
589.61	0.180
590.06	0.178
590.51	0.179
590.96	0.178
591.41	0.180
591.86	0.178
592.31	0.177
592.76	0.178
593.21	0.178
593.66	0.178
594.11	0.175
594.56	0.175
595.01	0.178
595.46	0.175
595.91	0.175
596.36	0.175
596.81	0.175
597.26	0.175
597.71	0.174
598.16	0.175
598.61	0.175
599.06	0.173
599.51	0.177
599.96	0.174
600.41	0.175
600.86	0.172
601.31	0.176
601.76	0.173
602.21	0.173
602.65	0.174
603.10	0.172
603.55	0.170
604.00	0.171
604.45	0.172
604.90	0.172
605.35	0.170
605.80	0.169
606.25	0.171
606.70	0.170
607.15	0.170
607.60	0.168
608.05	0.168
608.50	0.169
608.95	0.167
609.39	0.170
609.84	0.168
610.29	0.168
610.74	0.168
611.19	0.168
611.64	0.168
612.09	0.167
612.54	0.166
612.99	0.169
613.44	0.166
613.88	0.166
614.33	0.166
614.78	0.164
615.23	0.164
615.68	0.165
616.13	0.164
616.58	0.163
617.03	0.166
617.47	0.165
617.92	0.164
618.37	0.163
618.82	0.164
619.27	0.164
619.72	0.163
620.17	0.161
620.61	0.162
621.06	0.162
621.51	0.161
621.96	0.161
622.41	0.161
622.86	0.161
623.30	0.159
623.75	0.160
624.20	0.160
624.65	0.160
625.10	0.160
625.54	0.160
625.99	0.160
626.44	0.160
626.89	0.159
627.34	0.161
627.78	0.159
628.23	0.158
628.68	0.158
629.13	0.156
629.58	0.158
630.02	0.156
630.47	0.158
630.92	0.156
631.37	0.155
631.81	0.157
632.26	0.157
632.71	0.156
633.16	0.155
633.61	0.156
634.05	0.154
634.50	0.155
634.95	0.155
635.40	0.155
635.84	0.158
636.29	0.155
636.74	0.155
637.18	0.153
637.63	0.156
638.08	0.153
638.53	0.154
638.97	0.154
639.42	0.155
639.87	0.153
640.32	0.151
640.76	0.155
641.21	0.153
641.66	0.152
642.10	0.153
642.55	0.151
643.00	0.152
643.44	0.152
643.89	0.152
644.34	0.152
644.79	0.151
645.23	0.152
645.68	0.151
646.13	0.150
646.57	0.151
647.02	0.150
647.47	0.151
647.91	0.150
648.36	0.148
648.81	0.150
649.25	0.148
649.70	0.148
650.15	0.147
650.59	0.148
651.04	0.149
651.48	0.148
651.93	0.147
652.38	0.148
652.82	0.148
653.27	0.147
653.72	0.146
654.16	0.147
654.61	0.147
655.06	0.146
655.50	0.145
655.95	0.143
656.39	0.140
656.84	0.144
657.29	0.146
657.73	0.145
658.18	0.146
658.62	0.146
659.07	0.144
659.52	0.144
659.96	0.147
660.41	0.148
660.85	0.143
661.30	0.143
661.74	0.145
662.19	0.143
662.64	0.143
663.08	0.142
663.53	0.144
663.97	0.144
664.42	0.143
664.86	0.145
665.31	0.142
665.75	0.141
666.20	0.142
666.65	0.143
667.09	0.141
667.54	0.145
667.98	0.141
668.43	0.143
668.87	0.142
669.32	0.143
669.76	0.141
670.21	0.142
670.65	0.139
671.10	0.141
671.54	0.141
671.99	0.139
672.43	0.140
672.88	0.139
673.32	0.140
673.77	0.137
674.21	0.138
674.66	0.140
675.10	0.137
675.55	0.137
675.99	0.139
676.44	0.140
676.88	0.139
677.33	0.139
677.77	0.137
678.22	0.135
678.66	0.137
679.11	0.138
679.55	0.138
679.99	0.137
680.44	0.138
680.88	0.137
681.33	0.136
681.77	0.134
682.22	0.136
682.66	0.137
683.11	0.137
683.55	0.135
683.99	0.136
684.44	0.133
684.88	0.133
685.33	0.135
685.77	0.135
686.21	0.133
686.66	0.134
687.10	0.133
687.55	0.134
687.99	0.136
688.44	0.136
688.88	0.134
689.32	0.135
689.77	0.134
690.21	0.133
690.65	0.135
691.10	0.133
691.54	0.134
691.99	0.133
692.43	0.132
692.87	0.132
693.32	0.134
693.76	0.135
694.20	0.134
694.65	0.134
695.09	0.134
695.53	0.133
695.98	0.131
696.42	0.133
696.86	0.131
697.31	0.130
697.75	0.132
698.19	0.131
698.64	0.131
699.08	0.131
699.52	0.130
699.97	0.133
700.41	0.130
700.85	0.132
701.30	0.129
701.74	0.131
702.18	0.130
702.63	0.130
703.07	0.132
703.51	0.133
703.96	0.131
704.40	0.130
704.84	0.132
705.28	0.129
705.73	0.128
706.17	0.131
706.61	0.130
707.06	0.129
707.50	0.128
707.94	0.131
708.38	0.127
708.83	0.131
709.27	0.130
709.71	0.127
710.15	0.131
710.60	0.127
711.04	0.127
711.48	0.130
711.92	0.130
712.37	0.129
712.81	0.130
713.25	0.130
713.69	0.130
714.13	0.131
714.58	0.129
715.02	0.128
715.46	0.127
715.90	0.127
716.35	0.126
716.79	0.127
717.23	0.129
717.67	0.128
718.11	0.129
718.56	0.128
719.00	0.129
719.44	0.127
719.88	0.126
720.32	0.126
720.76	0.129
721.21	0.127
721.65	0.128
722.09	0.127
722.53	0.126
722.97	0.126
723.41	0.128
723.86	0.130
724.30	0.128
724.74	0.129
725.18	0.129
725.62	0.127
726.06	0.128
726.50	0.127
726.95	0.127
727.39	0.127
727.83	0.129
728.27	0.128
728.71	0.128
729.15	0.128
729.59	0.128
730.03	0.127
730.48	0.127
730.92	0.127
731.36	0.128
731.80	0.125
732.24	0.130
732.68	0.129
733.12	0.125
733.56	0.129
734.00	0.126
734.44	0.127
734.89	0.128
735.33	0.129
735.77	0.130
736.21	0.131
736.65	0.129
737.09	0.130
737.53	0.130
737.97	0.128
738.41	0.129
738.85	0.129
739.29	0.132
739.73	0.127
740.17	0.126
740.61	0.128
741.05	0.128
741.49	0.127
741.93	0.128
742.37	0.125
742.81	0.129
743.26	0.127
743.70	0.126
744.14	0.127
744.58	0.127
745.02	0.128
745.46	0.128
745.90	0.126
746.34	0.127
746.78	0.126
747.22	0.127
747.66	0.128
748.10	0.126
748.54	0.125
748.98	0.126
749.42	0.129
749.86	0.127
750.29	0.127
750.73	0.125
751.17	0.125
751.61	0.124
752.05	0.128
752.49	0.125
752.93	0.124
753.37	0.122
753.81	0.122
754.25	0.122
754.69	0.123
755.13	0.122
755.57	0.125
756.01	0.127
756.45	0.124
756.89	0.124
757.33	0.124
757.77	0.123
758.21	0.125
758.64	0.121
759.08	0.122
759.52	0.125
759.96	0.125
760.40	0.124
760.84	0.120
761.28	0.121
761.72	0.126
762.16	0.125
762.60	0.122
763.03	0.120
763.47	0.121
763.91	0.121
764.35	0.120
764.79	0.118
765.23	0.120
765.67	0.121
766.11	0.118
766.54	0.118
766.98	0.121
767.42	0.122
767.86	0.119
768.30	0.118
768.74	0.122
769.17	0.123
769.61	0.122
770.05	0.120
770.49	0.121
770.93	0.121
771.37	0.118
771.80	0.120
772.24	0.117
772.68	0.117
773.12	0.119
773.56	0.117
774.00	0.118
774.43	0.120
774.87	0.118
775.31	0.120
775.75	0.117
776.19	0.118
776.62	0.118
777.06	0.120
777.50	0.118
777.94	0.117
778.37	0.118
778.81	0.119
779.25	0.119
779.69	0.120
780.13	0.118
780.56	0.118
781.00	0.118
781.44	0.117
781.88	0.119
782.31	0.117
782.75	0.116
783.19	0.120
783.63	0.115
784.06	0.117
784.50	0.119
784.94	0.113
785.37	0.117
785.81	0.122
786.25	0.117
786.69	0.116
787.12	0.117
787.56	0.113
788.00	0.116
788.43	0.118
788.87	0.116
789.31	0.117
789.75	0.114
790.18	0.114
790.62	0.116
791.06	0.114
791.49	0.117
791.93	0.115
792.37	0.117
792.80	0.114
793.24	0.112
793.68	0.117
794.11	0.115
794.55	0.117
794.99	0.115
795.42	0.114
795.86	0.119
796.30	0.114
796.73	0.116
797.17	0.116
797.61	0.114
798.04	0.114
798.48	0.114
798.91	0.114
799.35	0.116
799.79	0.118
800.22	0.114
800.66	0.114
801.10	0.115
801.53	0.114
801.97	0.119
802.40	0.118
802.84	0.116
803.28	0.112
803.71	0.113
804.15	0.113
804.58	0.114
805.02	0.114
805.46	0.112
805.89	0.110
806.33	0.114
806.76	0.112
807.20	0.110
807.63	0.112
808.07	0.117
808.51	0.111
808.94	0.109
809.38	0.110
809.81	0.112
810.25	0.113
810.68	0.111
811.12	0.114
811.55	0.114
811.99	0.114
812.42	0.114
812.86	0.110
813.29	0.109
813.73	0.113
814.17	0.108
814.60	0.112
815.04	0.115
815.47	0.111
815.91	0.110
816.34	0.113
