SpectraSuite Data File
++++++++++++++++++++++++++++++++++++
Date: Sun Apr 24 16:47:02 CEST 2016
User: spectrasuite
Dark Spectrum Present: Yes
Reference Spectrum Present: Yes
Number of Sampled Component Spectra: 1
Spectrometers: HR+C0708
Integration Time (usec): 1000 (HR+C0708)
Spectra Averaged: 10 (HR+C0708)
Boxcar Smoothing: 0 (HR+C0708)
Correct for Electrical Dark: No (HR+C0708)
Strobe/Lamp Enabled: No (HR+C0708)
Correct for Detector Non-linearity: No (HR+C0708)
Correct for Stray Light: No (HR+C0708)
Number of Pixels in Processed Spectrum: 2048
>>>>>Begin Processed Spectral Data<<<<<
188.76	-0.000
189.23	-0.000
189.70	-0.000
190.17	-0.000
190.64	-0.000
191.12	-0.000
191.59	-0.000
192.06	-0.000
192.53	-0.000
193.01	-0.000
193.48	-0.000
193.95	-0.000
194.42	-0.000
194.90	-0.000
195.37	-0.000
195.84	-0.000
196.31	-0.000
196.78	-0.000
197.26	-0.000
197.73	-0.000
198.20	-0.000
198.67	-0.000
199.14	-0.000
199.62	-0.000
200.09	-0.000
200.56	-0.000
201.03	-0.000
201.50	-0.000
201.97	-0.000
202.45	-0.000
202.92	1.237
203.39	-0.000
203.86	-0.000
204.33	2.191
204.80	1.358
205.28	-0.000
205.75	-0.000
206.22	-0.000
206.69	2.370
207.16	-0.000
207.63	0.860
208.11	1.265
208.58	1.367
209.05	1.713
209.52	1.598
209.99	-0.000
210.46	-0.000
210.93	-0.000
211.41	1.164
211.88	-0.000
212.35	-0.000
212.82	-0.000
213.29	-0.000
213.76	1.436
214.23	1.521
214.70	-0.000
215.18	-0.000
215.65	-0.000
216.12	1.298
216.59	0.973
217.06	-0.000
217.53	-0.000
218.00	1.028
218.47	1.062
218.94	-0.000
219.41	-0.000
219.89	-0.000
220.36	-0.000
220.83	-0.000
221.30	-0.000
221.77	0.962
222.24	-0.000
222.71	-0.000
223.18	-0.000
223.65	1.453
224.12	-0.000
224.59	-0.000
225.06	-0.000
225.54	1.815
226.01	1.523
226.48	-0.000
226.95	-0.000
227.42	-0.000
227.89	-0.000
228.36	1.484
228.83	-0.000
229.30	2.009
229.77	2.180
230.24	1.809
230.71	3.315
231.18	-0.000
231.65	2.241
232.12	1.709
232.59	-0.000
233.06	2.751
233.53	2.022
234.00	2.028
234.47	-0.000
234.94	-0.000
235.41	2.929
235.88	-0.000
236.35	2.808
236.82	-0.000
237.29	2.556
237.76	3.057
238.23	-0.000
238.70	2.683
239.17	2.881
239.64	-0.000
240.11	-0.000
240.58	3.010
241.05	3.242
241.52	2.736
241.99	-0.000
242.46	2.698
242.93	-0.000
243.40	-0.000
243.87	2.623
244.34	2.704
244.81	3.110
245.28	3.139
245.75	-0.000
246.22	-0.000
246.69	-0.000
247.16	-0.000
247.63	3.015
248.10	2.985
248.57	3.066
249.04	-0.000
249.51	-0.000
249.98	-0.000
250.45	3.567
250.92	3.277
251.39	-0.000
251.85	4.412
252.32	-0.000
252.79	-0.000
253.26	-0.000
253.73	-0.000
254.20	3.208
254.67	3.400
255.14	3.508
255.61	2.821
256.08	-0.000
256.55	-0.000
257.02	2.893
257.49	3.884
257.95	3.298
258.42	3.067
258.89	2.924
259.36	2.782
259.83	3.759
260.30	3.256
260.77	2.895
261.24	2.797
261.71	4.480
262.17	2.871
262.64	2.997
263.11	2.990
263.58	3.011
264.05	2.635
264.52	2.660
264.99	2.658
265.46	2.678
265.92	2.601
266.39	2.637
266.86	2.795
267.33	2.677
267.80	2.510
268.27	2.694
268.74	2.575
269.20	2.637
269.67	2.511
270.14	2.538
270.61	2.462
271.08	2.440
271.55	2.421
272.01	2.352
272.48	2.386
272.95	2.379
273.42	2.401
273.89	2.301
274.36	2.361
274.82	2.270
275.29	2.264
275.76	2.285
276.23	2.192
276.70	2.298
277.16	2.177
277.63	2.154
278.10	2.186
278.57	2.235
279.04	2.189
279.50	2.146
279.97	2.140
280.44	2.055
280.91	2.131
281.38	2.057
281.84	2.142
282.31	2.064
282.78	2.089
283.25	2.045
283.72	2.032
284.18	1.985
284.65	2.048
285.12	2.024
285.59	1.960
286.05	1.994
286.52	1.983
286.99	1.993
287.46	1.936
287.92	1.916
288.39	1.964
288.86	1.962
289.33	1.901
289.79	1.917
290.26	1.941
290.73	1.902
291.20	1.880
291.66	1.874
292.13	1.865
292.60	1.859
293.07	1.846
293.53	1.826
294.00	1.828
294.47	1.795
294.93	1.821
295.40	1.822
295.87	1.789
296.34	1.800
296.80	1.774
297.27	1.786
297.74	1.766
298.20	1.776
298.67	1.739
299.14	1.754
299.60	1.733
300.07	1.733
300.54	1.705
301.01	1.690
301.47	1.700
301.94	1.698
302.41	1.705
302.87	1.689
303.34	1.713
303.81	1.660
304.27	1.660
304.74	1.628
305.21	1.668
305.67	1.657
306.14	1.614
306.61	1.627
307.07	1.655
307.54	1.619
308.01	1.619
308.47	1.596
308.94	1.609
309.40	1.594
309.87	1.583
310.34	1.577
310.80	1.595
311.27	1.569
311.74	1.570
312.20	1.556
312.67	1.557
313.13	1.540
313.60	1.551
314.07	1.537
314.53	1.528
315.00	1.508
315.47	1.532
315.93	1.511
316.40	1.492
316.86	1.493
317.33	1.492
317.80	1.480
318.26	1.489
318.73	1.490
319.19	1.478
319.66	1.450
320.13	1.446
320.59	1.454
321.06	1.459
321.52	1.441
321.99	1.434
322.45	1.444
322.92	1.422
323.39	1.415
323.85	1.426
324.32	1.426
324.78	1.404
325.25	1.410
325.71	1.391
326.18	1.379
326.64	1.389
327.11	1.384
327.58	1.377
328.04	1.365
328.51	1.382
328.97	1.365
329.44	1.354
329.90	1.343
330.37	1.333
330.83	1.326
331.30	1.332
331.76	1.319
332.23	1.320
332.69	1.307
333.16	1.285
333.62	1.291
334.09	1.284
334.56	1.270
335.02	1.250
335.49	1.243
335.95	1.236
336.42	1.224
336.88	1.216
337.35	1.213
337.81	1.207
338.28	1.192
338.74	1.187
339.20	1.173
339.67	1.169
340.13	1.158
340.60	1.133
341.06	1.126
341.53	1.116
341.99	1.104
342.46	1.092
342.92	1.079
343.39	1.061
343.85	1.063
344.32	1.052
344.78	1.039
345.25	1.041
345.71	1.024
346.17	1.005
346.64	0.997
347.10	0.982
347.57	0.968
348.03	0.957
348.50	0.933
348.96	0.928
349.43	0.918
349.89	0.893
350.35	0.888
350.82	0.881
351.28	0.863
351.75	0.857
352.21	0.850
352.67	0.836
353.14	0.818
353.60	0.814
354.07	0.807
354.53	0.790
355.00	0.777
355.46	0.775
355.92	0.769
356.39	0.746
356.85	0.745
357.31	0.741
357.78	0.736
358.24	0.722
358.71	0.713
359.17	0.716
359.63	0.702
360.10	0.695
360.56	0.694
361.03	0.689
361.49	0.679
361.95	0.679
362.42	0.674
362.88	0.665
363.34	0.662
363.81	0.660
364.27	0.657
364.73	0.655
365.20	0.650
365.66	0.648
366.12	0.643
366.59	0.638
367.05	0.638
367.51	0.633
367.98	0.636
368.44	0.625
368.90	0.628
369.37	0.623
369.83	0.620
370.29	0.619
370.76	0.615
371.22	0.616
371.68	0.613
372.15	0.608
372.61	0.602
373.07	0.609
373.54	0.601
374.00	0.600
374.46	0.600
374.92	0.596
375.39	0.596
375.85	0.594
376.31	0.594
376.78	0.591
377.24	0.585
377.70	0.588
378.16	0.580
378.63	0.584
379.09	0.582
379.55	0.578
380.01	0.579
380.48	0.573
380.94	0.573
381.40	0.573
381.87	0.569
382.33	0.570
382.79	0.563
383.25	0.565
383.72	0.565
384.18	0.563
384.64	0.557
385.10	0.557
385.56	0.556
386.03	0.556
386.49	0.553
386.95	0.550
387.41	0.547
387.88	0.549
388.34	0.542
388.80	0.544
389.26	0.541
389.72	0.542
390.19	0.540
390.65	0.541
391.11	0.540
391.57	0.536
392.04	0.529
392.50	0.529
392.96	0.530
393.42	0.527
393.88	0.531
394.34	0.523
394.81	0.524
395.27	0.522
395.73	0.522
396.19	0.521
396.65	0.520
397.12	0.513
397.58	0.515
398.04	0.515
398.50	0.513
398.96	0.513
399.42	0.516
399.89	0.510
400.35	0.507
400.81	0.504
401.27	0.505
401.73	0.501
402.19	0.501
402.65	0.500
403.12	0.497
403.58	0.494
404.04	0.497
404.50	0.498
404.96	0.491
405.42	0.494
405.88	0.490
406.34	0.492
406.81	0.490
407.27	0.486
407.73	0.486
408.19	0.483
408.65	0.483
409.11	0.479
409.57	0.480
410.03	0.480
410.49	0.482
410.96	0.477
411.42	0.478
411.88	0.473
412.34	0.471
412.80	0.473
413.26	0.466
413.72	0.467
414.18	0.466
414.64	0.467
415.10	0.467
415.56	0.467
416.02	0.464
416.48	0.462
416.95	0.459
417.41	0.459
417.87	0.459
418.33	0.460
418.79	0.453
419.25	0.453
419.71	0.455
420.17	0.454
420.63	0.453
421.09	0.446
421.55	0.446
422.01	0.450
422.47	0.448
422.93	0.451
423.39	0.444
423.85	0.444
424.31	0.443
424.77	0.439
425.23	0.441
425.69	0.442
426.15	0.438
426.61	0.438
427.07	0.433
427.53	0.433
427.99	0.432
428.45	0.430
428.91	0.432
429.37	0.430
429.83	0.430
430.29	0.428
430.75	0.431
431.21	0.429
431.67	0.429
432.13	0.427
432.59	0.424
433.05	0.422
433.51	0.424
433.97	0.419
434.43	0.424
434.89	0.421
435.35	0.418
435.81	0.417
436.27	0.416
436.73	0.415
437.19	0.411
437.65	0.415
438.11	0.411
438.57	0.408
439.03	0.409
439.48	0.408
439.94	0.408
440.40	0.404
440.86	0.410
441.32	0.402
441.78	0.406
442.24	0.402
442.70	0.401
443.16	0.398
443.62	0.397
444.08	0.402
444.54	0.403
444.99	0.397
445.45	0.394
445.91	0.394
446.37	0.398
446.83	0.396
447.29	0.396
447.75	0.392
448.21	0.392
448.67	0.390
449.12	0.387
449.58	0.392
450.04	0.388
450.50	0.387
450.96	0.389
451.42	0.386
451.88	0.383
452.34	0.380
452.79	0.383
453.25	0.383
453.71	0.379
454.17	0.379
454.63	0.380
455.09	0.385
455.55	0.378
456.00	0.376
456.46	0.374
456.92	0.372
457.38	0.374
457.84	0.372
458.30	0.369
458.75	0.374
459.21	0.365
459.67	0.375
460.13	0.371
460.59	0.368
461.04	0.368
461.50	0.365
461.96	0.365
462.42	0.366
462.88	0.362
463.33	0.363
463.79	0.362
464.25	0.363
464.71	0.359
465.17	0.362
465.62	0.360
466.08	0.360
466.54	0.358
467.00	0.356
467.46	0.360
467.91	0.356
468.37	0.357
468.83	0.356
469.29	0.355
469.74	0.353
470.20	0.354
470.66	0.353
471.12	0.350
471.57	0.350
472.03	0.348
472.49	0.351
472.95	0.348
473.40	0.343
473.86	0.343
474.32	0.344
474.78	0.346
475.23	0.344
475.69	0.346
476.15	0.344
476.60	0.346
477.06	0.339
477.52	0.342
477.98	0.338
478.43	0.341
478.89	0.339
479.35	0.335
479.80	0.339
480.26	0.336
480.72	0.335
481.18	0.336
481.63	0.333
482.09	0.334
482.55	0.335
483.00	0.330
483.46	0.330
483.92	0.330
484.37	0.333
484.83	0.327
485.29	0.326
485.74	0.326
486.20	0.329
486.66	0.327
487.11	0.328
487.57	0.325
488.03	0.324
488.48	0.322
488.94	0.323
489.40	0.322
489.85	0.324
490.31	0.322
490.77	0.321
491.22	0.321
491.68	0.319
492.13	0.320
492.59	0.319
493.05	0.317
493.50	0.317
493.96	0.316
494.42	0.313
494.87	0.309
495.33	0.313
495.78	0.314
496.24	0.315
496.70	0.312
497.15	0.313
497.61	0.311
498.06	0.310
498.52	0.306
498.98	0.308
499.43	0.312
499.89	0.309
500.34	0.308
500.80	0.309
501.25	0.309
501.71	0.306
502.17	0.304
502.62	0.309
503.08	0.304
503.53	0.302
503.99	0.302
504.44	0.300
504.90	0.301
505.36	0.297
505.81	0.303
506.27	0.300
506.72	0.299
507.18	0.300
507.63	0.298
508.09	0.300
508.54	0.297
509.00	0.299
509.45	0.299
509.91	0.294
510.36	0.297
510.82	0.297
511.27	0.294
511.73	0.296
512.19	0.292
512.64	0.293
513.10	0.291
513.55	0.290
514.01	0.291
514.46	0.291
514.92	0.289
515.37	0.292
515.83	0.289
516.28	0.288
516.73	0.287
517.19	0.285
517.64	0.285
518.10	0.286
518.55	0.284
519.01	0.284
519.46	0.285
519.92	0.282
520.37	0.283
520.83	0.284
521.28	0.281
521.74	0.283
522.19	0.282
522.65	0.281
523.10	0.281
523.55	0.281
524.01	0.281
524.46	0.280
524.92	0.277
525.37	0.277
525.83	0.277
526.28	0.275
526.73	0.278
527.19	0.279
527.64	0.275
528.10	0.275
528.55	0.274
529.01	0.274
529.46	0.273
529.91	0.275
530.37	0.271
530.82	0.273
531.28	0.269
531.73	0.271
532.18	0.269
532.64	0.271
533.09	0.271
533.54	0.270
534.00	0.266
534.45	0.270
534.91	0.269
535.36	0.272
535.81	0.267
536.27	0.263
536.72	0.267
537.17	0.266
537.63	0.265
538.08	0.264
538.54	0.265
538.99	0.264
539.44	0.265
539.90	0.263
540.35	0.260
540.80	0.262
541.26	0.260
541.71	0.262
542.16	0.262
542.62	0.260
543.07	0.261
543.52	0.259
543.98	0.259
544.43	0.258
544.88	0.258
545.34	0.258
545.79	0.258
546.24	0.256
546.69	0.259
547.15	0.257
547.60	0.255
548.05	0.257
548.51	0.253
548.96	0.255
549.41	0.254
549.86	0.253
550.32	0.255
550.77	0.254
551.22	0.253
551.68	0.250
552.13	0.250
552.58	0.250
553.03	0.252
553.49	0.249
553.94	0.250
554.39	0.250
554.84	0.250
555.30	0.249
555.75	0.249
556.20	0.247
556.65	0.245
557.11	0.247
557.56	0.246
558.01	0.248
558.46	0.247
558.92	0.244
559.37	0.243
559.82	0.243
560.27	0.245
560.72	0.243
561.18	0.242
561.63	0.242
562.08	0.240
562.53	0.240
562.99	0.242
563.44	0.243
563.89	0.241
564.34	0.239
564.79	0.240
565.25	0.240
565.70	0.236
566.15	0.238
566.60	0.237
567.05	0.238
567.50	0.237
567.96	0.236
568.41	0.236
568.86	0.235
569.31	0.235
569.76	0.232
570.21	0.234
570.67	0.234
571.12	0.235
571.57	0.233
572.02	0.232
572.47	0.230
572.92	0.233
573.37	0.232
573.83	0.230
574.28	0.231
574.73	0.229
575.18	0.231
575.63	0.231
576.08	0.228
576.53	0.229
576.98	0.228
577.44	0.224
577.89	0.227
578.34	0.228
578.79	0.225
579.24	0.226
579.69	0.226
580.14	0.223
580.59	0.223
581.04	0.222
581.49	0.224
581.95	0.222
582.40	0.221
582.85	0.224
583.30	0.222
583.75	0.220
584.20	0.221
584.65	0.223
585.10	0.222
585.55	0.221
586.00	0.221
586.45	0.220
586.90	0.220
587.35	0.220
587.80	0.219
588.25	0.217
588.71	0.218
589.16	0.217
589.61	0.217
590.06	0.217
590.51	0.218
590.96	0.218
591.41	0.215
591.86	0.216
592.31	0.214
592.76	0.218
593.21	0.216
593.66	0.215
594.11	0.217
594.56	0.214
595.01	0.215
595.46	0.214
595.91	0.215
596.36	0.214
596.81	0.213
597.26	0.211
597.71	0.214
598.16	0.212
598.61	0.210
599.06	0.210
599.51	0.213
599.96	0.214
600.41	0.212
600.86	0.211
601.31	0.212
601.76	0.210
602.21	0.208
602.65	0.211
603.10	0.208
603.55	0.210
604.00	0.211
604.45	0.209
604.90	0.209
605.35	0.206
605.80	0.207
606.25	0.208
606.70	0.206
607.15	0.205
607.60	0.206
608.05	0.204
608.50	0.204
608.95	0.204
609.39	0.206
609.84	0.203
610.29	0.204
610.74	0.205
611.19	0.203
611.64	0.203
612.09	0.203
612.54	0.203
612.99	0.202
613.44	0.202
613.88	0.206
614.33	0.202
614.78	0.200
615.23	0.200
615.68	0.200
616.13	0.202
616.58	0.199
617.03	0.199
617.47	0.201
617.92	0.199
618.37	0.196
618.82	0.199
619.27	0.199
619.72	0.197
620.17	0.197
620.61	0.198
621.06	0.196
621.51	0.196
621.96	0.195
622.41	0.197
622.86	0.196
623.30	0.192
623.75	0.197
624.20	0.196
624.65	0.193
625.10	0.195
625.54	0.194
625.99	0.194
626.44	0.193
626.89	0.194
627.34	0.193
627.78	0.192
628.23	0.190
628.68	0.192
629.13	0.191
629.58	0.192
630.02	0.193
630.47	0.191
630.92	0.191
631.37	0.190
631.81	0.190
632.26	0.191
632.71	0.191
633.16	0.188
633.61	0.188
634.05	0.186
634.50	0.188
634.95	0.188
635.40	0.189
635.84	0.190
636.29	0.187
636.74	0.188
637.18	0.189
637.63	0.188
638.08	0.187
638.53	0.187
638.97	0.185
639.42	0.186
639.87	0.187
640.32	0.185
640.76	0.186
641.21	0.185
641.66	0.185
642.10	0.184
642.55	0.185
643.00	0.184
643.44	0.185
643.89	0.182
644.34	0.182
644.79	0.183
645.23	0.183
645.68	0.184
646.13	0.182
646.57	0.182
647.02	0.179
647.47	0.184
647.91	0.183
648.36	0.182
648.81	0.183
649.25	0.180
649.70	0.181
650.15	0.180
650.59	0.179
651.04	0.179
651.48	0.182
651.93	0.180
652.38	0.177
652.82	0.179
653.27	0.180
653.72	0.179
654.16	0.178
654.61	0.179
655.06	0.178
655.50	0.176
655.95	0.177
656.39	0.171
656.84	0.174
657.29	0.178
657.73	0.177
658.18	0.176
658.62	0.176
659.07	0.175
659.52	0.177
659.96	0.176
660.41	0.177
660.85	0.175
661.30	0.176
661.74	0.175
662.19	0.174
662.64	0.175
663.08	0.173
663.53	0.175
663.97	0.173
664.42	0.174
664.86	0.174
665.31	0.173
665.75	0.171
666.20	0.175
666.65	0.173
667.09	0.173
667.54	0.174
667.98	0.173
668.43	0.173
668.87	0.170
669.32	0.171
669.76	0.171
670.21	0.171
670.65	0.169
671.10	0.170
671.54	0.169
671.99	0.169
672.43	0.169
672.88	0.168
673.32	0.169
673.77	0.167
674.21	0.168
674.66	0.169
675.10	0.167
675.55	0.167
675.99	0.168
676.44	0.168
676.88	0.167
677.33	0.166
677.77	0.168
678.22	0.166
678.66	0.164
679.11	0.166
679.55	0.168
679.99	0.165
680.44	0.167
680.88	0.162
681.33	0.162
681.77	0.165
682.22	0.167
682.66	0.164
683.11	0.165
683.55	0.166
683.99	0.163
684.44	0.164
684.88	0.162
685.33	0.164
685.77	0.164
686.21	0.162
686.66	0.164
687.10	0.162
687.55	0.160
687.99	0.165
688.44	0.164
688.88	0.160
689.32	0.165
689.77	0.161
690.21	0.162
690.65	0.161
691.10	0.162
691.54	0.159
691.99	0.160
692.43	0.159
692.87	0.160
693.32	0.160
693.76	0.162
694.20	0.162
694.65	0.160
695.09	0.159
695.53	0.157
695.98	0.158
696.42	0.159
696.86	0.159
697.31	0.155
697.75	0.157
698.19	0.157
698.64	0.157
699.08	0.158
699.52	0.158
699.97	0.159
700.41	0.158
700.85	0.158
701.30	0.155
701.74	0.157
702.18	0.157
702.63	0.156
703.07	0.158
703.51	0.159
703.96	0.155
704.40	0.156
704.84	0.158
705.28	0.156
705.73	0.157
706.17	0.158
706.61	0.155
707.06	0.153
707.50	0.156
707.94	0.155
708.38	0.152
708.83	0.156
709.27	0.153
709.71	0.154
710.15	0.157
710.60	0.152
711.04	0.152
711.48	0.156
711.92	0.155
712.37	0.154
712.81	0.156
713.25	0.154
713.69	0.153
714.13	0.155
714.58	0.154
715.02	0.154
715.46	0.152
715.90	0.151
716.35	0.150
716.79	0.153
717.23	0.154
717.67	0.154
718.11	0.155
718.56	0.153
719.00	0.154
719.44	0.153
719.88	0.151
720.32	0.153
720.76	0.153
721.21	0.153
721.65	0.152
722.09	0.151
722.53	0.151
722.97	0.152
723.41	0.149
723.86	0.155
724.30	0.153
724.74	0.153
725.18	0.152
725.62	0.153
726.06	0.152
726.50	0.150
726.95	0.151
727.39	0.149
727.83	0.151
728.27	0.151
728.71	0.151
729.15	0.151
729.59	0.153
730.03	0.152
730.48	0.152
730.92	0.150
731.36	0.151
731.80	0.153
732.24	0.153
732.68	0.149
733.12	0.148
733.56	0.150
734.00	0.151
734.44	0.153
734.89	0.151
735.33	0.150
735.77	0.154
736.21	0.152
736.65	0.150
737.09	0.153
737.53	0.153
737.97	0.152
738.41	0.151
738.85	0.154
739.29	0.154
739.73	0.149
740.17	0.149
740.61	0.151
741.05	0.152
741.49	0.150
741.93	0.152
742.37	0.147
742.81	0.149
743.26	0.150
743.70	0.148
744.14	0.150
744.58	0.149
745.02	0.150
745.46	0.149
745.90	0.149
746.34	0.151
746.78	0.149
747.22	0.151
747.66	0.150
748.10	0.150
748.54	0.147
748.98	0.147
749.42	0.148
749.86	0.149
750.29	0.146
750.73	0.149
751.17	0.147
751.61	0.143
752.05	0.150
752.49	0.146
752.93	0.146
753.37	0.146
753.81	0.145
754.25	0.147
754.69	0.144
755.13	0.143
755.57	0.147
756.01	0.145
756.45	0.148
756.89	0.147
757.33	0.147
757.77	0.144
758.21	0.143
758.64	0.143
759.08	0.142
759.52	0.146
759.96	0.147
760.40	0.145
760.84	0.143
761.28	0.145
761.72	0.145
762.16	0.147
762.60	0.144
763.03	0.142
763.47	0.144
763.91	0.143
764.35	0.141
764.79	0.142
765.23	0.140
765.67	0.139
766.11	0.140
766.54	0.140
766.98	0.143
767.42	0.142
767.86	0.142
768.30	0.142
768.74	0.144
769.17	0.147
769.61	0.142
770.05	0.144
770.49	0.142
770.93	0.143
771.37	0.140
771.80	0.141
772.24	0.138
772.68	0.142
773.12	0.142
773.56	0.141
774.00	0.140
774.43	0.139
774.87	0.139
775.31	0.140
775.75	0.139
776.19	0.140
776.62	0.137
777.06	0.139
777.50	0.138
777.94	0.140
778.37	0.139
778.81	0.139
779.25	0.140
779.69	0.140
780.13	0.140
780.56	0.138
781.00	0.138
781.44	0.138
781.88	0.140
782.31	0.135
782.75	0.137
783.19	0.137
783.63	0.139
784.06	0.135
784.50	0.140
784.94	0.135
785.37	0.136
785.81	0.139
786.25	0.138
786.69	0.135
787.12	0.136
787.56	0.135
788.00	0.137
788.43	0.135
788.87	0.136
789.31	0.137
789.75	0.135
790.18	0.134
790.62	0.135
791.06	0.135
791.49	0.135
791.93	0.132
792.37	0.135
792.80	0.135
793.24	0.132
793.68	0.136
794.11	0.134
794.55	0.136
794.99	0.134
795.42	0.135
795.86	0.136
796.30	0.132
796.73	0.136
797.17	0.136
797.61	0.134
798.04	0.132
798.48	0.131
798.91	0.131
799.35	0.132
799.79	0.140
800.22	0.134
800.66	0.130
801.10	0.137
801.53	0.132
801.97	0.137
802.40	0.133
802.84	0.133
803.28	0.126
803.71	0.131
804.15	0.131
804.58	0.133
805.02	0.135
805.46	0.132
805.89	0.132
806.33	0.132
806.76	0.133
807.20	0.132
807.63	0.132
808.07	0.138
808.51	0.130
808.94	0.131
809.38	0.133
809.81	0.130
810.25	0.133
810.68	0.136
811.12	0.131
811.55	0.131
811.99	0.129
812.42	0.131
812.86	0.131
813.29	0.130
813.73	0.133
814.17	0.130
814.60	0.132
815.04	0.133
