SpectraSuite Data File
++++++++++++++++++++++++++++++++++++
Date: Sun Apr 24 16:19:54 CEST 2016
User: spectrasuite
Dark Spectrum Present: Yes
Reference Spectrum Present: Yes
Number of Sampled Component Spectra: 1
Spectrometers: HR+C0708
Integration Time (usec): 1000 (HR+C0708)
Spectra Averaged: 10 (HR+C0708)
Boxcar Smoothing: 0 (HR+C0708)
Correct for Electrical Dark: No (HR+C0708)
Strobe/Lamp Enabled: No (HR+C0708)
Correct for Detector Non-linearity: No (HR+C0708)
Correct for Stray Light: No (HR+C0708)
Number of Pixels in Processed Spectrum: 2048
>>>>>Begin Processed Spectral Data<<<<<
188.76	-0.000
189.23	-0.000
189.70	-0.000
190.17	-0.000
190.64	-0.000
191.12	-0.000
191.59	-0.000
192.06	-0.000
192.53	-0.000
193.01	-0.000
193.48	-0.000
193.95	-0.000
194.42	-0.000
194.90	-0.000
195.37	-0.000
195.84	-0.000
196.31	-0.000
196.78	-0.000
197.26	-0.000
197.73	-0.000
198.20	-0.000
198.67	-0.000
199.14	-0.000
199.62	-0.000
200.09	-0.000
200.56	-0.000
201.03	-0.000
201.50	-0.000
201.97	-0.000
202.45	-0.000
202.92	1.181
203.39	1.561
203.86	-0.000
204.33	-0.000
204.80	-0.000
205.28	1.678
205.75	-0.000
206.22	-0.000
206.69	-0.000
207.16	-0.000
207.63	-0.000
208.11	0.912
208.58	1.828
209.05	-0.000
209.52	-0.000
209.99	-0.000
210.46	1.634
210.93	-0.000
211.41	-0.000
211.88	-0.000
212.35	1.450
212.82	-0.000
213.29	-0.000
213.76	-0.000
214.23	-0.000
214.70	-0.000
215.18	-0.000
215.65	-0.000
216.12	-0.000
216.59	-0.000
217.06	1.271
217.53	1.126
218.00	-0.000
218.47	1.268
218.94	1.283
219.41	-0.000
219.89	-0.000
220.36	-0.000
220.83	-0.000
221.30	-0.000
221.77	-0.000
222.24	-0.000
222.71	-0.000
223.18	-0.000
223.65	-0.000
224.12	-0.000
224.59	-0.000
225.06	-0.000
225.54	2.213
226.01	1.782
226.48	-0.000
226.95	-0.000
227.42	-0.000
227.89	-0.000
228.36	-0.000
228.83	-0.000
229.30	-0.000
229.77	-0.000
230.24	1.586
230.71	-0.000
231.18	-0.000
231.65	-0.000
232.12	2.598
232.59	-0.000
233.06	-0.000
233.53	-0.000
234.00	2.630
234.47	-0.000
234.94	-0.000
235.41	-0.000
235.88	-0.000
236.35	-0.000
236.82	2.504
237.29	3.274
237.76	-0.000
238.23	3.149
238.70	-0.000
239.17	2.587
239.64	-0.000
240.11	-0.000
240.58	-0.000
241.05	2.892
241.52	-0.000
241.99	-0.000
242.46	2.816
242.93	-0.000
243.40	3.541
243.87	3.153
244.34	2.599
244.81	-0.000
245.28	-0.000
245.75	-0.000
246.22	-0.000
246.69	-0.000
247.16	-0.000
247.63	3.573
248.10	-0.000
248.57	-0.000
249.04	-0.000
249.51	-0.000
249.98	3.144
250.45	-0.000
250.92	3.096
251.39	2.884
251.85	-0.000
252.32	-0.000
252.79	3.366
253.26	-0.000
253.73	-0.000
254.20	-0.000
254.67	3.271
255.14	3.038
255.61	-0.000
256.08	-0.000
256.55	-0.000
257.02	3.208
257.49	-0.000
257.95	3.025
258.42	3.957
258.89	3.388
259.36	3.746
259.83	3.503
260.30	-0.000
260.77	3.413
261.24	2.900
261.71	3.208
262.17	-0.000
262.64	2.952
263.11	3.232
263.58	-0.000
264.05	2.891
264.52	3.165
264.99	2.907
265.46	3.067
265.92	3.311
266.39	2.764
266.86	3.059
267.33	3.416
267.80	2.774
268.27	2.810
268.74	2.856
269.20	2.740
269.67	2.816
270.14	2.603
270.61	2.749
271.08	2.944
271.55	2.571
272.01	2.544
272.48	2.619
272.95	2.520
273.42	2.575
273.89	2.552
274.36	2.474
274.82	2.362
275.29	2.534
275.76	2.492
276.23	2.380
276.70	2.500
277.16	2.351
277.63	2.327
278.10	2.279
278.57	2.330
279.04	2.362
279.50	2.317
279.97	2.275
280.44	2.242
280.91	2.206
281.38	2.215
281.84	2.228
282.31	2.340
282.78	2.389
283.25	2.175
283.72	2.165
284.18	2.243
284.65	2.177
285.12	2.149
285.59	2.164
286.05	2.152
286.52	2.164
286.99	2.138
287.46	2.138
287.92	2.136
288.39	2.092
288.86	2.145
289.33	2.106
289.79	2.090
290.26	2.085
290.73	2.065
291.20	2.040
291.66	2.058
292.13	2.002
292.60	1.980
293.07	1.991
293.53	1.954
294.00	1.964
294.47	1.961
294.93	1.979
295.40	1.942
295.87	1.957
296.34	1.958
296.80	1.927
297.27	1.933
297.74	1.917
298.20	1.947
298.67	1.886
299.14	1.924
299.60	1.922
300.07	1.868
300.54	1.857
301.01	1.881
301.47	1.840
301.94	1.841
302.41	1.848
302.87	1.848
303.34	1.871
303.81	1.817
304.27	1.813
304.74	1.808
305.21	1.791
305.67	1.793
306.14	1.778
306.61	1.792
307.07	1.763
307.54	1.740
308.01	1.761
308.47	1.760
308.94	1.769
309.40	1.732
309.87	1.737
310.34	1.716
310.80	1.742
311.27	1.727
311.74	1.715
312.20	1.701
312.67	1.695
313.13	1.674
313.60	1.715
314.07	1.701
314.53	1.683
315.00	1.662
315.47	1.680
315.93	1.666
316.40	1.653
316.86	1.641
317.33	1.641
317.80	1.633
318.26	1.627
318.73	1.631
319.19	1.621
319.66	1.604
320.13	1.596
320.59	1.587
321.06	1.598
321.52	1.611
321.99	1.577
322.45	1.575
322.92	1.570
323.39	1.570
323.85	1.574
324.32	1.559
324.78	1.550
325.25	1.554
325.71	1.532
326.18	1.522
326.64	1.557
327.11	1.524
327.58	1.517
328.04	1.526
328.51	1.517
328.97	1.500
329.44	1.493
329.90	1.474
330.37	1.469
330.83	1.460
331.30	1.461
331.76	1.443
332.23	1.423
332.69	1.434
333.16	1.413
333.62	1.416
334.09	1.393
334.56	1.398
335.02	1.378
335.49	1.366
335.95	1.357
336.42	1.338
336.88	1.349
337.35	1.314
337.81	1.310
338.28	1.305
338.74	1.289
339.20	1.279
339.67	1.261
340.13	1.255
340.60	1.237
341.06	1.223
341.53	1.204
341.99	1.203
342.46	1.169
342.92	1.152
343.39	1.151
343.85	1.130
344.32	1.122
344.78	1.101
345.25	1.100
345.71	1.088
346.17	1.066
346.64	1.051
347.10	1.030
347.57	1.008
348.03	0.997
348.50	0.978
348.96	0.961
349.43	0.943
349.89	0.931
350.35	0.919
350.82	0.902
351.28	0.900
351.75	0.880
352.21	0.866
352.67	0.852
353.14	0.838
353.60	0.830
354.07	0.813
354.53	0.801
355.00	0.784
355.46	0.773
355.92	0.769
356.39	0.756
356.85	0.749
357.31	0.738
357.78	0.729
358.24	0.717
358.71	0.710
359.17	0.700
359.63	0.693
360.10	0.692
360.56	0.686
361.03	0.683
361.49	0.673
361.95	0.671
362.42	0.661
362.88	0.657
363.34	0.651
363.81	0.649
364.27	0.641
364.73	0.637
365.20	0.636
365.66	0.639
366.12	0.632
366.59	0.626
367.05	0.626
367.51	0.622
367.98	0.617
368.44	0.617
368.90	0.613
369.37	0.612
369.83	0.608
370.29	0.608
370.76	0.600
371.22	0.602
371.68	0.597
372.15	0.599
372.61	0.592
373.07	0.591
373.54	0.594
374.00	0.591
374.46	0.590
374.92	0.584
375.39	0.583
375.85	0.579
376.31	0.580
376.78	0.578
377.24	0.577
377.70	0.572
378.16	0.570
378.63	0.568
379.09	0.573
379.55	0.566
380.01	0.566
380.48	0.565
380.94	0.561
381.40	0.558
381.87	0.557
382.33	0.555
382.79	0.557
383.25	0.554
383.72	0.552
384.18	0.547
384.64	0.547
385.10	0.545
385.56	0.547
386.03	0.543
386.49	0.538
386.95	0.540
387.41	0.536
387.88	0.536
388.34	0.533
388.80	0.535
389.26	0.533
389.72	0.526
390.19	0.528
390.65	0.528
391.11	0.525
391.57	0.522
392.04	0.522
392.50	0.518
392.96	0.518
393.42	0.516
393.88	0.520
394.34	0.513
394.81	0.513
395.27	0.510
395.73	0.511
396.19	0.505
396.65	0.509
397.12	0.508
397.58	0.503
398.04	0.501
398.50	0.504
398.96	0.501
399.42	0.506
399.89	0.497
400.35	0.498
400.81	0.494
401.27	0.493
401.73	0.491
402.19	0.489
402.65	0.487
403.12	0.485
403.58	0.485
404.04	0.485
404.50	0.487
404.96	0.481
405.42	0.481
405.88	0.481
406.34	0.481
406.81	0.475
407.27	0.478
407.73	0.474
408.19	0.473
408.65	0.474
409.11	0.469
409.57	0.471
410.03	0.466
410.49	0.467
410.96	0.470
411.42	0.463
411.88	0.465
412.34	0.463
412.80	0.461
413.26	0.455
413.72	0.459
414.18	0.458
414.64	0.457
415.10	0.458
415.56	0.457
416.02	0.457
416.48	0.454
416.95	0.451
417.41	0.449
417.87	0.448
418.33	0.446
418.79	0.441
419.25	0.445
419.71	0.441
420.17	0.443
420.63	0.441
421.09	0.440
421.55	0.438
422.01	0.437
422.47	0.438
422.93	0.436
423.39	0.440
423.85	0.439
424.31	0.433
424.77	0.430
425.23	0.432
425.69	0.434
426.15	0.429
426.61	0.429
427.07	0.424
427.53	0.425
427.99	0.424
428.45	0.422
428.91	0.425
429.37	0.422
429.83	0.419
430.29	0.418
430.75	0.423
431.21	0.421
431.67	0.418
432.13	0.418
432.59	0.415
433.05	0.411
433.51	0.410
433.97	0.412
434.43	0.412
434.89	0.412
435.35	0.411
435.81	0.407
436.27	0.405
436.73	0.408
437.19	0.408
437.65	0.404
438.11	0.404
438.57	0.406
439.03	0.408
439.48	0.399
439.94	0.395
440.40	0.398
440.86	0.396
441.32	0.397
441.78	0.395
442.24	0.395
442.70	0.389
443.16	0.392
443.62	0.391
444.08	0.391
444.54	0.389
444.99	0.388
445.45	0.387
445.91	0.389
446.37	0.388
446.83	0.387
447.29	0.384
447.75	0.387
448.21	0.383
448.67	0.381
449.12	0.380
449.58	0.381
450.04	0.379
450.50	0.381
450.96	0.380
451.42	0.377
451.88	0.375
452.34	0.373
452.79	0.375
453.25	0.374
453.71	0.376
454.17	0.371
454.63	0.372
455.09	0.374
455.55	0.371
456.00	0.366
456.46	0.368
456.92	0.365
457.38	0.367
457.84	0.366
458.30	0.367
458.75	0.364
459.21	0.362
459.67	0.364
460.13	0.361
460.59	0.359
461.04	0.357
461.50	0.357
461.96	0.355
462.42	0.357
462.88	0.356
463.33	0.356
463.79	0.353
464.25	0.352
464.71	0.354
465.17	0.354
465.62	0.355
466.08	0.351
466.54	0.353
467.00	0.351
467.46	0.351
467.91	0.351
468.37	0.350
468.83	0.347
469.29	0.346
469.74	0.347
470.20	0.345
470.66	0.344
471.12	0.341
471.57	0.343
472.03	0.343
472.49	0.344
472.95	0.341
473.40	0.340
473.86	0.337
474.32	0.337
474.78	0.337
475.23	0.335
475.69	0.337
476.15	0.334
476.60	0.336
477.06	0.335
477.52	0.333
477.98	0.332
478.43	0.331
478.89	0.329
479.35	0.329
479.80	0.330
480.26	0.329
480.72	0.328
481.18	0.331
481.63	0.330
482.09	0.327
482.55	0.326
483.00	0.326
483.46	0.326
483.92	0.321
484.37	0.324
484.83	0.321
485.29	0.321
485.74	0.320
486.20	0.323
486.66	0.320
487.11	0.319
487.57	0.319
488.03	0.318
488.48	0.318
488.94	0.316
489.40	0.317
489.85	0.317
490.31	0.318
490.77	0.315
491.22	0.314
491.68	0.312
492.13	0.312
492.59	0.312
493.05	0.312
493.50	0.312
493.96	0.308
494.42	0.309
494.87	0.308
495.33	0.308
495.78	0.311
496.24	0.308
496.70	0.307
497.15	0.307
497.61	0.306
498.06	0.303
498.52	0.301
498.98	0.305
499.43	0.306
499.89	0.302
500.34	0.301
500.80	0.302
501.25	0.303
501.71	0.300
502.17	0.300
502.62	0.303
503.08	0.298
503.53	0.295
503.99	0.294
504.44	0.296
504.90	0.295
505.36	0.295
505.81	0.296
506.27	0.295
506.72	0.294
507.18	0.294
507.63	0.293
508.09	0.295
508.54	0.291
509.00	0.291
509.45	0.292
509.91	0.291
510.36	0.291
510.82	0.291
511.27	0.288
511.73	0.289
512.19	0.286
512.64	0.286
513.10	0.287
513.55	0.287
514.01	0.287
514.46	0.283
514.92	0.284
515.37	0.283
515.83	0.283
516.28	0.283
516.73	0.282
517.19	0.282
517.64	0.280
518.10	0.281
518.55	0.279
519.01	0.278
519.46	0.278
519.92	0.280
520.37	0.276
520.83	0.276
521.28	0.277
521.74	0.279
522.19	0.277
522.65	0.275
523.10	0.275
523.55	0.275
524.01	0.277
524.46	0.275
524.92	0.272
525.37	0.271
525.83	0.272
526.28	0.274
526.73	0.270
527.19	0.275
527.64	0.272
528.10	0.270
528.55	0.270
529.01	0.269
529.46	0.268
529.91	0.268
530.37	0.268
530.82	0.267
531.28	0.266
531.73	0.265
532.18	0.265
532.64	0.265
533.09	0.264
533.54	0.264
534.00	0.265
534.45	0.265
534.91	0.264
535.36	0.264
535.81	0.261
536.27	0.262
536.72	0.261
537.17	0.261
537.63	0.262
538.08	0.261
538.54	0.262
538.99	0.258
539.44	0.259
539.90	0.257
540.35	0.256
540.80	0.255
541.26	0.254
541.71	0.255
542.16	0.254
542.62	0.255
543.07	0.254
543.52	0.254
543.98	0.256
544.43	0.253
544.88	0.253
545.34	0.253
545.79	0.253
546.24	0.252
546.69	0.252
547.15	0.253
547.60	0.250
548.05	0.251
548.51	0.248
548.96	0.249
549.41	0.250
549.86	0.248
550.32	0.251
550.77	0.249
551.22	0.248
551.68	0.245
552.13	0.245
552.58	0.246
553.03	0.246
553.49	0.246
553.94	0.247
554.39	0.245
554.84	0.245
555.30	0.245
555.75	0.242
556.20	0.242
556.65	0.241
557.11	0.243
557.56	0.242
558.01	0.243
558.46	0.244
558.92	0.241
559.37	0.240
559.82	0.241
560.27	0.240
560.72	0.240
561.18	0.240
561.63	0.237
562.08	0.239
562.53	0.239
562.99	0.239
563.44	0.237
563.89	0.236
564.34	0.238
564.79	0.238
565.25	0.234
565.70	0.235
566.15	0.234
566.60	0.234
567.05	0.235
567.50	0.233
567.96	0.232
568.41	0.232
568.86	0.231
569.31	0.232
569.76	0.231
570.21	0.230
570.67	0.230
571.12	0.232
571.57	0.230
572.02	0.228
572.47	0.228
572.92	0.228
573.37	0.227
573.83	0.226
574.28	0.228
574.73	0.225
575.18	0.225
575.63	0.226
576.08	0.223
576.53	0.226
576.98	0.224
577.44	0.222
577.89	0.225
578.34	0.222
578.79	0.222
579.24	0.223
579.69	0.221
580.14	0.220
580.59	0.220
581.04	0.220
581.49	0.219
581.95	0.221
582.40	0.221
582.85	0.219
583.30	0.219
583.75	0.218
584.20	0.219
584.65	0.217
585.10	0.217
585.55	0.218
586.00	0.216
586.45	0.216
586.90	0.217
587.35	0.216
587.80	0.215
588.25	0.216
588.71	0.216
589.16	0.215
589.61	0.214
590.06	0.214
590.51	0.215
590.96	0.213
591.41	0.210
591.86	0.213
592.31	0.213
592.76	0.213
593.21	0.213
593.66	0.213
594.11	0.212
594.56	0.210
595.01	0.211
595.46	0.210
595.91	0.212
596.36	0.209
596.81	0.211
597.26	0.210
597.71	0.210
598.16	0.210
598.61	0.208
599.06	0.208
599.51	0.210
599.96	0.209
600.41	0.208
600.86	0.208
601.31	0.205
601.76	0.208
602.21	0.209
602.65	0.207
603.10	0.207
603.55	0.207
604.00	0.207
604.45	0.206
604.90	0.204
605.35	0.202
605.80	0.204
606.25	0.207
606.70	0.205
607.15	0.204
607.60	0.203
608.05	0.202
608.50	0.203
608.95	0.201
609.39	0.205
609.84	0.203
610.29	0.202
610.74	0.201
611.19	0.200
611.64	0.200
612.09	0.201
612.54	0.201
612.99	0.199
613.44	0.199
613.88	0.201
614.33	0.197
614.78	0.198
615.23	0.197
615.68	0.198
616.13	0.199
616.58	0.196
617.03	0.196
617.47	0.199
617.92	0.196
618.37	0.196
618.82	0.194
619.27	0.197
619.72	0.194
620.17	0.194
620.61	0.193
621.06	0.195
621.51	0.194
621.96	0.193
622.41	0.195
622.86	0.194
623.30	0.193
623.75	0.194
624.20	0.193
624.65	0.192
625.10	0.191
625.54	0.191
625.99	0.190
626.44	0.192
626.89	0.189
627.34	0.191
627.78	0.191
628.23	0.190
628.68	0.188
629.13	0.189
629.58	0.190
630.02	0.189
630.47	0.187
630.92	0.188
631.37	0.189
631.81	0.189
632.26	0.188
632.71	0.189
633.16	0.187
633.61	0.187
634.05	0.186
634.50	0.186
634.95	0.186
635.40	0.187
635.84	0.187
636.29	0.184
636.74	0.186
637.18	0.186
637.63	0.186
638.08	0.184
638.53	0.184
638.97	0.184
639.42	0.186
639.87	0.184
640.32	0.182
640.76	0.185
641.21	0.183
641.66	0.184
642.10	0.184
642.55	0.182
643.00	0.181
643.44	0.182
643.89	0.181
644.34	0.182
644.79	0.180
645.23	0.181
645.68	0.182
646.13	0.181
646.57	0.181
647.02	0.180
647.47	0.182
647.91	0.181
648.36	0.181
648.81	0.182
649.25	0.179
649.70	0.178
650.15	0.178
650.59	0.179
651.04	0.177
651.48	0.180
651.93	0.180
652.38	0.178
652.82	0.176
653.27	0.178
653.72	0.179
654.16	0.177
654.61	0.178
655.06	0.178
655.50	0.177
655.95	0.173
656.39	0.171
656.84	0.174
657.29	0.178
657.73	0.175
658.18	0.174
658.62	0.177
659.07	0.174
659.52	0.176
659.96	0.176
660.41	0.177
660.85	0.174
661.30	0.173
661.74	0.175
662.19	0.173
662.64	0.172
663.08	0.173
663.53	0.174
663.97	0.172
664.42	0.172
664.86	0.172
665.31	0.173
665.75	0.171
666.20	0.171
666.65	0.172
667.09	0.171
667.54	0.172
667.98	0.169
668.43	0.172
668.87	0.169
669.32	0.171
669.76	0.170
670.21	0.170
670.65	0.169
671.10	0.170
671.54	0.169
671.99	0.168
672.43	0.169
672.88	0.170
673.32	0.169
673.77	0.167
674.21	0.165
674.66	0.167
675.10	0.166
675.55	0.164
675.99	0.167
676.44	0.167
676.88	0.167
677.33	0.166
677.77	0.165
678.22	0.164
678.66	0.164
679.11	0.165
679.55	0.165
679.99	0.163
680.44	0.166
680.88	0.163
681.33	0.162
681.77	0.164
682.22	0.163
682.66	0.164
683.11	0.163
683.55	0.162
683.99	0.163
684.44	0.159
684.88	0.162
685.33	0.160
685.77	0.161
686.21	0.160
686.66	0.162
687.10	0.161
687.55	0.160
687.99	0.162
688.44	0.161
688.88	0.159
689.32	0.160
689.77	0.158
690.21	0.159
690.65	0.159
691.10	0.160
691.54	0.159
691.99	0.158
692.43	0.157
692.87	0.155
693.32	0.157
693.76	0.158
694.20	0.157
694.65	0.157
695.09	0.156
695.53	0.157
695.98	0.155
696.42	0.156
696.86	0.157
697.31	0.156
697.75	0.156
698.19	0.156
698.64	0.157
699.08	0.156
699.52	0.155
699.97	0.157
700.41	0.154
700.85	0.156
701.30	0.153
701.74	0.156
702.18	0.155
702.63	0.157
703.07	0.155
703.51	0.154
703.96	0.154
704.40	0.153
704.84	0.154
705.28	0.156
705.73	0.154
706.17	0.153
706.61	0.154
707.06	0.153
707.50	0.155
707.94	0.151
708.38	0.151
708.83	0.153
709.27	0.152
709.71	0.152
710.15	0.151
710.60	0.150
711.04	0.149
711.48	0.151
711.92	0.154
712.37	0.151
712.81	0.154
713.25	0.153
713.69	0.153
714.13	0.154
714.58	0.149
715.02	0.150
715.46	0.150
715.90	0.149
716.35	0.150
716.79	0.152
717.23	0.151
717.67	0.148
718.11	0.155
718.56	0.148
719.00	0.150
719.44	0.151
719.88	0.149
720.32	0.151
720.76	0.153
721.21	0.150
721.65	0.150
722.09	0.151
722.53	0.149
722.97	0.151
723.41	0.149
723.86	0.151
724.30	0.150
724.74	0.151
725.18	0.150
725.62	0.150
726.06	0.150
726.50	0.149
726.95	0.148
727.39	0.152
727.83	0.146
728.27	0.149
728.71	0.149
729.15	0.151
729.59	0.150
730.03	0.147
730.48	0.148
730.92	0.149
731.36	0.151
731.80	0.150
732.24	0.150
732.68	0.147
733.12	0.145
733.56	0.147
734.00	0.150
734.44	0.150
734.89	0.148
735.33	0.149
735.77	0.151
736.21	0.149
736.65	0.148
737.09	0.152
737.53	0.152
737.97	0.147
738.41	0.150
738.85	0.150
739.29	0.153
739.73	0.149
740.17	0.149
740.61	0.150
741.05	0.150
741.49	0.147
741.93	0.150
742.37	0.145
742.81	0.147
743.26	0.148
743.70	0.148
744.14	0.148
744.58	0.146
745.02	0.149
745.46	0.150
745.90	0.148
746.34	0.148
746.78	0.148
747.22	0.146
747.66	0.148
748.10	0.148
748.54	0.146
748.98	0.146
749.42	0.147
749.86	0.147
750.29	0.146
750.73	0.145
751.17	0.146
751.61	0.144
752.05	0.147
752.49	0.143
752.93	0.144
753.37	0.145
753.81	0.143
754.25	0.143
754.69	0.141
755.13	0.140
755.57	0.144
756.01	0.143
756.45	0.146
756.89	0.145
757.33	0.145
757.77	0.144
758.21	0.142
758.64	0.142
759.08	0.139
759.52	0.144
759.96	0.145
760.40	0.143
760.84	0.140
761.28	0.140
761.72	0.145
762.16	0.143
762.60	0.141
763.03	0.140
763.47	0.141
763.91	0.143
764.35	0.141
764.79	0.140
765.23	0.138
765.67	0.140
766.11	0.137
766.54	0.140
766.98	0.141
767.42	0.140
767.86	0.137
768.30	0.139
768.74	0.144
769.17	0.143
769.61	0.141
770.05	0.138
770.49	0.143
770.93	0.144
771.37	0.138
771.80	0.138
772.24	0.139
772.68	0.141
773.12	0.139
773.56	0.137
774.00	0.137
774.43	0.138
774.87	0.137
775.31	0.138
775.75	0.137
776.19	0.137
776.62	0.133
777.06	0.139
777.50	0.136
777.94	0.137
778.37	0.134
778.81	0.135
779.25	0.135
779.69	0.137
780.13	0.137
780.56	0.136
781.00	0.138
781.44	0.137
781.88	0.136
782.31	0.137
782.75	0.136
783.19	0.138
783.63	0.137
784.06	0.133
784.50	0.136
784.94	0.135
785.37	0.134
785.81	0.135
786.25	0.137
786.69	0.133
787.12	0.133
787.56	0.131
788.00	0.134
788.43	0.137
788.87	0.135
789.31	0.135
789.75	0.135
790.18	0.132
790.62	0.134
791.06	0.132
791.49	0.134
791.93	0.131
792.37	0.134
792.80	0.133
793.24	0.132
793.68	0.133
794.11	0.132
794.55	0.137
794.99	0.134
795.42	0.133
795.86	0.135
796.30	0.133
796.73	0.133
797.17	0.131
797.61	0.130
798.04	0.131
798.48	0.132
798.91	0.132
799.35	0.130
799.79	0.136
800.22	0.133
800.66	0.130
801.10	0.133
801.53	0.131
801.97	0.137
802.40	0.134
802.84	0.132
803.28	0.131
803.71	0.131
804.15	0.130
804.58	0.130
805.02	0.134
805.46	0.134
805.89	0.129
806.33	0.129
806.76	0.133
807.20	0.133
807.63	0.131
808.07	0.132
808.51	0.128
808.94	0.133
809.38	0.126
809.81	0.129
810.25	0.132
810.68	0.132
811.12	0.127
811.55	0.133
811.99	0.132
812.42	0.129
812.86	0.128
813.29	0.129
813.73	0.128
814.17	0.128
