SpectraSuite Data File
++++++++++++++++++++++++++++++++++++
Date: Sun Apr 24 13:21:05 CEST 2016
User: spectrasuite
Dark Spectrum Present: Yes
Reference Spectrum Present: Yes
Number of Sampled Component Spectra: 1
Spectrometers: HR+C0708
Integration Time (usec): 1000 (HR+C0708)
Spectra Averaged: 10 (HR+C0708)
Boxcar Smoothing: 0 (HR+C0708)
Correct for Electrical Dark: No (HR+C0708)
Strobe/Lamp Enabled: No (HR+C0708)
Correct for Detector Non-linearity: No (HR+C0708)
Correct for Stray Light: No (HR+C0708)
Number of Pixels in Processed Spectrum: 2048
>>>>>Begin Processed Spectral Data<<<<<
188.76	1.307
189.23	0.615
189.70	-0.000
190.17	-0.000
190.64	-0.000
191.12	-0.000
191.59	2.134
192.06	-0.000
192.53	-0.000
193.01	-0.000
193.48	-0.000
193.95	-0.000
194.42	-0.000
194.90	0.843
195.37	-0.000
195.84	-0.000
196.31	-0.000
196.78	-0.000
197.26	-0.000
197.73	-0.000
198.20	-0.000
198.67	-0.000
199.14	-0.000
199.62	-0.000
200.09	0.981
200.56	-0.000
201.03	0.985
201.50	0.942
201.97	0.557
202.45	0.835
202.92	0.651
203.39	0.886
203.86	0.624
204.33	0.928
204.80	1.402
205.28	1.086
205.75	1.233
206.22	0.578
206.69	0.747
207.16	1.156
207.63	0.644
208.11	0.537
208.58	0.843
209.05	0.810
209.52	1.390
209.99	1.054
210.46	1.090
210.93	1.126
211.41	0.761
211.88	0.705
212.35	0.874
212.82	-0.000
213.29	0.893
213.76	1.327
214.23	0.789
214.70	1.763
215.18	0.988
215.65	1.225
216.12	0.950
216.59	1.022
217.06	1.286
217.53	0.847
218.00	1.013
218.47	1.389
218.94	1.322
219.41	-0.000
219.89	0.827
220.36	1.916
220.83	1.271
221.30	1.412
221.77	0.846
222.24	0.990
222.71	1.314
223.18	-0.000
223.65	1.206
224.12	1.850
224.59	-0.000
225.06	1.107
225.54	1.138
226.01	0.969
226.48	1.556
226.95	1.300
227.42	1.432
227.89	-0.000
228.36	1.369
228.83	1.753
229.30	1.367
229.77	1.684
230.24	1.411
230.71	2.838
231.18	1.714
231.65	1.713
232.12	1.774
232.59	1.905
233.06	2.450
233.53	1.887
234.00	1.842
234.47	1.979
234.94	2.483
235.41	1.993
235.88	2.231
236.35	2.770
236.82	2.130
237.29	2.342
237.76	2.150
238.23	2.562
238.70	2.251
239.17	2.215
239.64	2.625
240.11	2.676
240.58	2.441
241.05	2.829
241.52	2.416
241.99	2.988
242.46	2.576
242.93	3.611
243.40	2.511
243.87	2.394
244.34	2.315
244.81	2.783
245.28	-0.000
245.75	2.855
246.22	2.951
246.69	2.605
247.16	2.586
247.63	2.818
248.10	2.511
248.57	3.284
249.04	3.042
249.51	2.899
249.98	2.783
250.45	3.014
250.92	2.700
251.39	2.725
251.85	3.100
252.32	2.790
252.79	3.246
253.26	2.649
253.73	3.947
254.20	2.575
254.67	2.771
255.14	3.184
255.61	3.020
256.08	2.984
256.55	3.038
257.02	2.592
257.49	2.805
257.95	2.850
258.42	2.708
258.89	2.786
259.36	2.832
259.83	2.909
260.30	4.093
260.77	3.644
261.24	3.000
261.71	3.157
262.17	3.122
262.64	2.711
263.11	3.069
263.58	3.833
264.05	2.891
264.52	2.858
264.99	2.777
265.46	3.057
265.92	2.903
266.39	3.028
266.86	2.874
267.33	3.361
267.80	2.648
268.27	3.555
268.74	2.915
269.20	2.922
269.67	3.392
270.14	2.636
270.61	2.953
271.08	3.044
271.55	2.746
272.01	2.836
272.48	2.930
272.95	2.640
273.42	2.746
273.89	2.914
274.36	2.716
274.82	2.792
275.29	2.789
275.76	2.964
276.23	2.678
276.70	2.878
277.16	2.876
277.63	2.806
278.10	2.805
278.57	2.817
279.04	2.771
279.50	2.562
279.97	2.770
280.44	2.556
280.91	2.712
281.38	2.729
281.84	2.640
282.31	2.780
282.78	3.265
283.25	2.661
283.72	2.629
284.18	2.916
284.65	2.707
285.12	2.802
285.59	2.604
286.05	2.806
286.52	2.620
286.99	2.773
287.46	2.720
287.92	2.740
288.39	2.725
288.86	2.741
289.33	2.612
289.79	2.615
290.26	2.594
290.73	2.607
291.20	2.673
291.66	2.658
292.13	2.646
292.60	2.511
293.07	2.533
293.53	2.439
294.00	2.502
294.47	2.499
294.93	2.506
295.40	2.633
295.87	2.535
296.34	2.602
296.80	2.485
297.27	2.488
297.74	2.480
298.20	2.633
298.67	2.433
299.14	2.506
299.60	2.525
300.07	2.363
300.54	2.445
301.01	2.390
301.47	2.255
301.94	2.326
302.41	2.342
302.87	2.417
303.34	2.405
303.81	2.298
304.27	2.365
304.74	2.266
305.21	2.240
305.67	2.357
306.14	2.272
306.61	2.326
307.07	2.304
307.54	2.199
308.01	2.323
308.47	2.273
308.94	2.334
309.40	2.271
309.87	2.223
310.34	2.177
310.80	2.259
311.27	2.261
311.74	2.236
312.20	2.354
312.67	2.303
313.13	2.192
313.60	2.249
314.07	2.238
314.53	2.236
315.00	2.170
315.47	2.232
315.93	2.210
316.40	2.220
316.86	2.215
317.33	2.236
317.80	2.165
318.26	2.250
318.73	2.282
319.19	2.274
319.66	2.193
320.13	2.213
320.59	2.240
321.06	2.220
321.52	2.227
321.99	2.204
322.45	2.184
322.92	2.089
323.39	2.137
323.85	2.154
324.32	2.223
324.78	2.186
325.25	2.190
325.71	2.103
326.18	2.106
326.64	2.244
327.11	2.098
327.58	2.050
328.04	2.073
328.51	2.086
328.97	2.064
329.44	2.016
329.90	1.998
330.37	1.977
330.83	1.954
331.30	1.996
331.76	1.902
332.23	1.877
332.69	1.894
333.16	1.798
333.62	1.793
334.09	1.775
334.56	1.719
335.02	1.684
335.49	1.655
335.95	1.600
336.42	1.570
336.88	1.520
337.35	1.473
337.81	1.463
338.28	1.412
338.74	1.375
339.20	1.334
339.67	1.290
340.13	1.252
340.60	1.191
341.06	1.153
341.53	1.111
341.99	1.075
342.46	1.033
342.92	0.990
343.39	0.949
343.85	0.915
344.32	0.885
344.78	0.854
345.25	0.827
345.71	0.795
346.17	0.761
346.64	0.732
347.10	0.694
347.57	0.653
348.03	0.620
348.50	0.591
348.96	0.561
349.43	0.543
349.89	0.515
350.35	0.490
350.82	0.474
351.28	0.452
351.75	0.431
352.21	0.413
352.67	0.395
353.14	0.384
353.60	0.364
354.07	0.352
354.53	0.339
355.00	0.327
355.46	0.313
355.92	0.304
356.39	0.294
356.85	0.289
357.31	0.278
357.78	0.271
358.24	0.264
358.71	0.257
359.17	0.253
359.63	0.250
360.10	0.243
360.56	0.240
361.03	0.238
361.49	0.233
361.95	0.231
362.42	0.228
362.88	0.226
363.34	0.221
363.81	0.216
364.27	0.215
364.73	0.216
365.20	0.217
365.66	0.212
366.12	0.211
366.59	0.209
367.05	0.212
367.51	0.209
367.98	0.205
368.44	0.206
368.90	0.204
369.37	0.202
369.83	0.201
370.29	0.203
370.76	0.199
371.22	0.201
371.68	0.199
372.15	0.196
372.61	0.193
373.07	0.194
373.54	0.192
374.00	0.192
374.46	0.194
374.92	0.193
375.39	0.189
375.85	0.189
376.31	0.191
376.78	0.190
377.24	0.187
377.70	0.188
378.16	0.185
378.63	0.187
379.09	0.187
379.55	0.186
380.01	0.184
380.48	0.184
380.94	0.183
381.40	0.182
381.87	0.181
382.33	0.182
382.79	0.181
383.25	0.182
383.72	0.184
384.18	0.182
384.64	0.178
385.10	0.179
385.56	0.176
386.03	0.177
386.49	0.178
386.95	0.175
387.41	0.172
387.88	0.175
388.34	0.175
388.80	0.173
389.26	0.173
389.72	0.173
390.19	0.175
390.65	0.172
391.11	0.170
391.57	0.171
392.04	0.170
392.50	0.169
392.96	0.170
393.42	0.167
393.88	0.170
394.34	0.168
394.81	0.168
395.27	0.168
395.73	0.167
396.19	0.166
396.65	0.166
397.12	0.166
397.58	0.163
398.04	0.163
398.50	0.164
398.96	0.163
399.42	0.164
399.89	0.163
400.35	0.162
400.81	0.160
401.27	0.159
401.73	0.161
402.19	0.156
402.65	0.157
403.12	0.157
403.58	0.156
404.04	0.157
404.50	0.155
404.96	0.154
405.42	0.155
405.88	0.153
406.34	0.153
406.81	0.152
407.27	0.153
407.73	0.150
408.19	0.149
408.65	0.150
409.11	0.145
409.57	0.152
410.03	0.149
410.49	0.150
410.96	0.147
411.42	0.148
411.88	0.145
412.34	0.147
412.80	0.147
413.26	0.144
413.72	0.145
414.18	0.144
414.64	0.142
415.10	0.144
415.56	0.143
416.02	0.144
416.48	0.140
416.95	0.141
417.41	0.140
417.87	0.141
418.33	0.141
418.79	0.139
419.25	0.137
419.71	0.140
420.17	0.140
420.63	0.139
421.09	0.138
421.55	0.137
422.01	0.138
422.47	0.140
422.93	0.138
423.39	0.137
423.85	0.137
424.31	0.137
424.77	0.137
425.23	0.142
425.69	0.137
426.15	0.135
426.61	0.135
427.07	0.134
427.53	0.135
427.99	0.133
428.45	0.134
428.91	0.136
429.37	0.132
429.83	0.134
430.29	0.132
430.75	0.133
431.21	0.133
431.67	0.135
432.13	0.134
432.59	0.129
433.05	0.130
433.51	0.129
433.97	0.131
434.43	0.132
434.89	0.131
435.35	0.132
435.81	0.131
436.27	0.128
436.73	0.129
437.19	0.129
437.65	0.129
438.11	0.128
438.57	0.131
439.03	0.129
439.48	0.129
439.94	0.128
440.40	0.130
440.86	0.127
441.32	0.125
441.78	0.127
442.24	0.128
442.70	0.125
443.16	0.126
443.62	0.122
444.08	0.125
444.54	0.124
444.99	0.124
445.45	0.126
445.91	0.123
446.37	0.125
446.83	0.125
447.29	0.123
447.75	0.124
448.21	0.126
448.67	0.122
449.12	0.124
449.58	0.124
450.04	0.122
450.50	0.126
450.96	0.125
451.42	0.123
451.88	0.122
452.34	0.122
452.79	0.121
453.25	0.125
453.71	0.124
454.17	0.123
454.63	0.125
455.09	0.122
455.55	0.122
456.00	0.121
456.46	0.122
456.92	0.121
457.38	0.122
457.84	0.120
458.30	0.120
458.75	0.123
459.21	0.116
459.67	0.122
460.13	0.124
460.59	0.122
461.04	0.121
461.50	0.121
461.96	0.123
462.42	0.122
462.88	0.119
463.33	0.120
463.79	0.119
464.25	0.119
464.71	0.119
465.17	0.119
465.62	0.118
466.08	0.118
466.54	0.119
467.00	0.118
467.46	0.118
467.91	0.118
468.37	0.119
468.83	0.120
469.29	0.119
469.74	0.119
470.20	0.119
470.66	0.119
471.12	0.118
471.57	0.120
472.03	0.121
472.49	0.118
472.95	0.121
473.40	0.116
473.86	0.117
474.32	0.118
474.78	0.117
475.23	0.117
475.69	0.119
476.15	0.117
476.60	0.121
477.06	0.117
477.52	0.118
477.98	0.118
478.43	0.114
478.89	0.118
479.35	0.117
479.80	0.118
480.26	0.118
480.72	0.117
481.18	0.121
481.63	0.114
482.09	0.118
482.55	0.117
483.00	0.119
483.46	0.118
483.92	0.117
484.37	0.118
484.83	0.115
485.29	0.115
485.74	0.115
486.20	0.116
486.66	0.114
487.11	0.116
487.57	0.114
488.03	0.116
488.48	0.117
488.94	0.116
489.40	0.115
489.85	0.116
490.31	0.116
490.77	0.115
491.22	0.118
491.68	0.115
492.13	0.115
492.59	0.115
493.05	0.115
493.50	0.116
493.96	0.114
494.42	0.114
494.87	0.112
495.33	0.113
495.78	0.116
496.24	0.115
496.70	0.115
497.15	0.115
497.61	0.115
498.06	0.115
498.52	0.114
498.98	0.113
499.43	0.116
499.89	0.113
500.34	0.112
500.80	0.114
501.25	0.114
501.71	0.112
502.17	0.113
502.62	0.113
503.08	0.113
503.53	0.110
503.99	0.112
504.44	0.114
504.90	0.111
505.36	0.109
505.81	0.112
506.27	0.111
506.72	0.111
507.18	0.110
507.63	0.109
508.09	0.111
508.54	0.108
509.00	0.108
509.45	0.111
509.91	0.109
510.36	0.109
510.82	0.110
511.27	0.110
511.73	0.110
512.19	0.109
512.64	0.109
513.10	0.107
513.55	0.109
514.01	0.106
514.46	0.110
514.92	0.110
515.37	0.108
515.83	0.110
516.28	0.107
516.73	0.107
517.19	0.109
517.64	0.107
518.10	0.109
518.55	0.108
519.01	0.107
519.46	0.107
519.92	0.106
520.37	0.106
520.83	0.106
521.28	0.107
521.74	0.109
522.19	0.107
522.65	0.107
523.10	0.105
523.55	0.106
524.01	0.108
524.46	0.107
524.92	0.105
525.37	0.108
525.83	0.107
526.28	0.106
526.73	0.105
527.19	0.106
527.64	0.110
528.10	0.108
528.55	0.107
529.01	0.108
529.46	0.106
529.91	0.107
530.37	0.107
530.82	0.106
531.28	0.104
531.73	0.106
532.18	0.108
532.64	0.107
533.09	0.106
533.54	0.108
534.00	0.107
534.45	0.108
534.91	0.109
535.36	0.109
535.81	0.108
536.27	0.106
536.72	0.109
537.17	0.108
537.63	0.108
538.08	0.106
538.54	0.111
538.99	0.110
539.44	0.110
539.90	0.108
540.35	0.110
540.80	0.110
541.26	0.112
541.71	0.109
542.16	0.112
542.62	0.110
543.07	0.111
543.52	0.112
543.98	0.112
544.43	0.111
544.88	0.111
545.34	0.114
545.79	0.113
546.24	0.112
546.69	0.117
547.15	0.114
547.60	0.114
548.05	0.115
548.51	0.114
548.96	0.115
549.41	0.118
549.86	0.115
550.32	0.118
550.77	0.119
551.22	0.119
551.68	0.119
552.13	0.118
552.58	0.118
553.03	0.120
553.49	0.121
553.94	0.120
554.39	0.121
554.84	0.122
555.30	0.122
555.75	0.122
556.20	0.124
556.65	0.123
557.11	0.126
557.56	0.125
558.01	0.129
558.46	0.127
558.92	0.127
559.37	0.127
559.82	0.130
560.27	0.130
560.72	0.129
561.18	0.129
561.63	0.130
562.08	0.129
562.53	0.132
562.99	0.135
563.44	0.132
563.89	0.134
564.34	0.134
564.79	0.138
565.25	0.135
565.70	0.136
566.15	0.136
566.60	0.137
567.05	0.140
567.50	0.139
567.96	0.140
568.41	0.140
568.86	0.139
569.31	0.142
569.76	0.140
570.21	0.145
570.67	0.144
571.12	0.145
571.57	0.146
572.02	0.145
572.47	0.146
572.92	0.149
573.37	0.149
573.83	0.149
574.28	0.151
574.73	0.151
575.18	0.154
575.63	0.155
576.08	0.153
576.53	0.156
576.98	0.156
577.44	0.156
577.89	0.158
578.34	0.161
578.79	0.159
579.24	0.163
579.69	0.163
580.14	0.163
580.59	0.165
581.04	0.166
581.49	0.168
581.95	0.169
582.40	0.170
582.85	0.173
583.30	0.174
583.75	0.173
584.20	0.177
584.65	0.178
585.10	0.180
585.55	0.182
586.00	0.183
586.45	0.185
586.90	0.187
587.35	0.189
587.80	0.189
588.25	0.191
588.71	0.193
589.16	0.196
589.61	0.198
590.06	0.200
590.51	0.203
590.96	0.205
591.41	0.206
591.86	0.209
592.31	0.210
592.76	0.212
593.21	0.214
593.66	0.218
594.11	0.220
594.56	0.220
595.01	0.224
595.46	0.224
595.91	0.228
596.36	0.231
596.81	0.234
597.26	0.235
597.71	0.236
598.16	0.239
598.61	0.240
599.06	0.244
599.51	0.246
599.96	0.251
600.41	0.252
600.86	0.253
601.31	0.255
601.76	0.258
602.21	0.261
602.65	0.264
603.10	0.265
603.55	0.267
604.00	0.269
604.45	0.269
604.90	0.274
605.35	0.275
605.80	0.277
606.25	0.282
606.70	0.281
607.15	0.281
607.60	0.283
608.05	0.286
608.50	0.287
608.95	0.291
609.39	0.293
609.84	0.293
610.29	0.294
610.74	0.297
611.19	0.298
611.64	0.299
612.09	0.301
612.54	0.302
612.99	0.304
613.44	0.303
613.88	0.304
614.33	0.306
614.78	0.306
615.23	0.306
615.68	0.308
616.13	0.308
616.58	0.307
617.03	0.308
617.47	0.312
617.92	0.310
618.37	0.311
618.82	0.313
619.27	0.311
619.72	0.313
620.17	0.313
620.61	0.313
621.06	0.313
621.51	0.316
621.96	0.313
622.41	0.317
622.86	0.316
623.30	0.315
623.75	0.318
624.20	0.319
624.65	0.316
625.10	0.319
625.54	0.317
625.99	0.319
626.44	0.321
626.89	0.322
627.34	0.325
627.78	0.324
628.23	0.323
628.68	0.324
629.13	0.326
629.58	0.330
630.02	0.329
630.47	0.331
630.92	0.333
631.37	0.334
631.81	0.337
632.26	0.337
632.71	0.341
633.16	0.341
633.61	0.343
634.05	0.345
634.50	0.349
634.95	0.354
635.40	0.356
635.84	0.356
636.29	0.356
636.74	0.360
637.18	0.367
637.63	0.368
638.08	0.369
638.53	0.371
638.97	0.376
639.42	0.379
639.87	0.381
640.32	0.383
640.76	0.387
641.21	0.391
641.66	0.397
642.10	0.401
642.55	0.403
643.00	0.403
643.44	0.409
643.89	0.412
644.34	0.414
644.79	0.420
645.23	0.426
645.68	0.428
646.13	0.432
646.57	0.436
647.02	0.441
647.47	0.448
647.91	0.447
648.36	0.450
648.81	0.456
649.25	0.459
649.70	0.464
650.15	0.468
650.59	0.473
651.04	0.474
651.48	0.483
651.93	0.484
652.38	0.483
652.82	0.491
653.27	0.493
653.72	0.498
654.16	0.501
654.61	0.506
655.06	0.509
655.50	0.511
655.95	0.509
656.39	0.513
656.84	0.519
657.29	0.524
657.73	0.527
658.18	0.530
658.62	0.536
659.07	0.536
659.52	0.540
659.96	0.544
660.41	0.542
660.85	0.546
661.30	0.548
661.74	0.550
662.19	0.554
662.64	0.555
663.08	0.554
663.53	0.559
663.97	0.558
664.42	0.559
664.86	0.563
665.31	0.560
665.75	0.560
666.20	0.565
666.65	0.562
667.09	0.562
667.54	0.560
667.98	0.563
668.43	0.556
668.87	0.555
669.32	0.549
669.76	0.552
670.21	0.548
670.65	0.543
671.10	0.539
671.54	0.535
671.99	0.528
672.43	0.522
672.88	0.516
673.32	0.514
673.77	0.506
674.21	0.496
674.66	0.493
675.10	0.484
675.55	0.472
675.99	0.469
676.44	0.458
676.88	0.451
677.33	0.439
677.77	0.432
678.22	0.421
678.66	0.410
679.11	0.399
679.55	0.393
679.99	0.380
680.44	0.371
680.88	0.362
681.33	0.351
681.77	0.341
682.22	0.333
682.66	0.323
683.11	0.312
683.55	0.303
683.99	0.294
684.44	0.283
684.88	0.273
685.33	0.264
685.77	0.257
686.21	0.249
686.66	0.239
687.10	0.233
687.55	0.224
687.99	0.218
688.44	0.211
688.88	0.202
689.32	0.197
689.77	0.189
690.21	0.183
690.65	0.177
691.10	0.171
691.54	0.165
691.99	0.160
692.43	0.153
692.87	0.148
693.32	0.146
693.76	0.142
694.20	0.138
694.65	0.132
695.09	0.131
695.53	0.125
695.98	0.122
696.42	0.121
696.86	0.114
697.31	0.110
697.75	0.109
698.19	0.105
698.64	0.103
699.08	0.102
699.52	0.096
699.97	0.098
700.41	0.095
700.85	0.093
701.30	0.088
701.74	0.088
702.18	0.085
702.63	0.084
703.07	0.083
703.51	0.084
703.96	0.081
704.40	0.080
704.84	0.081
705.28	0.075
705.73	0.074
706.17	0.073
706.61	0.071
707.06	0.071
707.50	0.073
707.94	0.068
708.38	0.068
708.83	0.070
709.27	0.067
709.71	0.066
710.15	0.067
710.60	0.065
711.04	0.065
711.48	0.065
711.92	0.063
712.37	0.062
712.81	0.064
713.25	0.062
713.69	0.062
714.13	0.063
714.58	0.063
715.02	0.061
715.46	0.060
715.90	0.059
716.35	0.059
716.79	0.060
717.23	0.058
717.67	0.057
718.11	0.060
718.56	0.057
719.00	0.060
719.44	0.058
719.88	0.060
720.32	0.057
720.76	0.058
721.21	0.058
721.65	0.058
722.09	0.057
722.53	0.056
722.97	0.057
723.41	0.055
723.86	0.057
724.30	0.058
724.74	0.058
725.18	0.057
725.62	0.055
726.06	0.060
726.50	0.053
726.95	0.056
727.39	0.056
727.83	0.055
728.27	0.057
728.71	0.056
729.15	0.056
729.59	0.059
730.03	0.056
730.48	0.057
730.92	0.056
731.36	0.058
731.80	0.057
732.24	0.059
732.68	0.056
733.12	0.057
733.56	0.057
734.00	0.058
734.44	0.059
734.89	0.058
735.33	0.060
735.77	0.061
736.21	0.058
736.65	0.057
737.09	0.058
737.53	0.059
737.97	0.058
738.41	0.059
738.85	0.062
739.29	0.061
739.73	0.058
740.17	0.059
740.61	0.058
741.05	0.058
741.49	0.058
741.93	0.060
742.37	0.059
742.81	0.057
743.26	0.059
743.70	0.059
744.14	0.058
744.58	0.058
745.02	0.058
745.46	0.058
745.90	0.060
746.34	0.059
746.78	0.058
747.22	0.059
747.66	0.058
748.10	0.058
748.54	0.057
748.98	0.057
749.42	0.059
749.86	0.060
750.29	0.056
750.73	0.055
751.17	0.056
751.61	0.055
752.05	0.058
752.49	0.057
752.93	0.053
753.37	0.058
753.81	0.058
754.25	0.057
754.69	0.057
755.13	0.058
755.57	0.057
756.01	0.057
756.45	0.058
756.89	0.058
757.33	0.057
757.77	0.057
758.21	0.057
758.64	0.054
759.08	0.055
759.52	0.058
759.96	0.059
760.40	0.056
760.84	0.055
761.28	0.057
761.72	0.057
762.16	0.058
762.60	0.056
763.03	0.055
763.47	0.056
763.91	0.056
764.35	0.057
764.79	0.055
765.23	0.055
765.67	0.055
766.11	0.054
766.54	0.053
766.98	0.056
767.42	0.057
767.86	0.053
768.30	0.056
768.74	0.060
769.17	0.058
769.61	0.058
770.05	0.056
770.49	0.057
770.93	0.058
771.37	0.053
771.80	0.054
772.24	0.055
772.68	0.055
773.12	0.055
773.56	0.055
774.00	0.052
774.43	0.054
774.87	0.055
775.31	0.054
775.75	0.054
776.19	0.056
776.62	0.054
777.06	0.058
777.50	0.053
777.94	0.053
778.37	0.054
778.81	0.057
779.25	0.056
779.69	0.055
780.13	0.054
780.56	0.054
781.00	0.054
781.44	0.053
781.88	0.057
782.31	0.055
782.75	0.056
783.19	0.058
783.63	0.052
784.06	0.054
784.50	0.056
784.94	0.053
785.37	0.055
785.81	0.054
786.25	0.056
786.69	0.054
787.12	0.051
787.56	0.051
788.00	0.055
788.43	0.055
788.87	0.054
789.31	0.054
789.75	0.057
790.18	0.053
790.62	0.051
791.06	0.051
791.49	0.053
791.93	0.053
792.37	0.057
792.80	0.052
793.24	0.053
793.68	0.057
794.11	0.054
794.55	0.057
794.99	0.057
795.42	0.055
795.86	0.060
796.30	0.055
796.73	0.056
797.17	0.054
797.61	0.057
798.04	0.053
798.48	0.056
798.91	0.055
799.35	0.052
799.79	0.058
800.22	0.053
800.66	0.053
801.10	0.054
801.53	0.052
801.97	0.058
802.40	0.056
802.84	0.054
803.28	0.052
803.71	0.055
804.15	0.054
804.58	0.054
805.02	0.054
805.46	0.053
805.89	0.053
806.33	0.051
806.76	0.051
807.20	0.055
807.63	0.054
808.07	0.057
808.51	0.054
808.94	0.053
809.38	0.053
809.81	0.054
810.25	0.056
810.68	0.054
811.12	0.055
811.55	0.057
811.99	0.056
812.42	0.057
812.86	0.051
813.29	0.050
813.73	0.053
814.17	0.056
814.60	0.055
815.04	0.053
815.47	0.055
815.91	0.054
816.34	0.054
816.78	0.053
817.21	0.056
