SpectraSuite Data File
++++++++++++++++++++++++++++++++++++
Date: Sun Apr 24 13:51:13 CEST 2016
User: spectrasuite
Dark Spectrum Present: Yes
Reference Spectrum Present: Yes
Number of Sampled Component Spectra: 1
Spectrometers: HR+C0708
Integration Time (usec): 1000 (HR+C0708)
Spectra Averaged: 10 (HR+C0708)
Boxcar Smoothing: 0 (HR+C0708)
Correct for Electrical Dark: No (HR+C0708)
Strobe/Lamp Enabled: No (HR+C0708)
Correct for Detector Non-linearity: No (HR+C0708)
Correct for Stray Light: No (HR+C0708)
Number of Pixels in Processed Spectrum: 2048
>>>>>Begin Processed Spectral Data<<<<<
188.76	2.152
189.23	-0.000
189.70	-0.000
190.17	-0.000
190.64	-0.000
191.12	-0.000
191.59	-0.000
192.06	-0.000
192.53	-0.000
193.01	-0.000
193.48	-0.000
193.95	-0.000
194.42	-0.000
194.90	0.281
195.37	-0.000
195.84	-0.000
196.31	-0.000
196.78	-0.000
197.26	-0.000
197.73	-0.000
198.20	-0.000
198.67	-0.000
199.14	-0.000
199.62	-0.000
200.09	1.141
200.56	-0.000
201.03	-0.000
201.50	1.118
201.97	1.360
202.45	0.920
202.92	1.237
203.39	1.104
203.86	1.015
204.33	1.492
204.80	1.425
205.28	1.489
205.75	-0.000
206.22	-0.000
206.69	1.038
207.16	-0.000
207.63	1.607
208.11	0.993
208.58	0.689
209.05	0.920
209.52	-0.000
209.99	1.392
210.46	1.145
210.93	1.739
211.41	0.720
211.88	0.875
212.35	-0.000
212.82	-0.000
213.29	-0.000
213.76	1.042
214.23	1.054
214.70	1.105
215.18	-0.000
215.65	0.863
216.12	1.284
216.59	-0.000
217.06	1.638
217.53	0.870
218.00	1.454
218.47	1.071
218.94	1.271
219.41	0.945
219.89	-0.000
220.36	1.228
220.83	1.429
221.30	-0.000
221.77	1.497
222.24	1.616
222.71	-0.000
223.18	-0.000
223.65	1.816
224.12	-0.000
224.59	-0.000
225.06	1.151
225.54	1.252
226.01	0.926
226.48	1.485
226.95	-0.000
227.42	1.288
227.89	-0.000
228.36	1.657
228.83	1.753
229.30	1.322
229.77	-0.000
230.24	1.581
230.71	2.124
231.18	1.824
231.65	2.036
232.12	2.452
232.59	2.227
233.06	1.968
233.53	2.227
234.00	2.044
234.47	2.581
234.94	2.697
235.41	2.112
235.88	2.635
236.35	-0.000
236.82	2.541
237.29	2.157
237.76	2.154
238.23	2.414
238.70	2.402
239.17	2.237
239.64	2.681
240.11	2.669
240.58	2.492
241.05	2.732
241.52	2.943
241.99	3.917
242.46	2.778
242.93	2.592
243.40	2.587
243.87	2.600
244.34	2.302
244.81	2.802
245.28	-0.000
245.75	2.797
246.22	2.592
246.69	2.457
247.16	2.795
247.63	2.733
248.10	2.550
248.57	-0.000
249.04	-0.000
249.51	3.274
249.98	3.110
250.45	3.634
250.92	2.870
251.39	2.782
251.85	2.942
252.32	-0.000
252.79	2.845
253.26	3.104
253.73	-0.000
254.20	2.895
254.67	2.713
255.14	2.905
255.61	2.804
256.08	3.103
256.55	3.395
257.02	2.941
257.49	3.251
257.95	2.904
258.42	2.778
258.89	2.882
259.36	2.935
259.83	3.005
260.30	3.595
260.77	-0.000
261.24	2.842
261.71	4.258
262.17	3.359
262.64	3.104
263.11	2.994
263.58	3.110
264.05	2.871
264.52	2.953
264.99	3.005
265.46	3.644
265.92	3.941
266.39	2.744
266.86	3.125
267.33	3.905
267.80	2.756
268.27	3.223
268.74	2.937
269.20	3.829
269.67	2.955
270.14	2.624
270.61	2.815
271.08	3.140
271.55	2.749
272.01	2.741
272.48	2.759
272.95	3.011
273.42	2.943
273.89	3.063
274.36	2.892
274.82	2.697
275.29	2.744
275.76	2.851
276.23	2.763
276.70	2.810
277.16	2.636
277.63	2.827
278.10	2.766
278.57	2.991
279.04	2.784
279.50	3.063
279.97	2.790
280.44	2.566
280.91	2.639
281.38	2.632
281.84	2.594
282.31	2.771
282.78	2.934
283.25	2.708
283.72	2.647
284.18	2.605
284.65	2.786
285.12	2.607
285.59	2.460
286.05	2.824
286.52	2.551
286.99	2.607
287.46	2.535
287.92	2.648
288.39	2.453
288.86	2.688
289.33	2.557
289.79	2.527
290.26	2.534
290.73	2.497
291.20	2.518
291.66	2.471
292.13	2.444
292.60	2.404
293.07	2.432
293.53	2.352
294.00	2.537
294.47	2.456
294.93	2.438
295.40	2.456
295.87	2.423
296.34	2.420
296.80	2.330
297.27	2.399
297.74	2.384
298.20	2.415
298.67	2.287
299.14	2.364
299.60	2.400
300.07	2.330
300.54	2.256
301.01	2.401
301.47	2.272
301.94	2.252
302.41	2.281
302.87	2.315
303.34	2.454
303.81	2.220
304.27	2.240
304.74	2.219
305.21	2.205
305.67	2.253
306.14	2.207
306.61	2.235
307.07	2.197
307.54	2.181
308.01	2.243
308.47	2.238
308.94	2.183
309.40	2.266
309.87	2.206
310.34	2.196
310.80	2.266
311.27	2.201
311.74	2.233
312.20	2.274
312.67	2.206
313.13	2.120
313.60	2.275
314.07	2.208
314.53	2.113
315.00	2.126
315.47	2.231
315.93	2.174
316.40	2.127
316.86	2.161
317.33	2.116
317.80	2.128
318.26	2.081
318.73	2.175
319.19	2.154
319.66	2.099
320.13	2.107
320.59	2.054
321.06	2.085
321.52	2.081
321.99	2.088
322.45	2.058
322.92	2.023
323.39	2.101
323.85	2.015
324.32	2.029
324.78	2.058
325.25	2.032
325.71	1.976
326.18	1.961
326.64	2.026
327.11	1.992
327.58	1.955
328.04	1.940
328.51	1.951
328.97	1.950
329.44	1.911
329.90	1.914
330.37	1.891
330.83	1.852
331.30	1.858
331.76	1.840
332.23	1.805
332.69	1.778
333.16	1.754
333.62	1.738
334.09	1.698
334.56	1.669
335.02	1.634
335.49	1.616
335.95	1.566
336.42	1.530
336.88	1.492
337.35	1.454
337.81	1.437
338.28	1.408
338.74	1.383
339.20	1.333
339.67	1.298
340.13	1.267
340.60	1.220
341.06	1.180
341.53	1.140
341.99	1.116
342.46	1.075
342.92	1.048
343.39	1.015
343.85	0.985
344.32	0.955
344.78	0.932
345.25	0.911
345.71	0.888
346.17	0.854
346.64	0.827
347.10	0.800
347.57	0.768
348.03	0.741
348.50	0.719
348.96	0.694
349.43	0.675
349.89	0.654
350.35	0.636
350.82	0.620
351.28	0.606
351.75	0.583
352.21	0.572
352.67	0.558
353.14	0.553
353.60	0.534
354.07	0.519
354.53	0.508
355.00	0.498
355.46	0.485
355.92	0.475
356.39	0.462
356.85	0.460
357.31	0.452
357.78	0.444
358.24	0.434
358.71	0.426
359.17	0.425
359.63	0.419
360.10	0.412
360.56	0.406
361.03	0.405
361.49	0.398
361.95	0.392
362.42	0.397
362.88	0.389
363.34	0.384
363.81	0.378
364.27	0.376
364.73	0.379
365.20	0.373
365.66	0.373
366.12	0.368
366.59	0.369
367.05	0.368
367.51	0.367
367.98	0.362
368.44	0.361
368.90	0.360
369.37	0.357
369.83	0.352
370.29	0.353
370.76	0.354
371.22	0.350
371.68	0.349
372.15	0.345
372.61	0.344
373.07	0.342
373.54	0.342
374.00	0.343
374.46	0.342
374.92	0.338
375.39	0.337
375.85	0.334
376.31	0.337
376.78	0.335
377.24	0.333
377.70	0.331
378.16	0.329
378.63	0.329
379.09	0.328
379.55	0.326
380.01	0.328
380.48	0.326
380.94	0.322
381.40	0.319
381.87	0.319
382.33	0.321
382.79	0.318
383.25	0.318
383.72	0.319
384.18	0.316
384.64	0.312
385.10	0.312
385.56	0.312
386.03	0.307
386.49	0.311
386.95	0.309
387.41	0.309
387.88	0.309
388.34	0.304
388.80	0.302
389.26	0.305
389.72	0.303
390.19	0.304
390.65	0.300
391.11	0.301
391.57	0.302
392.04	0.297
392.50	0.297
392.96	0.297
393.42	0.294
393.88	0.294
394.34	0.294
394.81	0.296
395.27	0.292
395.73	0.291
396.19	0.291
396.65	0.288
397.12	0.287
397.58	0.287
398.04	0.285
398.50	0.285
398.96	0.282
399.42	0.285
399.89	0.285
400.35	0.282
400.81	0.280
401.27	0.283
401.73	0.282
402.19	0.277
402.65	0.275
403.12	0.277
403.58	0.279
404.04	0.275
404.50	0.274
404.96	0.272
405.42	0.273
405.88	0.271
406.34	0.275
406.81	0.272
407.27	0.272
407.73	0.269
408.19	0.266
408.65	0.266
409.11	0.266
409.57	0.268
410.03	0.265
410.49	0.264
410.96	0.265
411.42	0.264
411.88	0.263
412.34	0.260
412.80	0.263
413.26	0.258
413.72	0.259
414.18	0.259
414.64	0.257
415.10	0.258
415.56	0.258
416.02	0.259
416.48	0.258
416.95	0.253
417.41	0.254
417.87	0.253
418.33	0.253
418.79	0.253
419.25	0.252
419.71	0.251
420.17	0.252
420.63	0.250
421.09	0.248
421.55	0.248
422.01	0.247
422.47	0.248
422.93	0.246
423.39	0.247
423.85	0.247
424.31	0.246
424.77	0.244
425.23	0.245
425.69	0.246
426.15	0.244
426.61	0.243
427.07	0.240
427.53	0.242
427.99	0.238
428.45	0.240
428.91	0.242
429.37	0.240
429.83	0.239
430.29	0.238
430.75	0.238
431.21	0.239
431.67	0.235
432.13	0.237
432.59	0.232
433.05	0.232
433.51	0.233
433.97	0.233
434.43	0.233
434.89	0.236
435.35	0.233
435.81	0.228
436.27	0.229
436.73	0.229
437.19	0.230
437.65	0.233
438.11	0.228
438.57	0.231
439.03	0.228
439.48	0.227
439.94	0.225
440.40	0.225
440.86	0.227
441.32	0.223
441.78	0.228
442.24	0.224
442.70	0.225
443.16	0.222
443.62	0.219
444.08	0.222
444.54	0.223
444.99	0.220
445.45	0.219
445.91	0.222
446.37	0.220
446.83	0.216
447.29	0.218
447.75	0.219
448.21	0.219
448.67	0.217
449.12	0.218
449.58	0.217
450.04	0.214
450.50	0.215
450.96	0.215
451.42	0.212
451.88	0.210
452.34	0.217
452.79	0.212
453.25	0.214
453.71	0.211
454.17	0.211
454.63	0.211
455.09	0.212
455.55	0.211
456.00	0.209
456.46	0.210
456.92	0.208
457.38	0.209
457.84	0.207
458.30	0.204
458.75	0.208
459.21	0.205
459.67	0.207
460.13	0.206
460.59	0.204
461.04	0.204
461.50	0.205
461.96	0.203
462.42	0.205
462.88	0.203
463.33	0.202
463.79	0.200
464.25	0.201
464.71	0.200
465.17	0.201
465.62	0.201
466.08	0.201
466.54	0.200
467.00	0.199
467.46	0.202
467.91	0.199
468.37	0.197
468.83	0.198
469.29	0.198
469.74	0.197
470.20	0.196
470.66	0.197
471.12	0.194
471.57	0.197
472.03	0.195
472.49	0.196
472.95	0.196
473.40	0.195
473.86	0.193
474.32	0.191
474.78	0.191
475.23	0.191
475.69	0.193
476.15	0.191
476.60	0.193
477.06	0.191
477.52	0.190
477.98	0.188
478.43	0.191
478.89	0.192
479.35	0.189
479.80	0.190
480.26	0.189
480.72	0.188
481.18	0.190
481.63	0.188
482.09	0.188
482.55	0.188
483.00	0.186
483.46	0.187
483.92	0.185
484.37	0.185
484.83	0.185
485.29	0.183
485.74	0.184
486.20	0.182
486.66	0.183
487.11	0.181
487.57	0.181
488.03	0.182
488.48	0.181
488.94	0.179
489.40	0.181
489.85	0.181
490.31	0.182
490.77	0.180
491.22	0.179
491.68	0.178
492.13	0.178
492.59	0.179
493.05	0.177
493.50	0.178
493.96	0.176
494.42	0.174
494.87	0.175
495.33	0.176
495.78	0.178
496.24	0.177
496.70	0.174
497.15	0.174
497.61	0.173
498.06	0.174
498.52	0.171
498.98	0.173
499.43	0.173
499.89	0.173
500.34	0.172
500.80	0.173
501.25	0.172
501.71	0.169
502.17	0.171
502.62	0.173
503.08	0.172
503.53	0.168
503.99	0.169
504.44	0.169
504.90	0.168
505.36	0.168
505.81	0.168
506.27	0.167
506.72	0.168
507.18	0.167
507.63	0.165
508.09	0.167
508.54	0.165
509.00	0.166
509.45	0.166
509.91	0.166
510.36	0.167
510.82	0.166
511.27	0.166
511.73	0.164
512.19	0.163
512.64	0.164
513.10	0.165
513.55	0.165
514.01	0.161
514.46	0.162
514.92	0.163
515.37	0.162
515.83	0.165
516.28	0.160
516.73	0.162
517.19	0.163
517.64	0.159
518.10	0.159
518.55	0.160
519.01	0.161
519.46	0.159
519.92	0.162
520.37	0.156
520.83	0.159
521.28	0.159
521.74	0.159
522.19	0.159
522.65	0.157
523.10	0.158
523.55	0.159
524.01	0.159
524.46	0.157
524.92	0.156
525.37	0.155
525.83	0.155
526.28	0.156
526.73	0.157
527.19	0.157
527.64	0.156
528.10	0.156
528.55	0.154
529.01	0.154
529.46	0.154
529.91	0.153
530.37	0.152
530.82	0.152
531.28	0.152
531.73	0.151
532.18	0.153
532.64	0.152
533.09	0.150
533.54	0.152
534.00	0.148
534.45	0.153
534.91	0.151
535.36	0.150
535.81	0.150
536.27	0.149
536.72	0.151
537.17	0.148
537.63	0.150
538.08	0.146
538.54	0.150
538.99	0.145
539.44	0.148
539.90	0.148
540.35	0.148
540.80	0.148
541.26	0.146
541.71	0.145
542.16	0.148
542.62	0.147
543.07	0.146
543.52	0.146
543.98	0.145
544.43	0.145
544.88	0.143
545.34	0.145
545.79	0.143
546.24	0.144
546.69	0.146
547.15	0.144
547.60	0.143
548.05	0.143
548.51	0.142
548.96	0.144
549.41	0.143
549.86	0.140
550.32	0.143
550.77	0.142
551.22	0.141
551.68	0.139
552.13	0.141
552.58	0.138
553.03	0.139
553.49	0.142
553.94	0.139
554.39	0.140
554.84	0.140
555.30	0.141
555.75	0.139
556.20	0.138
556.65	0.138
557.11	0.140
557.56	0.138
558.01	0.140
558.46	0.139
558.92	0.137
559.37	0.138
559.82	0.138
560.27	0.136
560.72	0.136
561.18	0.135
561.63	0.136
562.08	0.134
562.53	0.136
562.99	0.136
563.44	0.135
563.89	0.135
564.34	0.134
564.79	0.134
565.25	0.133
565.70	0.134
566.15	0.131
566.60	0.133
567.05	0.134
567.50	0.134
567.96	0.134
568.41	0.134
568.86	0.131
569.31	0.130
569.76	0.131
570.21	0.131
570.67	0.132
571.12	0.131
571.57	0.130
572.02	0.131
572.47	0.130
572.92	0.131
573.37	0.130
573.83	0.128
574.28	0.127
574.73	0.129
575.18	0.129
575.63	0.129
576.08	0.127
576.53	0.128
576.98	0.129
577.44	0.125
577.89	0.128
578.34	0.126
578.79	0.127
579.24	0.126
579.69	0.129
580.14	0.124
580.59	0.125
581.04	0.123
581.49	0.125
581.95	0.124
582.40	0.124
582.85	0.125
583.30	0.123
583.75	0.123
584.20	0.124
584.65	0.124
585.10	0.123
585.55	0.124
586.00	0.125
586.45	0.125
586.90	0.123
587.35	0.124
587.80	0.122
588.25	0.124
588.71	0.122
589.16	0.122
589.61	0.121
590.06	0.122
590.51	0.122
590.96	0.124
591.41	0.121
591.86	0.121
592.31	0.122
592.76	0.122
593.21	0.122
593.66	0.124
594.11	0.122
594.56	0.120
595.01	0.120
595.46	0.121
595.91	0.121
596.36	0.121
596.81	0.120
597.26	0.119
597.71	0.121
598.16	0.120
598.61	0.120
599.06	0.120
599.51	0.121
599.96	0.120
600.41	0.120
600.86	0.121
601.31	0.119
601.76	0.120
602.21	0.120
602.65	0.120
603.10	0.120
603.55	0.118
604.00	0.118
604.45	0.117
604.90	0.118
605.35	0.115
605.80	0.118
606.25	0.120
606.70	0.118
607.15	0.116
607.60	0.116
608.05	0.115
608.50	0.117
608.95	0.116
609.39	0.118
609.84	0.117
610.29	0.114
610.74	0.117
611.19	0.115
611.64	0.115
612.09	0.116
612.54	0.114
612.99	0.114
613.44	0.114
613.88	0.116
614.33	0.115
614.78	0.112
615.23	0.114
615.68	0.114
616.13	0.114
616.58	0.113
617.03	0.113
617.47	0.114
617.92	0.112
618.37	0.113
618.82	0.113
619.27	0.112
619.72	0.112
620.17	0.111
620.61	0.110
621.06	0.111
621.51	0.111
621.96	0.110
622.41	0.111
622.86	0.111
623.30	0.110
623.75	0.111
624.20	0.110
624.65	0.110
625.10	0.111
625.54	0.111
625.99	0.112
626.44	0.111
626.89	0.110
627.34	0.111
627.78	0.108
628.23	0.108
628.68	0.109
629.13	0.109
629.58	0.110
630.02	0.108
630.47	0.107
630.92	0.109
631.37	0.106
631.81	0.109
632.26	0.108
632.71	0.108
633.16	0.107
633.61	0.108
634.05	0.108
634.50	0.108
634.95	0.108
635.40	0.108
635.84	0.109
636.29	0.108
636.74	0.109
637.18	0.106
637.63	0.106
638.08	0.105
638.53	0.106
638.97	0.105
639.42	0.107
639.87	0.108
640.32	0.105
640.76	0.107
641.21	0.107
641.66	0.107
642.10	0.105
642.55	0.105
643.00	0.104
643.44	0.106
643.89	0.105
644.34	0.105
644.79	0.105
645.23	0.105
645.68	0.106
646.13	0.106
646.57	0.105
647.02	0.104
647.47	0.107
647.91	0.105
648.36	0.104
648.81	0.104
649.25	0.104
649.70	0.103
650.15	0.103
650.59	0.103
651.04	0.103
651.48	0.105
651.93	0.104
652.38	0.102
652.82	0.103
653.27	0.101
653.72	0.103
654.16	0.101
654.61	0.103
655.06	0.102
655.50	0.101
655.95	0.100
656.39	0.097
656.84	0.101
657.29	0.103
657.73	0.102
658.18	0.103
658.62	0.102
659.07	0.100
659.52	0.100
659.96	0.102
660.41	0.102
660.85	0.101
661.30	0.100
661.74	0.102
662.19	0.101
662.64	0.102
663.08	0.100
663.53	0.101
663.97	0.098
664.42	0.101
664.86	0.101
665.31	0.100
665.75	0.098
666.20	0.101
666.65	0.102
667.09	0.099
667.54	0.102
667.98	0.101
668.43	0.098
668.87	0.098
669.32	0.098
669.76	0.098
670.21	0.098
670.65	0.098
671.10	0.097
671.54	0.098
671.99	0.097
672.43	0.098
672.88	0.097
673.32	0.097
673.77	0.096
674.21	0.097
674.66	0.097
675.10	0.097
675.55	0.096
675.99	0.097
676.44	0.097
676.88	0.096
677.33	0.096
677.77	0.096
678.22	0.096
678.66	0.095
679.11	0.095
679.55	0.097
679.99	0.095
680.44	0.098
680.88	0.093
681.33	0.094
681.77	0.094
682.22	0.097
682.66	0.096
683.11	0.094
683.55	0.094
683.99	0.094
684.44	0.093
684.88	0.093
685.33	0.094
685.77	0.096
686.21	0.093
686.66	0.095
687.10	0.093
687.55	0.092
687.99	0.095
688.44	0.094
688.88	0.093
689.32	0.094
689.77	0.092
690.21	0.091
690.65	0.094
691.10	0.092
691.54	0.093
691.99	0.092
692.43	0.090
692.87	0.090
693.32	0.093
693.76	0.094
694.20	0.094
694.65	0.092
695.09	0.093
695.53	0.092
695.98	0.091
696.42	0.094
696.86	0.092
697.31	0.087
697.75	0.093
698.19	0.091
698.64	0.091
699.08	0.091
699.52	0.091
699.97	0.092
700.41	0.090
700.85	0.091
701.30	0.090
701.74	0.091
702.18	0.091
702.63	0.089
703.07	0.091
703.51	0.094
703.96	0.091
704.40	0.090
704.84	0.091
705.28	0.091
705.73	0.092
706.17	0.090
706.61	0.089
707.06	0.088
707.50	0.090
707.94	0.090
708.38	0.089
708.83	0.091
709.27	0.092
709.71	0.089
710.15	0.092
710.60	0.088
711.04	0.088
711.48	0.090
711.92	0.091
712.37	0.087
712.81	0.091
713.25	0.090
713.69	0.090
714.13	0.091
714.58	0.091
715.02	0.089
715.46	0.089
715.90	0.088
716.35	0.087
716.79	0.091
717.23	0.092
717.67	0.089
718.11	0.091
718.56	0.090
719.00	0.091
719.44	0.090
719.88	0.088
720.32	0.091
720.76	0.090
721.21	0.087
721.65	0.089
722.09	0.089
722.53	0.090
722.97	0.090
723.41	0.090
723.86	0.091
724.30	0.088
724.74	0.092
725.18	0.090
725.62	0.091
726.06	0.091
726.50	0.090
726.95	0.091
727.39	0.093
727.83	0.089
728.27	0.093
728.71	0.091
729.15	0.090
729.59	0.092
730.03	0.089
730.48	0.092
730.92	0.092
731.36	0.090
731.80	0.091
732.24	0.092
732.68	0.091
733.12	0.090
733.56	0.091
734.00	0.091
734.44	0.092
734.89	0.092
735.33	0.093
735.77	0.093
736.21	0.095
736.65	0.090
737.09	0.092
737.53	0.093
737.97	0.093
738.41	0.092
738.85	0.095
739.29	0.096
739.73	0.092
740.17	0.092
740.61	0.095
741.05	0.094
741.49	0.093
741.93	0.093
742.37	0.092
742.81	0.092
743.26	0.091
743.70	0.091
744.14	0.092
744.58	0.093
745.02	0.092
745.46	0.093
745.90	0.092
746.34	0.092
746.78	0.092
747.22	0.092
747.66	0.094
748.10	0.093
748.54	0.089
748.98	0.090
749.42	0.090
749.86	0.093
750.29	0.091
750.73	0.090
751.17	0.091
751.61	0.091
752.05	0.091
752.49	0.090
752.93	0.089
753.37	0.089
753.81	0.090
754.25	0.088
754.69	0.090
755.13	0.088
755.57	0.091
756.01	0.091
756.45	0.092
756.89	0.091
757.33	0.090
757.77	0.090
758.21	0.089
758.64	0.088
759.08	0.085
759.52	0.091
759.96	0.092
760.40	0.090
760.84	0.088
761.28	0.087
761.72	0.090
762.16	0.090
762.60	0.089
763.03	0.088
763.47	0.086
763.91	0.089
764.35	0.088
764.79	0.086
765.23	0.089
765.67	0.088
766.11	0.085
766.54	0.084
766.98	0.088
767.42	0.088
767.86	0.086
768.30	0.088
768.74	0.090
769.17	0.091
769.61	0.088
770.05	0.087
770.49	0.089
770.93	0.088
771.37	0.086
771.80	0.087
772.24	0.086
772.68	0.085
773.12	0.085
773.56	0.087
774.00	0.085
774.43	0.084
774.87	0.086
775.31	0.087
775.75	0.083
776.19	0.087
776.62	0.085
777.06	0.087
777.50	0.085
777.94	0.085
778.37	0.084
778.81	0.084
779.25	0.085
779.69	0.085
780.13	0.088
780.56	0.085
781.00	0.085
781.44	0.088
781.88	0.086
782.31	0.082
782.75	0.084
783.19	0.085
783.63	0.086
784.06	0.085
784.50	0.087
784.94	0.084
785.37	0.085
785.81	0.088
786.25	0.085
786.69	0.083
787.12	0.084
787.56	0.082
788.00	0.086
788.43	0.085
788.87	0.085
789.31	0.084
789.75	0.086
790.18	0.084
790.62	0.083
791.06	0.082
791.49	0.082
791.93	0.083
792.37	0.086
792.80	0.085
793.24	0.084
793.68	0.083
794.11	0.084
794.55	0.084
794.99	0.085
795.42	0.085
795.86	0.087
796.30	0.082
796.73	0.085
797.17	0.085
797.61	0.082
798.04	0.083
798.48	0.085
798.91	0.083
799.35	0.082
799.79	0.088
800.22	0.084
800.66	0.082
801.10	0.085
801.53	0.085
801.97	0.088
802.40	0.086
802.84	0.085
803.28	0.080
803.71	0.088
804.15	0.081
804.58	0.084
805.02	0.085
805.46	0.085
805.89	0.082
806.33	0.082
806.76	0.084
807.20	0.083
807.63	0.084
808.07	0.086
808.51	0.081
808.94	0.080
809.38	0.083
809.81	0.082
810.25	0.085
810.68	0.082
811.12	0.082
811.55	0.082
811.99	0.082
812.42	0.084
812.86	0.083
813.29	0.084
813.73	0.082
814.17	0.083
814.60	0.083
815.04	0.085
815.47	0.080
815.91	0.079
816.34	0.083
