SpectraSuite Data File
++++++++++++++++++++++++++++++++++++
Date: Sun Apr 24 16:10:52 CEST 2016
User: spectrasuite
Dark Spectrum Present: Yes
Reference Spectrum Present: Yes
Number of Sampled Component Spectra: 1
Spectrometers: HR+C0708
Integration Time (usec): 1000 (HR+C0708)
Spectra Averaged: 10 (HR+C0708)
Boxcar Smoothing: 0 (HR+C0708)
Correct for Electrical Dark: No (HR+C0708)
Strobe/Lamp Enabled: No (HR+C0708)
Correct for Detector Non-linearity: No (HR+C0708)
Correct for Stray Light: No (HR+C0708)
Number of Pixels in Processed Spectrum: 2048
>>>>>Begin Processed Spectral Data<<<<<
188.76	-0.000
189.23	-0.000
189.70	-0.000
190.17	-0.000
190.64	-0.000
191.12	-0.000
191.59	-0.000
192.06	-0.000
192.53	-0.000
193.01	-0.000
193.48	-0.000
193.95	-0.000
194.42	-0.000
194.90	-0.000
195.37	-0.000
195.84	-0.000
196.31	-0.000
196.78	-0.000
197.26	-0.000
197.73	-0.000
198.20	-0.000
198.67	-0.000
199.14	-0.000
199.62	-0.000
200.09	-0.000
200.56	-0.000
201.03	-0.000
201.50	2.674
201.97	-0.000
202.45	-0.000
202.92	2.399
203.39	1.260
203.86	-0.000
204.33	-0.000
204.80	-0.000
205.28	-0.000
205.75	-0.000
206.22	-0.000
206.69	1.671
207.16	-0.000
207.63	2.686
208.11	0.822
208.58	1.421
209.05	-0.000
209.52	-0.000
209.99	-0.000
210.46	-0.000
210.93	-0.000
211.41	1.305
211.88	0.908
212.35	-0.000
212.82	-0.000
213.29	-0.000
213.76	1.416
214.23	-0.000
214.70	-0.000
215.18	0.857
215.65	-0.000
216.12	-0.000
216.59	1.153
217.06	-0.000
217.53	1.785
218.00	2.299
218.47	-0.000
218.94	-0.000
219.41	-0.000
219.89	-0.000
220.36	-0.000
220.83	-0.000
221.30	-0.000
221.77	1.040
222.24	1.592
222.71	-0.000
223.18	-0.000
223.65	1.258
224.12	-0.000
224.59	-0.000
225.06	-0.000
225.54	1.147
226.01	1.502
226.48	-0.000
226.95	1.335
227.42	2.252
227.89	-0.000
228.36	1.984
228.83	1.533
229.30	1.602
229.77	-0.000
230.24	2.081
230.71	-0.000
231.18	-0.000
231.65	-0.000
232.12	2.929
232.59	-0.000
233.06	-0.000
233.53	2.352
234.00	1.915
234.47	-0.000
234.94	-0.000
235.41	2.360
235.88	-0.000
236.35	-0.000
236.82	-0.000
237.29	2.157
237.76	-0.000
238.23	-0.000
238.70	2.487
239.17	2.495
239.64	-0.000
240.11	-0.000
240.58	3.265
241.05	2.829
241.52	3.198
241.99	-0.000
242.46	2.756
242.93	-0.000
243.40	-0.000
243.87	2.928
244.34	2.616
244.81	-0.000
245.28	-0.000
245.75	3.052
246.22	-0.000
246.69	-0.000
247.16	-0.000
247.63	2.626
248.10	3.030
248.57	-0.000
249.04	-0.000
249.51	-0.000
249.98	-0.000
250.45	3.014
250.92	3.075
251.39	2.859
251.85	-0.000
252.32	-0.000
252.79	2.636
253.26	3.603
253.73	-0.000
254.20	2.723
254.67	3.063
255.14	3.371
255.61	-0.000
256.08	3.493
256.55	-0.000
257.02	3.291
257.49	3.522
257.95	2.950
258.42	3.449
258.89	4.443
259.36	2.785
259.83	3.128
260.30	3.406
260.77	3.513
261.24	2.945
261.71	3.294
262.17	-0.000
262.64	3.069
263.11	2.931
263.58	3.411
264.05	3.095
264.52	2.758
264.99	2.878
265.46	2.941
265.92	2.742
266.39	2.876
266.86	3.733
267.33	3.312
267.80	2.715
268.27	3.078
268.74	3.033
269.20	3.457
269.67	2.637
270.14	2.636
270.61	2.733
271.08	2.580
271.55	2.534
272.01	2.556
272.48	2.629
272.95	2.612
273.42	2.585
273.89	2.870
274.36	2.512
274.82	2.404
275.29	2.570
275.76	2.398
276.23	2.316
276.70	2.488
277.16	2.369
277.63	2.328
278.10	2.327
278.57	2.343
279.04	2.530
279.50	2.332
279.97	2.287
280.44	2.299
280.91	2.288
281.38	2.220
281.84	2.274
282.31	2.345
282.78	2.384
283.25	2.238
283.72	2.191
284.18	2.224
284.65	2.209
285.12	2.194
285.59	2.134
286.05	2.176
286.52	2.116
286.99	2.147
287.46	2.183
287.92	2.160
288.39	2.078
288.86	2.115
289.33	2.093
289.79	2.073
290.26	2.052
290.73	2.083
291.20	2.087
291.66	2.074
292.13	2.048
292.60	2.027
293.07	1.980
293.53	1.975
294.00	2.022
294.47	2.032
294.93	2.003
295.40	2.009
295.87	1.995
296.34	1.996
296.80	1.926
297.27	1.984
297.74	1.955
298.20	1.933
298.67	1.920
299.14	1.946
299.60	1.930
300.07	1.912
300.54	1.895
301.01	1.902
301.47	1.861
301.94	1.872
302.41	1.856
302.87	1.881
303.34	1.860
303.81	1.826
304.27	1.867
304.74	1.811
305.21	1.798
305.67	1.827
306.14	1.792
306.61	1.846
307.07	1.808
307.54	1.807
308.01	1.794
308.47	1.745
308.94	1.788
309.40	1.788
309.87	1.742
310.34	1.755
310.80	1.786
311.27	1.767
311.74	1.730
312.20	1.739
312.67	1.760
313.13	1.737
313.60	1.718
314.07	1.715
314.53	1.693
315.00	1.673
315.47	1.709
315.93	1.707
316.40	1.691
316.86	1.697
317.33	1.674
317.80	1.663
318.26	1.673
318.73	1.668
319.19	1.663
319.66	1.638
320.13	1.627
320.59	1.623
321.06	1.634
321.52	1.627
321.99	1.617
322.45	1.621
322.92	1.602
323.39	1.597
323.85	1.600
324.32	1.592
324.78	1.587
325.25	1.591
325.71	1.555
326.18	1.548
326.64	1.576
327.11	1.550
327.58	1.546
328.04	1.549
328.51	1.550
328.97	1.517
329.44	1.512
329.90	1.506
330.37	1.488
330.83	1.471
331.30	1.489
331.76	1.466
332.23	1.456
332.69	1.454
333.16	1.430
333.62	1.419
334.09	1.405
334.56	1.399
335.02	1.384
335.49	1.362
335.95	1.350
336.42	1.343
336.88	1.333
337.35	1.321
337.81	1.318
338.28	1.302
338.74	1.280
339.20	1.271
339.67	1.257
340.13	1.256
340.60	1.219
341.06	1.207
341.53	1.181
341.99	1.184
342.46	1.166
342.92	1.152
343.39	1.128
343.85	1.117
344.32	1.102
344.78	1.090
345.25	1.086
345.71	1.056
346.17	1.058
346.64	1.034
347.10	1.009
347.57	0.995
348.03	0.973
348.50	0.958
348.96	0.942
349.43	0.927
349.89	0.914
350.35	0.898
350.82	0.880
351.28	0.881
351.75	0.864
352.21	0.849
352.67	0.832
353.14	0.839
353.60	0.813
354.07	0.798
354.53	0.788
355.00	0.776
355.46	0.768
355.92	0.754
356.39	0.749
356.85	0.747
357.31	0.726
357.78	0.718
358.24	0.709
358.71	0.706
359.17	0.698
359.63	0.690
360.10	0.687
360.56	0.682
361.03	0.674
361.49	0.666
361.95	0.664
362.42	0.658
362.88	0.656
363.34	0.651
363.81	0.649
364.27	0.643
364.73	0.640
365.20	0.640
365.66	0.635
366.12	0.628
366.59	0.626
367.05	0.626
367.51	0.620
367.98	0.619
368.44	0.617
368.90	0.610
369.37	0.612
369.83	0.612
370.29	0.606
370.76	0.603
371.22	0.604
371.68	0.602
372.15	0.594
372.61	0.589
373.07	0.591
373.54	0.592
374.00	0.586
374.46	0.585
374.92	0.586
375.39	0.584
375.85	0.583
376.31	0.581
376.78	0.575
377.24	0.578
377.70	0.573
378.16	0.570
378.63	0.568
379.09	0.570
379.55	0.567
380.01	0.564
380.48	0.557
380.94	0.561
381.40	0.559
381.87	0.557
382.33	0.557
382.79	0.554
383.25	0.553
383.72	0.555
384.18	0.548
384.64	0.549
385.10	0.546
385.56	0.544
386.03	0.540
386.49	0.541
386.95	0.538
387.41	0.540
387.88	0.533
388.34	0.533
388.80	0.532
389.26	0.530
389.72	0.532
390.19	0.528
390.65	0.526
391.11	0.524
391.57	0.522
392.04	0.522
392.50	0.520
392.96	0.517
393.42	0.517
393.88	0.517
394.34	0.513
394.81	0.515
395.27	0.512
395.73	0.510
396.19	0.509
396.65	0.506
397.12	0.506
397.58	0.504
398.04	0.503
398.50	0.504
398.96	0.500
399.42	0.499
399.89	0.499
400.35	0.500
400.81	0.491
401.27	0.495
401.73	0.494
402.19	0.490
402.65	0.489
403.12	0.486
403.58	0.490
404.04	0.483
404.50	0.484
404.96	0.483
405.42	0.482
405.88	0.480
406.34	0.477
406.81	0.479
407.27	0.477
407.73	0.477
408.19	0.474
408.65	0.470
409.11	0.472
409.57	0.472
410.03	0.468
410.49	0.471
410.96	0.463
411.42	0.466
411.88	0.467
412.34	0.462
412.80	0.461
413.26	0.454
413.72	0.458
414.18	0.455
414.64	0.454
415.10	0.458
415.56	0.458
416.02	0.453
416.48	0.452
416.95	0.446
417.41	0.447
417.87	0.447
418.33	0.449
418.79	0.447
419.25	0.444
419.71	0.442
420.17	0.444
420.63	0.441
421.09	0.439
421.55	0.439
422.01	0.438
422.47	0.439
422.93	0.436
423.39	0.439
423.85	0.437
424.31	0.433
424.77	0.432
425.23	0.433
425.69	0.435
426.15	0.431
426.61	0.427
427.07	0.424
427.53	0.424
427.99	0.424
428.45	0.422
428.91	0.425
429.37	0.421
429.83	0.418
430.29	0.420
430.75	0.423
431.21	0.422
431.67	0.419
432.13	0.418
432.59	0.411
433.05	0.413
433.51	0.413
433.97	0.413
434.43	0.413
434.89	0.412
435.35	0.413
435.81	0.409
436.27	0.400
436.73	0.407
437.19	0.407
437.65	0.404
438.11	0.405
438.57	0.404
439.03	0.402
439.48	0.400
439.94	0.404
440.40	0.400
440.86	0.398
441.32	0.395
441.78	0.398
442.24	0.394
442.70	0.394
443.16	0.393
443.62	0.391
444.08	0.389
444.54	0.391
444.99	0.388
445.45	0.389
445.91	0.389
446.37	0.386
446.83	0.384
447.29	0.384
447.75	0.382
448.21	0.386
448.67	0.383
449.12	0.379
449.58	0.381
450.04	0.377
450.50	0.380
450.96	0.381
451.42	0.375
451.88	0.375
452.34	0.376
452.79	0.375
453.25	0.378
453.71	0.373
454.17	0.372
454.63	0.375
455.09	0.371
455.55	0.372
456.00	0.368
456.46	0.370
456.92	0.371
457.38	0.367
457.84	0.361
458.30	0.365
458.75	0.362
459.21	0.361
459.67	0.363
460.13	0.360
460.59	0.360
461.04	0.359
461.50	0.359
461.96	0.359
462.42	0.356
462.88	0.354
463.33	0.356
463.79	0.354
464.25	0.354
464.71	0.354
465.17	0.355
465.62	0.353
466.08	0.353
466.54	0.351
467.00	0.354
467.46	0.349
467.91	0.347
468.37	0.349
468.83	0.349
469.29	0.344
469.74	0.346
470.20	0.347
470.66	0.344
471.12	0.341
471.57	0.345
472.03	0.342
472.49	0.344
472.95	0.340
473.40	0.339
473.86	0.339
474.32	0.335
474.78	0.341
475.23	0.337
475.69	0.337
476.15	0.336
476.60	0.337
477.06	0.333
477.52	0.334
477.98	0.334
478.43	0.334
478.89	0.331
479.35	0.329
479.80	0.331
480.26	0.331
480.72	0.327
481.18	0.332
481.63	0.327
482.09	0.327
482.55	0.327
483.00	0.325
483.46	0.324
483.92	0.325
484.37	0.325
484.83	0.322
485.29	0.322
485.74	0.321
486.20	0.322
486.66	0.322
487.11	0.320
487.57	0.318
488.03	0.317
488.48	0.318
488.94	0.315
489.40	0.316
489.85	0.318
490.31	0.316
490.77	0.315
491.22	0.316
491.68	0.315
492.13	0.313
492.59	0.315
493.05	0.312
493.50	0.312
493.96	0.310
494.42	0.312
494.87	0.309
495.33	0.308
495.78	0.307
496.24	0.308
496.70	0.308
497.15	0.306
497.61	0.306
498.06	0.306
498.52	0.303
498.98	0.302
499.43	0.306
499.89	0.305
500.34	0.304
500.80	0.302
501.25	0.303
501.71	0.303
502.17	0.299
502.62	0.303
503.08	0.298
503.53	0.297
503.99	0.296
504.44	0.298
504.90	0.298
505.36	0.294
505.81	0.296
506.27	0.296
506.72	0.295
507.18	0.293
507.63	0.293
508.09	0.294
508.54	0.290
509.00	0.292
509.45	0.293
509.91	0.290
510.36	0.291
510.82	0.289
511.27	0.288
511.73	0.289
512.19	0.287
512.64	0.287
513.10	0.288
513.55	0.287
514.01	0.284
514.46	0.285
514.92	0.283
515.37	0.282
515.83	0.282
516.28	0.285
516.73	0.283
517.19	0.281
517.64	0.281
518.10	0.281
518.55	0.281
519.01	0.279
519.46	0.281
519.92	0.279
520.37	0.275
520.83	0.275
521.28	0.277
521.74	0.278
522.19	0.275
522.65	0.277
523.10	0.276
523.55	0.273
524.01	0.275
524.46	0.275
524.92	0.273
525.37	0.271
525.83	0.274
526.28	0.272
526.73	0.272
527.19	0.273
527.64	0.274
528.10	0.272
528.55	0.268
529.01	0.269
529.46	0.269
529.91	0.269
530.37	0.267
530.82	0.267
531.28	0.267
531.73	0.266
532.18	0.265
532.64	0.268
533.09	0.264
533.54	0.263
534.00	0.262
534.45	0.267
534.91	0.265
535.36	0.265
535.81	0.263
536.27	0.263
536.72	0.262
537.17	0.260
537.63	0.258
538.08	0.261
538.54	0.262
538.99	0.257
539.44	0.260
539.90	0.258
540.35	0.257
540.80	0.258
541.26	0.258
541.71	0.257
542.16	0.257
542.62	0.256
543.07	0.255
543.52	0.254
543.98	0.255
544.43	0.253
544.88	0.253
545.34	0.253
545.79	0.252
546.24	0.249
546.69	0.253
547.15	0.252
547.60	0.251
548.05	0.251
548.51	0.250
548.96	0.251
549.41	0.250
549.86	0.248
550.32	0.249
550.77	0.251
551.22	0.249
551.68	0.247
552.13	0.247
552.58	0.244
553.03	0.246
553.49	0.244
553.94	0.245
554.39	0.247
554.84	0.245
555.30	0.245
555.75	0.244
556.20	0.243
556.65	0.243
557.11	0.244
557.56	0.241
558.01	0.246
558.46	0.243
558.92	0.240
559.37	0.240
559.82	0.242
560.27	0.240
560.72	0.239
561.18	0.238
561.63	0.236
562.08	0.236
562.53	0.237
562.99	0.237
563.44	0.238
563.89	0.235
564.34	0.237
564.79	0.237
565.25	0.235
565.70	0.232
566.15	0.232
566.60	0.232
567.05	0.234
567.50	0.233
567.96	0.233
568.41	0.232
568.86	0.234
569.31	0.230
569.76	0.230
570.21	0.230
570.67	0.231
571.12	0.231
571.57	0.230
572.02	0.229
572.47	0.228
572.92	0.228
573.37	0.227
573.83	0.226
574.28	0.226
574.73	0.227
575.18	0.228
575.63	0.226
576.08	0.223
576.53	0.224
576.98	0.224
577.44	0.222
577.89	0.222
578.34	0.222
578.79	0.221
579.24	0.224
579.69	0.223
580.14	0.221
580.59	0.219
581.04	0.220
581.49	0.221
581.95	0.220
582.40	0.218
582.85	0.217
583.30	0.218
583.75	0.217
584.20	0.217
584.65	0.219
585.10	0.217
585.55	0.219
586.00	0.216
586.45	0.216
586.90	0.217
587.35	0.216
587.80	0.216
588.25	0.216
588.71	0.213
589.16	0.216
589.61	0.215
590.06	0.214
590.51	0.215
590.96	0.212
591.41	0.213
591.86	0.212
592.31	0.213
592.76	0.212
593.21	0.212
593.66	0.213
594.11	0.211
594.56	0.211
595.01	0.211
595.46	0.211
595.91	0.210
596.36	0.210
596.81	0.210
597.26	0.210
597.71	0.209
598.16	0.208
598.61	0.209
599.06	0.209
599.51	0.211
599.96	0.208
600.41	0.208
600.86	0.207
601.31	0.208
601.76	0.206
602.21	0.207
602.65	0.207
603.10	0.206
603.55	0.205
604.00	0.204
604.45	0.205
604.90	0.207
605.35	0.203
605.80	0.205
606.25	0.204
606.70	0.203
607.15	0.203
607.60	0.201
608.05	0.202
608.50	0.202
608.95	0.199
609.39	0.203
609.84	0.199
610.29	0.200
610.74	0.201
611.19	0.198
611.64	0.201
612.09	0.200
612.54	0.199
612.99	0.200
613.44	0.197
613.88	0.199
614.33	0.199
614.78	0.197
615.23	0.197
615.68	0.196
616.13	0.197
616.58	0.197
617.03	0.195
617.47	0.198
617.92	0.195
618.37	0.194
618.82	0.194
619.27	0.196
619.72	0.194
620.17	0.192
620.61	0.193
621.06	0.193
621.51	0.193
621.96	0.193
622.41	0.192
622.86	0.192
623.30	0.191
623.75	0.193
624.20	0.193
624.65	0.190
625.10	0.191
625.54	0.190
625.99	0.191
626.44	0.188
626.89	0.189
627.34	0.192
627.78	0.190
628.23	0.188
628.68	0.190
629.13	0.189
629.58	0.189
630.02	0.188
630.47	0.188
630.92	0.187
631.37	0.188
631.81	0.187
632.26	0.186
632.71	0.187
633.16	0.185
633.61	0.185
634.05	0.185
634.50	0.184
634.95	0.185
635.40	0.187
635.84	0.187
636.29	0.184
636.74	0.184
637.18	0.184
637.63	0.184
638.08	0.183
638.53	0.185
638.97	0.182
639.42	0.183
639.87	0.184
640.32	0.181
640.76	0.182
641.21	0.182
641.66	0.181
642.10	0.180
642.55	0.180
643.00	0.180
643.44	0.181
643.89	0.181
644.34	0.180
644.79	0.180
645.23	0.181
645.68	0.179
646.13	0.179
646.57	0.179
647.02	0.178
647.47	0.180
647.91	0.178
648.36	0.178
648.81	0.180
649.25	0.177
649.70	0.176
650.15	0.176
650.59	0.175
651.04	0.176
651.48	0.179
651.93	0.176
652.38	0.173
652.82	0.177
653.27	0.177
653.72	0.177
654.16	0.175
654.61	0.177
655.06	0.176
655.50	0.173
655.95	0.172
656.39	0.168
656.84	0.171
657.29	0.176
657.73	0.174
658.18	0.172
658.62	0.174
659.07	0.171
659.52	0.172
659.96	0.173
660.41	0.173
660.85	0.172
661.30	0.173
661.74	0.171
662.19	0.172
662.64	0.171
663.08	0.171
663.53	0.170
663.97	0.169
664.42	0.169
664.86	0.170
665.31	0.170
665.75	0.168
666.20	0.170
666.65	0.169
667.09	0.169
667.54	0.169
667.98	0.169
668.43	0.169
668.87	0.168
669.32	0.168
669.76	0.169
670.21	0.168
670.65	0.165
671.10	0.167
671.54	0.169
671.99	0.166
672.43	0.167
672.88	0.167
673.32	0.166
673.77	0.163
674.21	0.166
674.66	0.166
675.10	0.164
675.55	0.163
675.99	0.165
676.44	0.163
676.88	0.166
677.33	0.164
677.77	0.164
678.22	0.164
678.66	0.162
679.11	0.163
679.55	0.165
679.99	0.165
680.44	0.166
680.88	0.163
681.33	0.161
681.77	0.161
682.22	0.163
682.66	0.164
683.11	0.164
683.55	0.160
683.99	0.161
684.44	0.162
684.88	0.160
685.33	0.163
685.77	0.160
686.21	0.159
686.66	0.160
687.10	0.160
687.55	0.160
687.99	0.163
688.44	0.161
688.88	0.159
689.32	0.162
689.77	0.159
690.21	0.159
690.65	0.159
691.10	0.159
691.54	0.158
691.99	0.159
692.43	0.156
692.87	0.158
693.32	0.158
693.76	0.159
694.20	0.159
694.65	0.158
695.09	0.159
695.53	0.156
695.98	0.156
696.42	0.157
696.86	0.157
697.31	0.156
697.75	0.156
698.19	0.154
698.64	0.156
699.08	0.155
699.52	0.155
699.97	0.156
700.41	0.157
700.85	0.155
701.30	0.155
701.74	0.155
702.18	0.155
702.63	0.155
703.07	0.155
703.51	0.156
703.96	0.153
704.40	0.154
704.84	0.155
705.28	0.154
705.73	0.154
706.17	0.154
706.61	0.153
707.06	0.152
707.50	0.153
707.94	0.153
708.38	0.152
708.83	0.152
709.27	0.151
709.71	0.153
710.15	0.153
710.60	0.150
711.04	0.151
711.48	0.154
711.92	0.154
712.37	0.151
712.81	0.155
713.25	0.151
713.69	0.151
714.13	0.152
714.58	0.151
715.02	0.152
715.46	0.150
715.90	0.148
716.35	0.149
716.79	0.151
717.23	0.152
717.67	0.151
718.11	0.152
718.56	0.149
719.00	0.150
719.44	0.152
719.88	0.150
720.32	0.147
720.76	0.151
721.21	0.148
721.65	0.149
722.09	0.150
722.53	0.149
722.97	0.151
723.41	0.151
723.86	0.151
724.30	0.150
724.74	0.152
725.18	0.149
725.62	0.151
726.06	0.149
726.50	0.148
726.95	0.150
727.39	0.150
727.83	0.149
728.27	0.150
728.71	0.150
729.15	0.153
729.59	0.150
730.03	0.147
730.48	0.150
730.92	0.150
731.36	0.147
731.80	0.148
732.24	0.150
732.68	0.148
733.12	0.147
733.56	0.151
734.00	0.150
734.44	0.149
734.89	0.151
735.33	0.150
735.77	0.152
736.21	0.150
736.65	0.150
737.09	0.151
737.53	0.150
737.97	0.150
738.41	0.151
738.85	0.151
739.29	0.151
739.73	0.149
740.17	0.151
740.61	0.148
741.05	0.152
741.49	0.151
741.93	0.149
742.37	0.145
742.81	0.146
743.26	0.149
743.70	0.147
744.14	0.148
744.58	0.146
745.02	0.147
745.46	0.148
745.90	0.148
746.34	0.150
746.78	0.150
747.22	0.148
747.66	0.150
748.10	0.148
748.54	0.147
748.98	0.145
749.42	0.146
749.86	0.147
750.29	0.148
750.73	0.144
751.17	0.145
751.61	0.144
752.05	0.148
752.49	0.144
752.93	0.145
753.37	0.144
753.81	0.145
754.25	0.145
754.69	0.144
755.13	0.143
755.57	0.147
756.01	0.145
756.45	0.145
756.89	0.142
757.33	0.146
757.77	0.144
758.21	0.143
758.64	0.143
759.08	0.141
759.52	0.145
759.96	0.146
760.40	0.144
760.84	0.139
761.28	0.142
761.72	0.142
762.16	0.145
762.60	0.141
763.03	0.142
763.47	0.142
763.91	0.142
764.35	0.140
764.79	0.139
765.23	0.140
765.67	0.140
766.11	0.139
766.54	0.138
766.98	0.142
767.42	0.143
767.86	0.137
768.30	0.137
768.74	0.140
769.17	0.142
769.61	0.140
770.05	0.140
770.49	0.141
770.93	0.140
771.37	0.138
771.80	0.142
772.24	0.137
772.68	0.136
773.12	0.137
773.56	0.138
774.00	0.138
774.43	0.136
774.87	0.138
775.31	0.140
775.75	0.138
776.19	0.139
776.62	0.136
777.06	0.137
777.50	0.138
777.94	0.138
778.37	0.137
778.81	0.138
779.25	0.138
779.69	0.138
780.13	0.138
780.56	0.137
781.00	0.136
781.44	0.136
781.88	0.137
782.31	0.134
782.75	0.134
783.19	0.137
783.63	0.133
784.06	0.131
784.50	0.137
784.94	0.136
785.37	0.139
785.81	0.138
786.25	0.140
786.69	0.133
787.12	0.133
787.56	0.132
788.00	0.140
788.43	0.139
788.87	0.132
789.31	0.133
789.75	0.136
790.18	0.134
790.62	0.133
791.06	0.136
791.49	0.136
791.93	0.132
792.37	0.139
792.80	0.131
793.24	0.131
793.68	0.137
794.11	0.134
794.55	0.134
794.99	0.135
795.42	0.133
795.86	0.135
796.30	0.131
796.73	0.129
797.17	0.132
797.61	0.133
798.04	0.130
798.48	0.134
798.91	0.133
799.35	0.133
799.79	0.134
800.22	0.134
800.66	0.133
801.10	0.132
801.53	0.132
801.97	0.135
802.40	0.137
802.84	0.131
803.28	0.132
803.71	0.134
804.15	0.132
804.58	0.131
805.02	0.130
805.46	0.134
805.89	0.129
806.33	0.129
806.76	0.128
807.20	0.132
807.63	0.131
808.07	0.133
808.51	0.130
808.94	0.126
809.38	0.129
809.81	0.130
810.25	0.131
810.68	0.133
811.12	0.132
811.55	0.136
811.99	0.133
812.42	0.130
812.86	0.128
813.29	0.130
813.73	0.131
814.17	0.128
814.60	0.129
815.04	0.130
