SpectraSuite Data File
++++++++++++++++++++++++++++++++++++
Date: Sun Apr 24 18:21:29 CEST 2016
User: spectrasuite
Dark Spectrum Present: Yes
Reference Spectrum Present: Yes
Number of Sampled Component Spectra: 1
Spectrometers: HR+C0708
Integration Time (usec): 1000 (HR+C0708)
Spectra Averaged: 10 (HR+C0708)
Boxcar Smoothing: 0 (HR+C0708)
Correct for Electrical Dark: No (HR+C0708)
Strobe/Lamp Enabled: No (HR+C0708)
Correct for Detector Non-linearity: No (HR+C0708)
Correct for Stray Light: No (HR+C0708)
Number of Pixels in Processed Spectrum: 2048
>>>>>Begin Processed Spectral Data<<<<<
188.76	-0.000
189.23	-0.000
189.70	-0.000
190.17	-0.000
190.64	-0.000
191.12	-0.000
191.59	-0.000
192.06	-0.000
192.53	-0.000
193.01	-0.000
193.48	-0.000
193.95	-0.000
194.42	-0.000
194.90	-0.000
195.37	-0.000
195.84	-0.000
196.31	-0.000
196.78	-0.000
197.26	-0.000
197.73	-0.000
198.20	-0.000
198.67	-0.000
199.14	-0.000
199.62	-0.000
200.09	-0.000
200.56	-0.000
201.03	-0.000
201.50	-0.000
201.97	-0.000
202.45	-0.000
202.92	-0.000
203.39	-0.000
203.86	-0.000
204.33	-0.000
204.80	-0.000
205.28	-0.000
205.75	-0.000
206.22	-0.000
206.69	-0.000
207.16	-0.000
207.63	1.644
208.11	-0.000
208.58	-0.000
209.05	-0.000
209.52	1.049
209.99	-0.000
210.46	-0.000
210.93	1.995
211.41	1.679
211.88	-0.000
212.35	-0.000
212.82	-0.000
213.29	-0.000
213.76	-0.000
214.23	-0.000
214.70	-0.000
215.18	-0.000
215.65	-0.000
216.12	1.081
216.59	-0.000
217.06	-0.000
217.53	-0.000
218.00	0.998
218.47	-0.000
218.94	-0.000
219.41	-0.000
219.89	-0.000
220.36	-0.000
220.83	-0.000
221.30	-0.000
221.77	2.382
222.24	-0.000
222.71	-0.000
223.18	-0.000
223.65	-0.000
224.12	-0.000
224.59	-0.000
225.06	-0.000
225.54	-0.000
226.01	1.409
226.48	1.685
226.95	-0.000
227.42	-0.000
227.89	-0.000
228.36	1.773
228.83	-0.000
229.30	-0.000
229.77	1.619
230.24	1.703
230.71	-0.000
231.18	-0.000
231.65	-0.000
232.12	2.871
232.59	-0.000
233.06	-0.000
233.53	-0.000
234.00	-0.000
234.47	-0.000
234.94	-0.000
235.41	-0.000
235.88	-0.000
236.35	2.488
236.82	2.319
237.29	-0.000
237.76	3.960
238.23	-0.000
238.70	3.150
239.17	3.317
239.64	-0.000
240.11	-0.000
240.58	-0.000
241.05	-0.000
241.52	-0.000
241.99	-0.000
242.46	-0.000
242.93	-0.000
243.40	2.939
243.87	2.910
244.34	2.737
244.81	2.822
245.28	-0.000
245.75	-0.000
246.22	-0.000
246.69	-0.000
247.16	3.063
247.63	-0.000
248.10	3.350
248.57	-0.000
249.04	-0.000
249.51	-0.000
249.98	-0.000
250.45	-0.000
250.92	-0.000
251.39	-0.000
251.85	4.111
252.32	-0.000
252.79	-0.000
253.26	4.018
253.73	-0.000
254.20	-0.000
254.67	3.244
255.14	3.133
255.61	2.826
256.08	3.493
256.55	-0.000
257.02	2.666
257.49	2.751
257.95	2.813
258.42	2.490
258.89	2.541
259.36	2.413
259.83	2.475
260.30	2.543
260.77	2.624
261.24	2.408
261.71	2.457
262.17	2.302
262.64	2.295
263.11	2.360
263.58	2.367
264.05	2.245
264.52	2.250
264.99	2.253
265.46	2.205
265.92	2.219
266.39	2.154
266.86	2.188
267.33	2.136
267.80	2.073
268.27	2.158
268.74	2.061
269.20	2.040
269.67	2.082
270.14	2.023
270.61	1.972
271.08	2.005
271.55	1.990
272.01	1.973
272.48	1.937
272.95	1.941
273.42	1.942
273.89	1.894
274.36	1.883
274.82	1.873
275.29	1.866
275.76	1.837
276.23	1.835
276.70	1.843
277.16	1.788
277.63	1.785
278.10	1.793
278.57	1.784
279.04	1.773
279.50	1.767
279.97	1.756
280.44	1.706
280.91	1.703
281.38	1.722
281.84	1.699
282.31	1.688
282.78	1.710
283.25	1.680
283.72	1.661
284.18	1.649
284.65	1.659
285.12	1.634
285.59	1.613
286.05	1.612
286.52	1.626
286.99	1.624
287.46	1.582
287.92	1.588
288.39	1.577
288.86	1.576
289.33	1.550
289.79	1.557
290.26	1.547
290.73	1.527
291.20	1.515
291.66	1.526
292.13	1.511
292.60	1.481
293.07	1.491
293.53	1.470
294.00	1.475
294.47	1.460
294.93	1.458
295.40	1.454
295.87	1.438
296.34	1.433
296.80	1.425
297.27	1.407
297.74	1.396
298.20	1.410
298.67	1.387
299.14	1.379
299.60	1.373
300.07	1.366
300.54	1.363
301.01	1.344
301.47	1.328
301.94	1.328
302.41	1.320
302.87	1.313
303.34	1.325
303.81	1.303
304.27	1.285
304.74	1.271
305.21	1.273
305.67	1.270
306.14	1.248
306.61	1.258
307.07	1.253
307.54	1.236
308.01	1.233
308.47	1.220
308.94	1.227
309.40	1.213
309.87	1.207
310.34	1.193
310.80	1.192
311.27	1.184
311.74	1.183
312.20	1.185
312.67	1.170
313.13	1.159
313.60	1.174
314.07	1.159
314.53	1.145
315.00	1.132
315.47	1.141
315.93	1.125
316.40	1.120
316.86	1.119
317.33	1.119
317.80	1.108
318.26	1.113
318.73	1.112
319.19	1.099
319.66	1.084
320.13	1.094
320.59	1.087
321.06	1.082
321.52	1.073
321.99	1.070
322.45	1.070
322.92	1.055
323.39	1.055
323.85	1.060
324.32	1.048
324.78	1.037
325.25	1.050
325.71	1.038
326.18	1.016
326.64	1.030
327.11	1.019
327.58	1.024
328.04	1.012
328.51	1.011
328.97	1.012
329.44	1.007
329.90	0.997
330.37	0.998
330.83	0.989
331.30	0.985
331.76	0.983
332.23	0.984
332.69	0.974
333.16	0.961
333.62	0.968
334.09	0.962
334.56	0.957
335.02	0.952
335.49	0.947
335.95	0.945
336.42	0.932
336.88	0.936
337.35	0.931
337.81	0.928
338.28	0.921
338.74	0.922
339.20	0.920
339.67	0.918
340.13	0.913
340.60	0.909
341.06	0.899
341.53	0.894
341.99	0.893
342.46	0.888
342.92	0.884
343.39	0.875
343.85	0.875
344.32	0.874
344.78	0.870
345.25	0.867
345.71	0.863
346.17	0.859
346.64	0.858
347.10	0.850
347.57	0.838
348.03	0.829
348.50	0.827
348.96	0.823
349.43	0.830
349.89	0.809
350.35	0.816
350.82	0.812
351.28	0.803
351.75	0.792
352.21	0.798
352.67	0.789
353.14	0.777
353.60	0.768
354.07	0.767
354.53	0.762
355.00	0.749
355.46	0.750
355.92	0.743
356.39	0.732
356.85	0.727
357.31	0.724
357.78	0.722
358.24	0.702
358.71	0.699
359.17	0.701
359.63	0.690
360.10	0.690
360.56	0.685
361.03	0.681
361.49	0.675
361.95	0.672
362.42	0.670
362.88	0.664
363.34	0.656
363.81	0.651
364.27	0.649
364.73	0.649
365.20	0.646
365.66	0.638
366.12	0.632
366.59	0.632
367.05	0.628
367.51	0.628
367.98	0.625
368.44	0.620
368.90	0.622
369.37	0.618
369.83	0.611
370.29	0.614
370.76	0.615
371.22	0.611
371.68	0.602
372.15	0.603
372.61	0.598
373.07	0.599
373.54	0.599
374.00	0.598
374.46	0.595
374.92	0.586
375.39	0.588
375.85	0.587
376.31	0.589
376.78	0.582
377.24	0.582
377.70	0.577
378.16	0.574
378.63	0.574
379.09	0.577
379.55	0.574
380.01	0.573
380.48	0.571
380.94	0.568
381.40	0.564
381.87	0.561
382.33	0.564
382.79	0.563
383.25	0.561
383.72	0.561
384.18	0.558
384.64	0.555
385.10	0.552
385.56	0.553
386.03	0.550
386.49	0.546
386.95	0.544
387.41	0.544
387.88	0.544
388.34	0.539
388.80	0.541
389.26	0.540
389.72	0.538
390.19	0.535
390.65	0.533
391.11	0.532
391.57	0.534
392.04	0.528
392.50	0.529
392.96	0.524
393.42	0.524
393.88	0.529
394.34	0.527
394.81	0.523
395.27	0.520
395.73	0.518
396.19	0.517
396.65	0.513
397.12	0.512
397.58	0.511
398.04	0.510
398.50	0.510
398.96	0.504
399.42	0.510
399.89	0.502
400.35	0.505
400.81	0.502
401.27	0.503
401.73	0.498
402.19	0.497
402.65	0.496
403.12	0.496
403.58	0.494
404.04	0.494
404.50	0.493
404.96	0.487
405.42	0.487
405.88	0.489
406.34	0.489
406.81	0.482
407.27	0.482
407.73	0.480
408.19	0.479
408.65	0.476
409.11	0.476
409.57	0.484
410.03	0.474
410.49	0.473
410.96	0.472
411.42	0.474
411.88	0.469
412.34	0.470
412.80	0.470
413.26	0.462
413.72	0.465
414.18	0.461
414.64	0.460
415.10	0.460
415.56	0.459
416.02	0.464
416.48	0.455
416.95	0.449
417.41	0.456
417.87	0.454
418.33	0.452
418.79	0.452
419.25	0.452
419.71	0.451
420.17	0.448
420.63	0.442
421.09	0.444
421.55	0.439
422.01	0.443
422.47	0.444
422.93	0.440
423.39	0.440
423.85	0.440
424.31	0.438
424.77	0.438
425.23	0.439
425.69	0.438
426.15	0.436
426.61	0.436
427.07	0.429
427.53	0.431
427.99	0.424
428.45	0.428
428.91	0.427
429.37	0.424
429.83	0.425
430.29	0.420
430.75	0.426
431.21	0.424
431.67	0.424
432.13	0.421
432.59	0.420
433.05	0.419
433.51	0.415
433.97	0.415
434.43	0.418
434.89	0.417
435.35	0.411
435.81	0.413
436.27	0.409
436.73	0.410
437.19	0.407
437.65	0.409
438.11	0.410
438.57	0.406
439.03	0.408
439.48	0.405
439.94	0.403
440.40	0.402
440.86	0.403
441.32	0.401
441.78	0.404
442.24	0.399
442.70	0.401
443.16	0.396
443.62	0.392
444.08	0.397
444.54	0.394
444.99	0.393
445.45	0.394
445.91	0.394
446.37	0.395
446.83	0.391
447.29	0.389
447.75	0.391
448.21	0.392
448.67	0.389
449.12	0.389
449.58	0.387
450.04	0.382
450.50	0.383
450.96	0.386
451.42	0.383
451.88	0.380
452.34	0.380
452.79	0.379
453.25	0.382
453.71	0.375
454.17	0.377
454.63	0.379
455.09	0.377
455.55	0.375
456.00	0.375
456.46	0.374
456.92	0.368
457.38	0.375
457.84	0.372
458.30	0.370
458.75	0.369
459.21	0.364
459.67	0.369
460.13	0.363
460.59	0.365
461.04	0.363
461.50	0.362
461.96	0.361
462.42	0.364
462.88	0.360
463.33	0.357
463.79	0.359
464.25	0.360
464.71	0.359
465.17	0.360
465.62	0.359
466.08	0.358
466.54	0.358
467.00	0.356
467.46	0.358
467.91	0.354
468.37	0.354
468.83	0.354
469.29	0.353
469.74	0.352
470.20	0.352
470.66	0.351
471.12	0.345
471.57	0.350
472.03	0.348
472.49	0.349
472.95	0.348
473.40	0.344
473.86	0.343
474.32	0.343
474.78	0.346
475.23	0.341
475.69	0.345
476.15	0.342
476.60	0.341
477.06	0.341
477.52	0.341
477.98	0.339
478.43	0.338
478.89	0.334
479.35	0.337
479.80	0.340
480.26	0.336
480.72	0.335
481.18	0.335
481.63	0.334
482.09	0.332
482.55	0.333
483.00	0.332
483.46	0.330
483.92	0.331
484.37	0.330
484.83	0.328
485.29	0.328
485.74	0.328
486.20	0.329
486.66	0.324
487.11	0.326
487.57	0.326
488.03	0.324
488.48	0.323
488.94	0.323
489.40	0.323
489.85	0.322
490.31	0.322
490.77	0.321
491.22	0.324
491.68	0.319
492.13	0.318
492.59	0.319
493.05	0.319
493.50	0.317
493.96	0.318
494.42	0.318
494.87	0.315
495.33	0.314
495.78	0.317
496.24	0.316
496.70	0.314
497.15	0.313
497.61	0.311
498.06	0.312
498.52	0.308
498.98	0.310
499.43	0.311
499.89	0.308
500.34	0.309
500.80	0.311
501.25	0.308
501.71	0.307
502.17	0.306
502.62	0.307
503.08	0.305
503.53	0.303
503.99	0.304
504.44	0.305
504.90	0.301
505.36	0.301
505.81	0.303
506.27	0.304
506.72	0.304
507.18	0.302
507.63	0.300
508.09	0.301
508.54	0.300
509.00	0.300
509.45	0.300
509.91	0.297
510.36	0.296
510.82	0.296
511.27	0.299
511.73	0.296
512.19	0.294
512.64	0.293
513.10	0.295
513.55	0.294
514.01	0.294
514.46	0.292
514.92	0.291
515.37	0.293
515.83	0.293
516.28	0.288
516.73	0.290
517.19	0.290
517.64	0.287
518.10	0.289
518.55	0.288
519.01	0.289
519.46	0.287
519.92	0.288
520.37	0.285
520.83	0.284
521.28	0.285
521.74	0.286
522.19	0.285
522.65	0.282
523.10	0.284
523.55	0.282
524.01	0.285
524.46	0.283
524.92	0.280
525.37	0.282
525.83	0.281
526.28	0.278
526.73	0.280
527.19	0.282
527.64	0.281
528.10	0.280
528.55	0.280
529.01	0.278
529.46	0.278
529.91	0.276
530.37	0.278
530.82	0.276
531.28	0.276
531.73	0.279
532.18	0.276
532.64	0.277
533.09	0.276
533.54	0.275
534.00	0.273
534.45	0.277
534.91	0.275
535.36	0.275
535.81	0.273
536.27	0.274
536.72	0.274
537.17	0.274
537.63	0.271
538.08	0.272
538.54	0.272
538.99	0.269
539.44	0.272
539.90	0.271
540.35	0.272
540.80	0.270
541.26	0.269
541.71	0.270
542.16	0.272
542.62	0.268
543.07	0.269
543.52	0.270
543.98	0.270
544.43	0.268
544.88	0.267
545.34	0.267
545.79	0.268
546.24	0.266
546.69	0.268
547.15	0.267
547.60	0.266
548.05	0.266
548.51	0.265
548.96	0.264
549.41	0.265
549.86	0.263
550.32	0.266
550.77	0.266
551.22	0.265
551.68	0.264
552.13	0.263
552.58	0.261
553.03	0.263
553.49	0.265
553.94	0.263
554.39	0.264
554.84	0.264
555.30	0.263
555.75	0.262
556.20	0.261
556.65	0.261
557.11	0.261
557.56	0.261
558.01	0.263
558.46	0.263
558.92	0.261
559.37	0.262
559.82	0.261
560.27	0.260
560.72	0.262
561.18	0.262
561.63	0.262
562.08	0.258
562.53	0.261
562.99	0.260
563.44	0.261
563.89	0.258
564.34	0.259
564.79	0.259
565.25	0.259
565.70	0.256
566.15	0.257
566.60	0.258
567.05	0.258
567.50	0.258
567.96	0.258
568.41	0.257
568.86	0.258
569.31	0.256
569.76	0.257
570.21	0.259
570.67	0.256
571.12	0.259
571.57	0.256
572.02	0.255
572.47	0.256
572.92	0.257
573.37	0.255
573.83	0.254
574.28	0.256
574.73	0.256
575.18	0.258
575.63	0.257
576.08	0.254
576.53	0.257
576.98	0.253
577.44	0.253
577.89	0.255
578.34	0.256
578.79	0.254
579.24	0.257
579.69	0.254
580.14	0.252
580.59	0.253
581.04	0.254
581.49	0.255
581.95	0.256
582.40	0.256
582.85	0.253
583.30	0.254
583.75	0.255
584.20	0.257
584.65	0.255
585.10	0.254
585.55	0.256
586.00	0.256
586.45	0.255
586.90	0.257
587.35	0.257
587.80	0.257
588.25	0.256
588.71	0.258
589.16	0.257
589.61	0.257
590.06	0.255
590.51	0.259
590.96	0.259
591.41	0.257
591.86	0.259
592.31	0.258
592.76	0.260
593.21	0.259
593.66	0.261
594.11	0.261
594.56	0.258
595.01	0.259
595.46	0.258
595.91	0.260
596.36	0.261
596.81	0.261
597.26	0.259
597.71	0.262
598.16	0.262
598.61	0.262
599.06	0.264
599.51	0.264
599.96	0.262
600.41	0.263
600.86	0.266
601.31	0.262
601.76	0.265
602.21	0.265
602.65	0.265
603.10	0.263
603.55	0.264
604.00	0.266
604.45	0.265
604.90	0.265
605.35	0.263
605.80	0.265
606.25	0.268
606.70	0.266
607.15	0.266
607.60	0.263
608.05	0.264
608.50	0.267
608.95	0.263
609.39	0.267
609.84	0.267
610.29	0.266
610.74	0.266
611.19	0.265
611.64	0.267
612.09	0.268
612.54	0.268
612.99	0.267
613.44	0.266
613.88	0.269
614.33	0.267
614.78	0.265
615.23	0.264
615.68	0.266
616.13	0.268
616.58	0.266
617.03	0.266
617.47	0.265
617.92	0.264
618.37	0.267
618.82	0.267
619.27	0.267
619.72	0.266
620.17	0.263
620.61	0.265
621.06	0.264
621.51	0.267
621.96	0.266
622.41	0.264
622.86	0.265
623.30	0.265
623.75	0.268
624.20	0.267
624.65	0.265
625.10	0.266
625.54	0.267
625.99	0.265
626.44	0.265
626.89	0.268
627.34	0.268
627.78	0.266
628.23	0.266
628.68	0.268
629.13	0.266
629.58	0.268
630.02	0.267
630.47	0.265
630.92	0.268
631.37	0.268
631.81	0.271
632.26	0.269
632.71	0.269
633.16	0.270
633.61	0.269
634.05	0.267
634.50	0.270
634.95	0.272
635.40	0.270
635.84	0.272
636.29	0.271
636.74	0.273
637.18	0.272
637.63	0.274
638.08	0.273
638.53	0.273
638.97	0.273
639.42	0.275
639.87	0.274
640.32	0.273
640.76	0.275
641.21	0.276
641.66	0.278
642.10	0.276
642.55	0.276
643.00	0.276
643.44	0.278
643.89	0.281
644.34	0.278
644.79	0.278
645.23	0.277
645.68	0.280
646.13	0.280
646.57	0.282
647.02	0.279
647.47	0.283
647.91	0.282
648.36	0.283
648.81	0.285
649.25	0.280
649.70	0.282
650.15	0.281
650.59	0.282
651.04	0.283
651.48	0.286
651.93	0.286
652.38	0.284
652.82	0.284
653.27	0.284
653.72	0.284
654.16	0.284
654.61	0.287
655.06	0.283
655.50	0.283
655.95	0.281
656.39	0.277
656.84	0.281
657.29	0.288
657.73	0.284
658.18	0.282
658.62	0.285
659.07	0.284
659.52	0.284
659.96	0.282
660.41	0.285
660.85	0.282
661.30	0.281
661.74	0.280
662.19	0.281
662.64	0.282
663.08	0.278
663.53	0.278
663.97	0.279
664.42	0.278
664.86	0.278
665.31	0.276
665.75	0.275
666.20	0.276
666.65	0.275
667.09	0.274
667.54	0.274
667.98	0.270
668.43	0.270
668.87	0.267
669.32	0.267
669.76	0.267
670.21	0.267
670.65	0.261
671.10	0.261
671.54	0.261
671.99	0.259
672.43	0.257
672.88	0.256
673.32	0.256
673.77	0.254
674.21	0.250
674.66	0.249
675.10	0.247
675.55	0.243
675.99	0.244
676.44	0.242
676.88	0.240
677.33	0.238
677.77	0.236
678.22	0.234
678.66	0.232
679.11	0.227
679.55	0.228
679.99	0.226
680.44	0.226
680.88	0.222
681.33	0.220
681.77	0.217
682.22	0.215
682.66	0.214
683.11	0.213
683.55	0.210
683.99	0.210
684.44	0.205
684.88	0.204
685.33	0.203
685.77	0.200
686.21	0.201
686.66	0.199
687.10	0.194
687.55	0.194
687.99	0.195
688.44	0.194
688.88	0.189
689.32	0.189
689.77	0.187
690.21	0.185
690.65	0.182
691.10	0.185
691.54	0.182
691.99	0.179
692.43	0.176
692.87	0.177
693.32	0.176
693.76	0.178
694.20	0.178
694.65	0.177
695.09	0.173
695.53	0.172
695.98	0.172
696.42	0.172
696.86	0.169
697.31	0.168
697.75	0.169
698.19	0.167
698.64	0.168
699.08	0.165
699.52	0.166
699.97	0.165
700.41	0.166
700.85	0.166
701.30	0.162
701.74	0.162
702.18	0.164
702.63	0.162
703.07	0.162
703.51	0.161
703.96	0.161
704.40	0.161
704.84	0.160
705.28	0.159
705.73	0.161
706.17	0.160
706.61	0.157
707.06	0.159
707.50	0.156
707.94	0.157
708.38	0.156
708.83	0.158
709.27	0.155
709.71	0.157
710.15	0.154
710.60	0.155
711.04	0.155
711.48	0.156
711.92	0.157
712.37	0.154
712.81	0.157
713.25	0.154
713.69	0.155
714.13	0.154
714.58	0.154
715.02	0.152
715.46	0.153
715.90	0.151
716.35	0.150
716.79	0.154
717.23	0.155
717.67	0.152
718.11	0.152
718.56	0.151
719.00	0.153
719.44	0.152
719.88	0.151
720.32	0.150
720.76	0.151
721.21	0.150
721.65	0.149
722.09	0.152
722.53	0.151
722.97	0.151
723.41	0.150
723.86	0.151
724.30	0.151
724.74	0.152
725.18	0.150
725.62	0.149
726.06	0.151
726.50	0.149
726.95	0.150
727.39	0.149
727.83	0.147
728.27	0.150
728.71	0.147
729.15	0.151
729.59	0.151
730.03	0.148
730.48	0.147
730.92	0.148
731.36	0.149
731.80	0.150
732.24	0.151
732.68	0.147
733.12	0.147
733.56	0.148
734.00	0.149
734.44	0.148
734.89	0.146
735.33	0.150
735.77	0.154
736.21	0.151
736.65	0.148
737.09	0.148
737.53	0.151
737.97	0.149
738.41	0.148
738.85	0.151
739.29	0.150
739.73	0.147
740.17	0.148
740.61	0.149
741.05	0.148
741.49	0.148
741.93	0.147
742.37	0.147
742.81	0.148
743.26	0.145
743.70	0.148
744.14	0.145
744.58	0.147
745.02	0.149
745.46	0.149
745.90	0.148
746.34	0.146
746.78	0.147
747.22	0.148
747.66	0.148
748.10	0.146
748.54	0.146
748.98	0.143
749.42	0.145
749.86	0.145
750.29	0.146
750.73	0.144
751.17	0.142
751.61	0.143
752.05	0.148
752.49	0.145
752.93	0.140
753.37	0.143
753.81	0.144
754.25	0.141
754.69	0.142
755.13	0.140
755.57	0.144
756.01	0.145
756.45	0.142
756.89	0.146
757.33	0.145
757.77	0.142
758.21	0.143
758.64	0.140
759.08	0.140
759.52	0.143
759.96	0.143
760.40	0.143
760.84	0.138
761.28	0.140
761.72	0.141
762.16	0.143
762.60	0.139
763.03	0.140
763.47	0.142
763.91	0.140
764.35	0.139
764.79	0.140
765.23	0.138
765.67	0.138
766.11	0.136
766.54	0.137
766.98	0.140
767.42	0.139
767.86	0.136
768.30	0.142
768.74	0.137
769.17	0.140
769.61	0.139
770.05	0.138
770.49	0.141
770.93	0.138
771.37	0.136
771.80	0.137
772.24	0.136
772.68	0.139
773.12	0.135
773.56	0.137
774.00	0.136
774.43	0.136
774.87	0.136
775.31	0.134
775.75	0.135
776.19	0.135
776.62	0.135
777.06	0.138
777.50	0.136
777.94	0.132
778.37	0.133
778.81	0.137
779.25	0.134
779.69	0.135
780.13	0.137
780.56	0.136
781.00	0.135
781.44	0.136
781.88	0.138
782.31	0.133
782.75	0.131
783.19	0.136
783.63	0.134
784.06	0.135
784.50	0.136
784.94	0.134
785.37	0.136
785.81	0.135
786.25	0.134
786.69	0.134
787.12	0.136
787.56	0.130
788.00	0.134
788.43	0.136
788.87	0.132
789.31	0.133
789.75	0.133
790.18	0.132
790.62	0.132
791.06	0.130
791.49	0.132
791.93	0.129
792.37	0.131
792.80	0.130
793.24	0.130
793.68	0.134
794.11	0.132
794.55	0.135
794.99	0.135
795.42	0.132
795.86	0.134
796.30	0.134
796.73	0.132
797.17	0.132
797.61	0.128
798.04	0.132
798.48	0.133
798.91	0.130
799.35	0.131
799.79	0.134
800.22	0.130
800.66	0.129
801.10	0.133
801.53	0.132
801.97	0.134
802.40	0.131
802.84	0.132
803.28	0.127
803.71	0.127
804.15	0.129
804.58	0.127
805.02	0.132
805.46	0.130
805.89	0.128
806.33	0.132
806.76	0.129
807.20	0.132
807.63	0.130
808.07	0.131
808.51	0.127
808.94	0.129
809.38	0.127
809.81	0.127
810.25	0.131
810.68	0.131
811.12	0.131
811.55	0.129
811.99	0.128
812.42	0.132
812.86	0.126
813.29	0.127
813.73	0.128
814.17	0.128
