SpectraSuite Data File
++++++++++++++++++++++++++++++++++++
Date: Sun Apr 24 14:43:28 CEST 2016
User: spectrasuite
Dark Spectrum Present: Yes
Reference Spectrum Present: Yes
Number of Sampled Component Spectra: 1
Spectrometers: HR+C0708
Integration Time (usec): 1000 (HR+C0708)
Spectra Averaged: 10 (HR+C0708)
Boxcar Smoothing: 0 (HR+C0708)
Correct for Electrical Dark: No (HR+C0708)
Strobe/Lamp Enabled: No (HR+C0708)
Correct for Detector Non-linearity: No (HR+C0708)
Correct for Stray Light: No (HR+C0708)
Number of Pixels in Processed Spectrum: 2048
>>>>>Begin Processed Spectral Data<<<<<
188.76	-0.000
189.23	-0.000
189.70	-0.000
190.17	-0.000
190.64	-0.000
191.12	-0.000
191.59	-0.000
192.06	-0.000
192.53	-0.000
193.01	-0.000
193.48	-0.000
193.95	-0.000
194.42	-0.000
194.90	1.060
195.37	-0.000
195.84	-0.000
196.31	-0.000
196.78	-0.000
197.26	-0.000
197.73	-0.000
198.20	-0.000
198.67	-0.000
199.14	-0.000
199.62	-0.000
200.09	-0.000
200.56	-0.000
201.03	1.490
201.50	1.061
201.97	1.299
202.45	1.376
202.92	0.765
203.39	0.952
203.86	0.850
204.33	0.969
204.80	1.402
205.28	1.397
205.75	-0.000
206.22	0.844
206.69	0.790
207.16	-0.000
207.63	1.106
208.11	0.677
208.58	1.139
209.05	1.633
209.52	0.941
209.99	2.145
210.46	1.101
210.93	-0.000
211.41	0.894
211.88	0.915
212.35	-0.000
212.82	-0.000
213.29	1.418
213.76	0.995
214.23	1.919
214.70	1.199
215.18	-0.000
215.65	1.539
216.12	1.108
216.59	1.943
217.06	0.977
217.53	-0.000
218.00	1.396
218.47	0.770
218.94	-0.000
219.41	1.926
219.89	1.008
220.36	1.356
220.83	1.526
221.30	1.745
221.77	1.303
222.24	-0.000
222.71	-0.000
223.18	1.247
223.65	1.198
224.12	-0.000
224.59	-0.000
225.06	1.388
225.54	1.345
226.01	-0.000
226.48	-0.000
226.95	-0.000
227.42	2.106
227.89	-0.000
228.36	1.327
228.83	1.806
229.30	2.471
229.77	1.954
230.24	1.680
230.71	-0.000
231.18	-0.000
231.65	1.701
232.12	1.663
232.59	1.859
233.06	2.610
233.53	1.900
234.00	2.078
234.47	-0.000
234.94	-0.000
235.41	2.224
235.88	-0.000
236.35	-0.000
236.82	2.240
237.29	2.179
237.76	2.982
238.23	-0.000
238.70	2.305
239.17	2.513
239.64	-0.000
240.11	-0.000
240.58	2.377
241.05	2.694
241.52	3.295
241.99	3.197
242.46	3.117
242.93	-0.000
243.40	2.707
243.87	2.592
244.34	2.475
244.81	-0.000
245.28	3.344
245.75	2.841
246.22	-0.000
246.69	3.097
247.16	2.608
247.63	2.916
248.10	-0.000
248.57	2.983
249.04	-0.000
249.51	3.343
249.98	-0.000
250.45	2.965
250.92	2.930
251.39	-0.000
251.85	2.934
252.32	2.931
252.79	3.106
253.26	3.064
253.73	3.044
254.20	2.907
254.67	2.949
255.14	2.852
255.61	3.179
256.08	2.960
256.55	-0.000
257.02	3.138
257.49	3.039
257.95	2.981
258.42	3.611
258.89	3.033
259.36	3.182
259.83	3.730
260.30	4.461
260.77	3.152
261.24	2.657
261.71	-0.000
262.17	3.359
262.64	2.728
263.11	3.256
263.58	-0.000
264.05	3.089
264.52	3.563
264.99	3.208
265.46	3.141
265.92	3.903
266.39	3.154
266.86	-0.000
267.33	2.924
267.80	2.710
268.27	3.756
268.74	3.085
269.20	3.169
269.67	2.985
270.14	2.863
270.61	2.765
271.08	3.205
271.55	2.815
272.01	3.000
272.48	2.773
272.95	2.790
273.42	3.112
273.89	2.968
274.36	2.786
274.82	2.900
275.29	2.741
275.76	2.793
276.23	2.984
276.70	2.837
277.16	2.835
277.63	2.527
278.10	2.690
278.57	2.842
279.04	2.888
279.50	2.785
279.97	2.743
280.44	2.570
280.91	2.583
281.38	2.612
281.84	2.615
282.31	2.768
282.78	2.756
283.25	2.579
283.72	2.561
284.18	2.548
284.65	2.564
285.12	2.551
285.59	2.688
286.05	2.674
286.52	2.601
286.99	2.573
287.46	2.604
287.92	2.508
288.39	2.419
288.86	2.895
289.33	2.460
289.79	2.466
290.26	2.449
290.73	2.431
291.20	2.366
291.66	2.461
292.13	2.452
292.60	2.412
293.07	2.322
293.53	2.267
294.00	2.380
294.47	2.343
294.93	2.327
295.40	2.378
295.87	2.404
296.34	2.333
296.80	2.276
297.27	2.367
297.74	2.348
298.20	2.322
298.67	2.250
299.14	2.304
299.60	2.223
300.07	2.240
300.54	2.262
301.01	2.234
301.47	2.154
301.94	2.190
302.41	2.266
302.87	2.224
303.34	2.275
303.81	2.112
304.27	2.240
304.74	2.133
305.21	2.129
305.67	2.240
306.14	2.154
306.61	2.198
307.07	2.126
307.54	2.169
308.01	2.080
308.47	2.154
308.94	2.165
309.40	2.179
309.87	2.108
310.34	2.079
310.80	2.161
311.27	2.105
311.74	2.102
312.20	2.133
312.67	2.129
313.13	2.060
313.60	2.160
314.07	2.084
314.53	2.083
315.00	2.000
315.47	2.069
315.93	2.133
316.40	2.032
316.86	2.050
317.33	2.029
317.80	2.011
318.26	2.041
318.73	2.028
319.19	2.026
319.66	2.014
320.13	1.988
320.59	2.003
321.06	2.027
321.52	2.033
321.99	1.987
322.45	1.954
322.92	1.930
323.39	1.944
323.85	1.930
324.32	1.969
324.78	1.906
325.25	1.926
325.71	1.878
326.18	1.934
326.64	1.885
327.11	1.882
327.58	1.857
328.04	1.857
328.51	1.849
328.97	1.829
329.44	1.836
329.90	1.797
330.37	1.834
330.83	1.735
331.30	1.773
331.76	1.731
332.23	1.716
332.69	1.707
333.16	1.680
333.62	1.681
334.09	1.649
334.56	1.634
335.02	1.621
335.49	1.590
335.95	1.555
336.42	1.545
336.88	1.503
337.35	1.502
337.81	1.474
338.28	1.448
338.74	1.431
339.20	1.400
339.67	1.366
340.13	1.351
340.60	1.318
341.06	1.277
341.53	1.264
341.99	1.231
342.46	1.204
342.92	1.183
343.39	1.155
343.85	1.128
344.32	1.114
344.78	1.091
345.25	1.062
345.71	1.042
346.17	1.024
346.64	0.992
347.10	0.971
347.57	0.945
348.03	0.919
348.50	0.890
348.96	0.873
349.43	0.859
349.89	0.842
350.35	0.826
350.82	0.805
351.28	0.794
351.75	0.779
352.21	0.762
352.67	0.747
353.14	0.738
353.60	0.720
354.07	0.706
354.53	0.696
355.00	0.683
355.46	0.670
355.92	0.658
356.39	0.649
356.85	0.639
357.31	0.638
357.78	0.626
358.24	0.615
358.71	0.601
359.17	0.597
359.63	0.592
360.10	0.589
360.56	0.584
361.03	0.583
361.49	0.573
361.95	0.572
362.42	0.566
362.88	0.559
363.34	0.555
363.81	0.549
364.27	0.549
364.73	0.549
365.20	0.546
365.66	0.542
366.12	0.541
366.59	0.534
367.05	0.533
367.51	0.535
367.98	0.528
368.44	0.527
368.90	0.524
369.37	0.528
369.83	0.517
370.29	0.518
370.76	0.518
371.22	0.515
371.68	0.513
372.15	0.510
372.61	0.510
373.07	0.507
373.54	0.510
374.00	0.502
374.46	0.504
374.92	0.501
375.39	0.496
375.85	0.495
376.31	0.494
376.78	0.495
377.24	0.494
377.70	0.492
378.16	0.485
378.63	0.489
379.09	0.484
379.55	0.483
380.01	0.485
380.48	0.478
380.94	0.481
381.40	0.476
381.87	0.472
382.33	0.478
382.79	0.474
383.25	0.470
383.72	0.473
384.18	0.468
384.64	0.465
385.10	0.467
385.56	0.468
386.03	0.462
386.49	0.464
386.95	0.459
387.41	0.458
387.88	0.458
388.34	0.457
388.80	0.453
389.26	0.451
389.72	0.452
390.19	0.451
390.65	0.449
391.11	0.449
391.57	0.447
392.04	0.444
392.50	0.441
392.96	0.439
393.42	0.441
393.88	0.441
394.34	0.439
394.81	0.439
395.27	0.434
395.73	0.433
396.19	0.435
396.65	0.433
397.12	0.429
397.58	0.431
398.04	0.427
398.50	0.429
398.96	0.424
399.42	0.428
399.89	0.427
400.35	0.424
400.81	0.420
401.27	0.421
401.73	0.419
402.19	0.416
402.65	0.417
403.12	0.413
403.58	0.414
404.04	0.412
404.50	0.413
404.96	0.410
405.42	0.408
405.88	0.408
406.34	0.407
406.81	0.409
407.27	0.406
407.73	0.404
408.19	0.399
408.65	0.404
409.11	0.399
409.57	0.403
410.03	0.401
410.49	0.397
410.96	0.398
411.42	0.398
411.88	0.393
412.34	0.393
412.80	0.395
413.26	0.389
413.72	0.388
414.18	0.387
414.64	0.389
415.10	0.390
415.56	0.387
416.02	0.388
416.48	0.383
416.95	0.383
417.41	0.384
417.87	0.382
418.33	0.383
418.79	0.380
419.25	0.380
419.71	0.376
420.17	0.377
420.63	0.375
421.09	0.376
421.55	0.373
422.01	0.371
422.47	0.371
422.93	0.370
423.39	0.372
423.85	0.371
424.31	0.369
424.77	0.369
425.23	0.369
425.69	0.368
426.15	0.368
426.61	0.366
427.07	0.359
427.53	0.359
427.99	0.359
428.45	0.362
428.91	0.360
429.37	0.358
429.83	0.358
430.29	0.358
430.75	0.358
431.21	0.361
431.67	0.360
432.13	0.354
432.59	0.350
433.05	0.350
433.51	0.352
433.97	0.352
434.43	0.352
434.89	0.352
435.35	0.350
435.81	0.345
436.27	0.345
436.73	0.347
437.19	0.344
437.65	0.349
438.11	0.344
438.57	0.346
439.03	0.343
439.48	0.340
439.94	0.340
440.40	0.341
440.86	0.341
441.32	0.340
441.78	0.340
442.24	0.335
442.70	0.335
443.16	0.332
443.62	0.332
444.08	0.335
444.54	0.333
444.99	0.332
445.45	0.329
445.91	0.332
446.37	0.333
446.83	0.328
447.29	0.329
447.75	0.327
448.21	0.331
448.67	0.324
449.12	0.325
449.58	0.325
450.04	0.322
450.50	0.322
450.96	0.323
451.42	0.318
451.88	0.319
452.34	0.321
452.79	0.319
453.25	0.321
453.71	0.320
454.17	0.316
454.63	0.316
455.09	0.317
455.55	0.318
456.00	0.315
456.46	0.314
456.92	0.311
457.38	0.314
457.84	0.312
458.30	0.309
458.75	0.312
459.21	0.308
459.67	0.312
460.13	0.308
460.59	0.305
461.04	0.307
461.50	0.307
461.96	0.306
462.42	0.307
462.88	0.305
463.33	0.305
463.79	0.304
464.25	0.302
464.71	0.302
465.17	0.302
465.62	0.300
466.08	0.302
466.54	0.302
467.00	0.301
467.46	0.302
467.91	0.299
468.37	0.300
468.83	0.301
469.29	0.297
469.74	0.296
470.20	0.297
470.66	0.296
471.12	0.291
471.57	0.294
472.03	0.291
472.49	0.291
472.95	0.291
473.40	0.291
473.86	0.287
474.32	0.287
474.78	0.290
475.23	0.290
475.69	0.289
476.15	0.286
476.60	0.290
477.06	0.286
477.52	0.288
477.98	0.283
478.43	0.287
478.89	0.282
479.35	0.280
479.80	0.282
480.26	0.282
480.72	0.280
481.18	0.284
481.63	0.281
482.09	0.282
482.55	0.281
483.00	0.277
483.46	0.277
483.92	0.278
484.37	0.278
484.83	0.276
485.29	0.274
485.74	0.277
486.20	0.277
486.66	0.278
487.11	0.275
487.57	0.273
488.03	0.273
488.48	0.274
488.94	0.270
489.40	0.270
489.85	0.274
490.31	0.271
490.77	0.269
491.22	0.270
491.68	0.268
492.13	0.268
492.59	0.268
493.05	0.269
493.50	0.266
493.96	0.267
494.42	0.266
494.87	0.263
495.33	0.261
495.78	0.267
496.24	0.265
496.70	0.264
497.15	0.263
497.61	0.263
498.06	0.261
498.52	0.260
498.98	0.261
499.43	0.260
499.89	0.262
500.34	0.260
500.80	0.259
501.25	0.260
501.71	0.256
502.17	0.258
502.62	0.258
503.08	0.257
503.53	0.255
503.99	0.254
504.44	0.256
504.90	0.256
505.36	0.254
505.81	0.254
506.27	0.254
506.72	0.253
507.18	0.253
507.63	0.249
508.09	0.253
508.54	0.249
509.00	0.250
509.45	0.249
509.91	0.250
510.36	0.249
510.82	0.249
511.27	0.248
511.73	0.250
512.19	0.246
512.64	0.245
513.10	0.246
513.55	0.247
514.01	0.244
514.46	0.244
514.92	0.242
515.37	0.242
515.83	0.245
516.28	0.243
516.73	0.242
517.19	0.241
517.64	0.240
518.10	0.241
518.55	0.240
519.01	0.241
519.46	0.241
519.92	0.240
520.37	0.237
520.83	0.240
521.28	0.237
521.74	0.237
522.19	0.239
522.65	0.236
523.10	0.237
523.55	0.236
524.01	0.237
524.46	0.237
524.92	0.233
525.37	0.233
525.83	0.235
526.28	0.232
526.73	0.234
527.19	0.233
527.64	0.235
528.10	0.233
528.55	0.231
529.01	0.232
529.46	0.230
529.91	0.230
530.37	0.230
530.82	0.230
531.28	0.228
531.73	0.226
532.18	0.230
532.64	0.230
533.09	0.225
533.54	0.225
534.00	0.226
534.45	0.231
534.91	0.230
535.36	0.227
535.81	0.226
536.27	0.223
536.72	0.227
537.17	0.224
537.63	0.225
538.08	0.222
538.54	0.224
538.99	0.223
539.44	0.225
539.90	0.223
540.35	0.221
540.80	0.221
541.26	0.220
541.71	0.220
542.16	0.221
542.62	0.220
543.07	0.218
543.52	0.219
543.98	0.220
544.43	0.219
544.88	0.216
545.34	0.216
545.79	0.217
546.24	0.216
546.69	0.218
547.15	0.216
547.60	0.215
548.05	0.214
548.51	0.214
548.96	0.214
549.41	0.215
549.86	0.214
550.32	0.211
550.77	0.214
551.22	0.212
551.68	0.210
552.13	0.211
552.58	0.210
553.03	0.212
553.49	0.210
553.94	0.209
554.39	0.211
554.84	0.209
555.30	0.209
555.75	0.209
556.20	0.207
556.65	0.208
557.11	0.209
557.56	0.207
558.01	0.207
558.46	0.208
558.92	0.205
559.37	0.206
559.82	0.205
560.27	0.206
560.72	0.204
561.18	0.203
561.63	0.205
562.08	0.202
562.53	0.205
562.99	0.202
563.44	0.204
563.89	0.203
564.34	0.205
564.79	0.201
565.25	0.202
565.70	0.202
566.15	0.201
566.60	0.199
567.05	0.201
567.50	0.199
567.96	0.200
568.41	0.199
568.86	0.200
569.31	0.198
569.76	0.196
570.21	0.198
570.67	0.196
571.12	0.199
571.57	0.196
572.02	0.196
572.47	0.195
572.92	0.196
573.37	0.194
573.83	0.194
574.28	0.195
574.73	0.194
575.18	0.194
575.63	0.194
576.08	0.192
576.53	0.193
576.98	0.194
577.44	0.191
577.89	0.192
578.34	0.192
578.79	0.189
579.24	0.190
579.69	0.191
580.14	0.189
580.59	0.189
581.04	0.186
581.49	0.187
581.95	0.188
582.40	0.186
582.85	0.187
583.30	0.187
583.75	0.186
584.20	0.187
584.65	0.186
585.10	0.186
585.55	0.186
586.00	0.185
586.45	0.186
586.90	0.187
587.35	0.186
587.80	0.183
588.25	0.185
588.71	0.185
589.16	0.183
589.61	0.184
590.06	0.182
590.51	0.183
590.96	0.183
591.41	0.182
591.86	0.183
592.31	0.183
592.76	0.182
593.21	0.182
593.66	0.182
594.11	0.181
594.56	0.181
595.01	0.182
595.46	0.180
595.91	0.179
596.36	0.180
596.81	0.182
597.26	0.179
597.71	0.179
598.16	0.179
598.61	0.178
599.06	0.179
599.51	0.180
599.96	0.179
600.41	0.178
600.86	0.178
601.31	0.178
601.76	0.178
602.21	0.178
602.65	0.177
603.10	0.176
603.55	0.176
604.00	0.175
604.45	0.174
604.90	0.177
605.35	0.174
605.80	0.175
606.25	0.176
606.70	0.175
607.15	0.174
607.60	0.174
608.05	0.173
608.50	0.173
608.95	0.170
609.39	0.174
609.84	0.173
610.29	0.171
610.74	0.171
611.19	0.171
611.64	0.173
612.09	0.172
612.54	0.171
612.99	0.170
613.44	0.169
613.88	0.171
614.33	0.171
614.78	0.169
615.23	0.168
615.68	0.168
616.13	0.169
616.58	0.167
617.03	0.168
617.47	0.170
617.92	0.166
618.37	0.168
618.82	0.167
619.27	0.166
619.72	0.167
620.17	0.165
620.61	0.166
621.06	0.165
621.51	0.166
621.96	0.164
622.41	0.165
622.86	0.164
623.30	0.162
623.75	0.165
624.20	0.165
624.65	0.162
625.10	0.161
625.54	0.164
625.99	0.164
626.44	0.162
626.89	0.163
627.34	0.165
627.78	0.163
628.23	0.161
628.68	0.162
629.13	0.162
629.58	0.161
630.02	0.161
630.47	0.161
630.92	0.162
631.37	0.161
631.81	0.161
632.26	0.159
632.71	0.160
633.16	0.159
633.61	0.158
634.05	0.158
634.50	0.159
634.95	0.160
635.40	0.161
635.84	0.160
636.29	0.157
636.74	0.158
637.18	0.159
637.63	0.157
638.08	0.156
638.53	0.158
638.97	0.158
639.42	0.157
639.87	0.157
640.32	0.156
640.76	0.157
641.21	0.156
641.66	0.156
642.10	0.156
642.55	0.154
643.00	0.154
643.44	0.156
643.89	0.156
644.34	0.153
644.79	0.156
645.23	0.154
645.68	0.154
646.13	0.153
646.57	0.156
647.02	0.152
647.47	0.155
647.91	0.153
648.36	0.153
648.81	0.155
649.25	0.151
649.70	0.152
650.15	0.151
650.59	0.152
651.04	0.151
651.48	0.153
651.93	0.151
652.38	0.150
652.82	0.151
653.27	0.151
653.72	0.151
654.16	0.149
654.61	0.152
655.06	0.148
655.50	0.147
655.95	0.148
656.39	0.143
656.84	0.147
657.29	0.152
657.73	0.149
658.18	0.150
658.62	0.150
659.07	0.149
659.52	0.148
659.96	0.149
660.41	0.148
660.85	0.147
661.30	0.147
661.74	0.147
662.19	0.146
662.64	0.148
663.08	0.147
663.53	0.146
663.97	0.146
664.42	0.146
664.86	0.147
665.31	0.146
665.75	0.146
666.20	0.146
666.65	0.146
667.09	0.146
667.54	0.147
667.98	0.144
668.43	0.144
668.87	0.144
669.32	0.145
669.76	0.145
670.21	0.144
670.65	0.141
671.10	0.144
671.54	0.145
671.99	0.142
672.43	0.144
672.88	0.145
673.32	0.143
673.77	0.141
674.21	0.142
674.66	0.141
675.10	0.141
675.55	0.139
675.99	0.144
676.44	0.140
676.88	0.142
677.33	0.142
677.77	0.141
678.22	0.141
678.66	0.142
679.11	0.141
679.55	0.142
679.99	0.141
680.44	0.141
680.88	0.138
681.33	0.139
681.77	0.138
682.22	0.141
682.66	0.140
683.11	0.139
683.55	0.138
683.99	0.138
684.44	0.139
684.88	0.137
685.33	0.139
685.77	0.139
686.21	0.138
686.66	0.138
687.10	0.139
687.55	0.138
687.99	0.139
688.44	0.139
688.88	0.138
689.32	0.139
689.77	0.136
690.21	0.137
690.65	0.138
691.10	0.135
691.54	0.136
691.99	0.137
692.43	0.136
692.87	0.133
693.32	0.137
693.76	0.138
694.20	0.137
694.65	0.136
695.09	0.137
695.53	0.135
695.98	0.135
696.42	0.137
696.86	0.134
697.31	0.133
697.75	0.134
698.19	0.134
698.64	0.134
699.08	0.135
699.52	0.135
699.97	0.136
700.41	0.136
700.85	0.134
701.30	0.134
701.74	0.135
702.18	0.134
702.63	0.133
703.07	0.135
703.51	0.135
703.96	0.132
704.40	0.132
704.84	0.133
705.28	0.133
705.73	0.132
706.17	0.133
706.61	0.133
707.06	0.130
707.50	0.133
707.94	0.132
708.38	0.131
708.83	0.134
709.27	0.131
709.71	0.132
710.15	0.132
710.60	0.132
711.04	0.132
711.48	0.134
711.92	0.132
712.37	0.129
712.81	0.133
713.25	0.131
713.69	0.131
714.13	0.134
714.58	0.131
715.02	0.132
715.46	0.131
715.90	0.129
716.35	0.129
716.79	0.132
717.23	0.132
717.67	0.133
718.11	0.131
718.56	0.131
719.00	0.131
719.44	0.132
719.88	0.132
720.32	0.130
720.76	0.131
721.21	0.131
721.65	0.130
722.09	0.130
722.53	0.131
722.97	0.133
723.41	0.130
723.86	0.133
724.30	0.132
724.74	0.132
725.18	0.131
725.62	0.129
726.06	0.133
726.50	0.129
726.95	0.130
727.39	0.130
727.83	0.129
728.27	0.132
728.71	0.133
729.15	0.131
729.59	0.132
730.03	0.128
730.48	0.132
730.92	0.129
731.36	0.129
731.80	0.131
732.24	0.134
732.68	0.130
733.12	0.127
733.56	0.129
734.00	0.129
734.44	0.131
734.89	0.133
735.33	0.130
735.77	0.133
736.21	0.132
736.65	0.130
737.09	0.132
737.53	0.133
737.97	0.131
738.41	0.132
738.85	0.133
739.29	0.131
739.73	0.131
740.17	0.130
740.61	0.132
741.05	0.132
741.49	0.131
741.93	0.131
742.37	0.127
742.81	0.131
743.26	0.129
743.70	0.130
744.14	0.131
744.58	0.130
745.02	0.129
745.46	0.130
745.90	0.130
746.34	0.130
746.78	0.129
747.22	0.130
747.66	0.130
748.10	0.129
748.54	0.128
748.98	0.128
749.42	0.128
749.86	0.129
750.29	0.127
750.73	0.128
751.17	0.125
751.61	0.128
752.05	0.129
752.49	0.128
752.93	0.127
753.37	0.124
753.81	0.126
754.25	0.128
754.69	0.125
755.13	0.127
755.57	0.126
756.01	0.129
756.45	0.125
756.89	0.125
757.33	0.128
757.77	0.128
758.21	0.127
758.64	0.123
759.08	0.122
759.52	0.127
759.96	0.128
760.40	0.126
760.84	0.122
761.28	0.127
761.72	0.126
762.16	0.126
762.60	0.125
763.03	0.125
763.47	0.124
763.91	0.126
764.35	0.123
764.79	0.123
765.23	0.121
765.67	0.123
766.11	0.119
766.54	0.121
766.98	0.123
767.42	0.125
767.86	0.120
768.30	0.124
768.74	0.127
769.17	0.125
769.61	0.120
770.05	0.122
770.49	0.124
770.93	0.124
771.37	0.119
771.80	0.121
772.24	0.123
772.68	0.122
773.12	0.122
773.56	0.118
774.00	0.120
774.43	0.119
774.87	0.121
775.31	0.123
775.75	0.122
776.19	0.123
776.62	0.121
777.06	0.124
777.50	0.119
777.94	0.120
778.37	0.121
778.81	0.123
779.25	0.121
779.69	0.120
780.13	0.119
780.56	0.118
781.00	0.120
781.44	0.121
781.88	0.123
782.31	0.115
782.75	0.120
783.19	0.120
783.63	0.118
784.06	0.116
784.50	0.120
784.94	0.119
785.37	0.120
785.81	0.120
786.25	0.120
786.69	0.120
787.12	0.119
787.56	0.116
788.00	0.120
788.43	0.122
788.87	0.121
789.31	0.117
789.75	0.121
790.18	0.116
790.62	0.120
791.06	0.119
791.49	0.116
791.93	0.119
792.37	0.119
792.80	0.115
793.24	0.118
793.68	0.118
794.11	0.119
794.55	0.118
794.99	0.118
795.42	0.118
795.86	0.120
796.30	0.117
796.73	0.116
797.17	0.116
797.61	0.118
798.04	0.117
798.48	0.116
798.91	0.117
799.35	0.112
799.79	0.117
800.22	0.117
800.66	0.115
801.10	0.118
801.53	0.115
801.97	0.119
802.40	0.119
802.84	0.112
803.28	0.115
803.71	0.115
804.15	0.113
804.58	0.116
805.02	0.115
805.46	0.118
805.89	0.113
806.33	0.117
806.76	0.114
807.20	0.117
807.63	0.116
808.07	0.120
808.51	0.119
808.94	0.113
809.38	0.114
809.81	0.115
810.25	0.116
810.68	0.115
811.12	0.116
811.55	0.115
811.99	0.115
812.42	0.115
812.86	0.111
813.29	0.114
813.73	0.115
814.17	0.112
814.60	0.114
815.04	0.113
815.47	0.114
815.91	0.115
