SpectraSuite Data File
++++++++++++++++++++++++++++++++++++
Date: Sun Apr 24 16:20:54 CEST 2016
User: spectrasuite
Dark Spectrum Present: Yes
Reference Spectrum Present: Yes
Number of Sampled Component Spectra: 1
Spectrometers: HR+C0708
Integration Time (usec): 1000 (HR+C0708)
Spectra Averaged: 10 (HR+C0708)
Boxcar Smoothing: 0 (HR+C0708)
Correct for Electrical Dark: No (HR+C0708)
Strobe/Lamp Enabled: No (HR+C0708)
Correct for Detector Non-linearity: No (HR+C0708)
Correct for Stray Light: No (HR+C0708)
Number of Pixels in Processed Spectrum: 2048
>>>>>Begin Processed Spectral Data<<<<<
188.76	-0.000
189.23	-0.000
189.70	-0.000
190.17	-0.000
190.64	-0.000
191.12	-0.000
191.59	-0.000
192.06	-0.000
192.53	-0.000
193.01	-0.000
193.48	-0.000
193.95	-0.000
194.42	-0.000
194.90	0.828
195.37	-0.000
195.84	-0.000
196.31	-0.000
196.78	-0.000
197.26	-0.000
197.73	-0.000
198.20	-0.000
198.67	-0.000
199.14	-0.000
199.62	-0.000
200.09	-0.000
200.56	-0.000
201.03	-0.000
201.50	-0.000
201.97	1.170
202.45	-0.000
202.92	-0.000
203.39	0.931
203.86	-0.000
204.33	-0.000
204.80	1.981
205.28	-0.000
205.75	-0.000
206.22	-0.000
206.69	0.955
207.16	-0.000
207.63	1.118
208.11	1.041
208.58	0.700
209.05	1.390
209.52	-0.000
209.99	1.224
210.46	-0.000
210.93	-0.000
211.41	1.720
211.88	-0.000
212.35	-0.000
212.82	-0.000
213.29	1.214
213.76	1.267
214.23	-0.000
214.70	-0.000
215.18	-0.000
215.65	1.382
216.12	1.427
216.59	-0.000
217.06	-0.000
217.53	1.023
218.00	-0.000
218.47	-0.000
218.94	1.786
219.41	-0.000
219.89	-0.000
220.36	-0.000
220.83	-0.000
221.30	-0.000
221.77	-0.000
222.24	1.549
222.71	1.383
223.18	-0.000
223.65	2.027
224.12	-0.000
224.59	-0.000
225.06	-0.000
225.54	1.482
226.01	2.824
226.48	-0.000
226.95	-0.000
227.42	-0.000
227.89	-0.000
228.36	1.624
228.83	-0.000
229.30	1.994
229.77	2.267
230.24	2.794
230.71	2.111
231.18	3.663
231.65	-0.000
232.12	1.882
232.59	-0.000
233.06	-0.000
233.53	1.954
234.00	2.055
234.47	-0.000
234.94	-0.000
235.41	-0.000
235.88	3.267
236.35	3.037
236.82	2.541
237.29	2.556
237.76	-0.000
238.23	2.509
238.70	2.683
239.17	2.297
239.64	2.775
240.11	-0.000
240.58	2.635
241.05	-0.000
241.52	2.955
241.99	-0.000
242.46	2.553
242.93	-0.000
243.40	2.628
243.87	3.009
244.34	2.567
244.81	2.620
245.28	-0.000
245.75	-0.000
246.22	2.630
246.69	-0.000
247.16	-0.000
247.63	3.119
248.10	3.579
248.57	3.444
249.04	-0.000
249.51	-0.000
249.98	-0.000
250.45	-0.000
250.92	3.261
251.39	2.917
251.85	-0.000
252.32	-0.000
252.79	3.328
253.26	-0.000
253.73	-0.000
254.20	2.749
254.67	-0.000
255.14	3.309
255.61	3.122
256.08	3.202
256.55	3.012
257.02	3.001
257.49	4.282
257.95	2.701
258.42	2.907
258.89	3.340
259.36	2.968
259.83	3.311
260.30	3.576
260.77	3.564
261.24	2.734
261.71	3.093
262.17	3.757
262.64	2.791
263.11	2.793
263.58	3.316
264.05	2.808
264.52	2.802
264.99	3.010
265.46	2.705
265.92	3.058
266.39	2.706
266.86	3.034
267.33	2.660
267.80	2.569
268.27	2.791
268.74	2.671
269.20	2.942
269.67	2.525
270.14	2.652
270.61	2.611
271.08	2.606
271.55	2.463
272.01	2.433
272.48	2.436
272.95	2.521
273.42	2.508
273.89	2.454
274.36	2.432
274.82	2.364
275.29	2.402
275.76	2.397
276.23	2.359
276.70	2.478
277.16	2.249
277.63	2.261
278.10	2.347
278.57	2.240
279.04	2.302
279.50	2.218
279.97	2.226
280.44	2.177
280.91	2.214
281.38	2.202
281.84	2.235
282.31	2.195
282.78	2.278
283.25	2.149
283.72	2.146
284.18	2.158
284.65	2.206
285.12	2.114
285.59	2.099
286.05	2.166
286.52	2.092
286.99	2.096
287.46	2.026
287.92	2.117
288.39	2.065
288.86	2.048
289.33	2.035
289.79	2.026
290.26	1.999
290.73	2.017
291.20	2.006
291.66	1.988
292.13	2.002
292.60	1.968
293.07	1.975
293.53	1.927
294.00	1.940
294.47	1.974
294.93	1.962
295.40	1.927
295.87	1.908
296.34	1.935
296.80	1.873
297.27	1.888
297.74	1.874
298.20	1.880
298.67	1.835
299.14	1.881
299.60	1.861
300.07	1.835
300.54	1.816
301.01	1.834
301.47	1.839
301.94	1.798
302.41	1.828
302.87	1.809
303.34	1.805
303.81	1.785
304.27	1.772
304.74	1.768
305.21	1.755
305.67	1.771
306.14	1.734
306.61	1.772
307.07	1.729
307.54	1.746
308.01	1.723
308.47	1.719
308.94	1.746
309.40	1.712
309.87	1.710
310.34	1.689
310.80	1.680
311.27	1.684
311.74	1.695
312.20	1.684
312.67	1.672
313.13	1.644
313.60	1.655
314.07	1.663
314.53	1.635
315.00	1.615
315.47	1.639
315.93	1.624
316.40	1.618
316.86	1.626
317.33	1.606
317.80	1.597
318.26	1.612
318.73	1.597
319.19	1.589
319.66	1.577
320.13	1.588
320.59	1.594
321.06	1.575
321.52	1.568
321.99	1.556
322.45	1.562
322.92	1.530
323.39	1.560
323.85	1.551
324.32	1.550
324.78	1.528
325.25	1.545
325.71	1.511
326.18	1.485
326.64	1.519
327.11	1.484
327.58	1.481
328.04	1.468
328.51	1.473
328.97	1.462
329.44	1.454
329.90	1.449
330.37	1.433
330.83	1.437
331.30	1.445
331.76	1.420
332.23	1.417
332.69	1.407
333.16	1.373
333.62	1.372
334.09	1.369
334.56	1.362
335.02	1.351
335.49	1.336
335.95	1.330
336.42	1.311
336.88	1.309
337.35	1.299
337.81	1.291
338.28	1.277
338.74	1.268
339.20	1.243
339.67	1.242
340.13	1.228
340.60	1.204
341.06	1.196
341.53	1.173
341.99	1.175
342.46	1.164
342.92	1.135
343.39	1.127
343.85	1.117
344.32	1.092
344.78	1.090
345.25	1.081
345.71	1.073
346.17	1.053
346.64	1.037
347.10	1.018
347.57	1.004
348.03	0.982
348.50	0.965
348.96	0.944
349.43	0.932
349.89	0.914
350.35	0.914
350.82	0.903
351.28	0.888
351.75	0.866
352.21	0.861
352.67	0.841
353.14	0.835
353.60	0.823
354.07	0.815
354.53	0.796
355.00	0.782
355.46	0.771
355.92	0.759
356.39	0.755
356.85	0.748
357.31	0.733
357.78	0.736
358.24	0.719
358.71	0.714
359.17	0.706
359.63	0.698
360.10	0.695
360.56	0.692
361.03	0.684
361.49	0.677
361.95	0.670
362.42	0.667
362.88	0.664
363.34	0.657
363.81	0.658
364.27	0.651
364.73	0.646
365.20	0.643
365.66	0.637
366.12	0.634
366.59	0.632
367.05	0.629
367.51	0.625
367.98	0.628
368.44	0.620
368.90	0.618
369.37	0.620
369.83	0.614
370.29	0.613
370.76	0.609
371.22	0.603
371.68	0.606
372.15	0.604
372.61	0.596
373.07	0.600
373.54	0.598
374.00	0.596
374.46	0.591
374.92	0.587
375.39	0.586
375.85	0.587
376.31	0.587
376.78	0.584
377.24	0.582
377.70	0.579
378.16	0.576
378.63	0.575
379.09	0.578
379.55	0.572
380.01	0.571
380.48	0.572
380.94	0.566
381.40	0.564
381.87	0.562
382.33	0.563
382.79	0.557
383.25	0.562
383.72	0.560
384.18	0.556
384.64	0.553
385.10	0.551
385.56	0.549
386.03	0.545
386.49	0.543
386.95	0.542
387.41	0.546
387.88	0.540
388.34	0.538
388.80	0.538
389.26	0.540
389.72	0.536
390.19	0.532
390.65	0.534
391.11	0.532
391.57	0.530
392.04	0.530
392.50	0.528
392.96	0.525
393.42	0.524
393.88	0.525
394.34	0.521
394.81	0.524
395.27	0.513
395.73	0.516
396.19	0.514
396.65	0.514
397.12	0.510
397.58	0.510
398.04	0.508
398.50	0.507
398.96	0.509
399.42	0.506
399.89	0.505
400.35	0.500
400.81	0.500
401.27	0.500
401.73	0.496
402.19	0.494
402.65	0.494
403.12	0.493
403.58	0.493
404.04	0.493
404.50	0.491
404.96	0.487
405.42	0.487
405.88	0.486
406.34	0.486
406.81	0.482
407.27	0.481
407.73	0.480
408.19	0.477
408.65	0.475
409.11	0.478
409.57	0.476
410.03	0.474
410.49	0.474
410.96	0.472
411.42	0.472
411.88	0.467
412.34	0.467
412.80	0.469
413.26	0.462
413.72	0.465
414.18	0.465
414.64	0.461
415.10	0.464
415.56	0.465
416.02	0.461
416.48	0.456
416.95	0.453
417.41	0.454
417.87	0.454
418.33	0.451
418.79	0.452
419.25	0.450
419.71	0.447
420.17	0.447
420.63	0.446
421.09	0.442
421.55	0.443
422.01	0.447
422.47	0.445
422.93	0.444
423.39	0.442
423.85	0.439
424.31	0.440
424.77	0.436
425.23	0.435
425.69	0.438
426.15	0.434
426.61	0.431
427.07	0.427
427.53	0.430
427.99	0.428
428.45	0.428
428.91	0.428
429.37	0.429
429.83	0.425
430.29	0.424
430.75	0.426
431.21	0.426
431.67	0.424
432.13	0.422
432.59	0.416
433.05	0.419
433.51	0.417
433.97	0.419
434.43	0.419
434.89	0.417
435.35	0.413
435.81	0.412
436.27	0.409
436.73	0.408
437.19	0.411
437.65	0.413
438.11	0.410
438.57	0.408
439.03	0.413
439.48	0.404
439.94	0.403
440.40	0.403
440.86	0.405
441.32	0.395
441.78	0.403
442.24	0.402
442.70	0.397
443.16	0.397
443.62	0.393
444.08	0.395
444.54	0.396
444.99	0.394
445.45	0.393
445.91	0.391
446.37	0.391
446.83	0.388
447.29	0.389
447.75	0.390
448.21	0.388
448.67	0.388
449.12	0.383
449.58	0.389
450.04	0.382
450.50	0.382
450.96	0.385
451.42	0.383
451.88	0.378
452.34	0.381
452.79	0.374
453.25	0.381
453.71	0.375
454.17	0.377
454.63	0.378
455.09	0.375
455.55	0.376
456.00	0.372
456.46	0.368
456.92	0.372
457.38	0.368
457.84	0.362
458.30	0.367
458.75	0.369
459.21	0.363
459.67	0.368
460.13	0.364
460.59	0.364
461.04	0.362
461.50	0.362
461.96	0.360
462.42	0.360
462.88	0.358
463.33	0.359
463.79	0.357
464.25	0.357
464.71	0.357
465.17	0.356
465.62	0.356
466.08	0.358
466.54	0.355
467.00	0.355
467.46	0.355
467.91	0.353
468.37	0.354
468.83	0.353
469.29	0.350
469.74	0.350
470.20	0.351
470.66	0.348
471.12	0.347
471.57	0.350
472.03	0.345
472.49	0.344
472.95	0.345
473.40	0.343
473.86	0.342
474.32	0.340
474.78	0.343
475.23	0.341
475.69	0.341
476.15	0.339
476.60	0.342
477.06	0.338
477.52	0.338
477.98	0.337
478.43	0.335
478.89	0.336
479.35	0.334
479.80	0.335
480.26	0.334
480.72	0.333
481.18	0.333
481.63	0.330
482.09	0.334
482.55	0.331
483.00	0.329
483.46	0.330
483.92	0.326
484.37	0.329
484.83	0.327
485.29	0.323
485.74	0.326
486.20	0.325
486.66	0.324
487.11	0.325
487.57	0.322
488.03	0.321
488.48	0.323
488.94	0.320
489.40	0.320
489.85	0.322
490.31	0.322
490.77	0.318
491.22	0.318
491.68	0.318
492.13	0.318
492.59	0.317
493.05	0.314
493.50	0.314
493.96	0.313
494.42	0.310
494.87	0.311
495.33	0.311
495.78	0.314
496.24	0.313
496.70	0.311
497.15	0.308
497.61	0.310
498.06	0.309
498.52	0.306
498.98	0.307
499.43	0.309
499.89	0.305
500.34	0.305
500.80	0.305
501.25	0.306
501.71	0.301
502.17	0.303
502.62	0.306
503.08	0.301
503.53	0.301
503.99	0.302
504.44	0.300
504.90	0.299
505.36	0.299
505.81	0.300
506.27	0.300
506.72	0.299
507.18	0.297
507.63	0.296
508.09	0.297
508.54	0.293
509.00	0.296
509.45	0.296
509.91	0.294
510.36	0.295
510.82	0.292
511.27	0.293
511.73	0.292
512.19	0.291
512.64	0.290
513.10	0.292
513.55	0.291
514.01	0.288
514.46	0.285
514.92	0.287
515.37	0.289
515.83	0.286
516.28	0.284
516.73	0.287
517.19	0.284
517.64	0.280
518.10	0.284
518.55	0.282
519.01	0.282
519.46	0.280
519.92	0.281
520.37	0.278
520.83	0.278
521.28	0.281
521.74	0.278
522.19	0.280
522.65	0.278
523.10	0.279
523.55	0.278
524.01	0.281
524.46	0.276
524.92	0.275
525.37	0.276
525.83	0.274
526.28	0.274
526.73	0.275
527.19	0.276
527.64	0.276
528.10	0.272
528.55	0.272
529.01	0.273
529.46	0.269
529.91	0.270
530.37	0.270
530.82	0.271
531.28	0.268
531.73	0.267
532.18	0.267
532.64	0.270
533.09	0.267
533.54	0.268
534.00	0.265
534.45	0.266
534.91	0.267
535.36	0.266
535.81	0.264
536.27	0.263
536.72	0.266
537.17	0.261
537.63	0.262
538.08	0.262
538.54	0.264
538.99	0.261
539.44	0.263
539.90	0.261
540.35	0.258
540.80	0.258
541.26	0.258
541.71	0.260
542.16	0.260
542.62	0.259
543.07	0.260
543.52	0.260
543.98	0.258
544.43	0.256
544.88	0.256
545.34	0.257
545.79	0.254
546.24	0.253
546.69	0.257
547.15	0.254
547.60	0.251
548.05	0.252
548.51	0.252
548.96	0.252
549.41	0.255
549.86	0.249
550.32	0.253
550.77	0.254
551.22	0.248
551.68	0.248
552.13	0.250
552.58	0.248
553.03	0.248
553.49	0.246
553.94	0.246
554.39	0.248
554.84	0.247
555.30	0.247
555.75	0.246
556.20	0.247
556.65	0.244
557.11	0.246
557.56	0.244
558.01	0.245
558.46	0.244
558.92	0.243
559.37	0.244
559.82	0.244
560.27	0.244
560.72	0.243
561.18	0.240
561.63	0.241
562.08	0.240
562.53	0.241
562.99	0.241
563.44	0.239
563.89	0.239
564.34	0.238
564.79	0.236
565.25	0.237
565.70	0.236
566.15	0.237
566.60	0.235
567.05	0.237
567.50	0.235
567.96	0.235
568.41	0.234
568.86	0.234
569.31	0.234
569.76	0.231
570.21	0.233
570.67	0.232
571.12	0.234
571.57	0.232
572.02	0.230
572.47	0.230
572.92	0.231
573.37	0.230
573.83	0.228
574.28	0.230
574.73	0.230
575.18	0.230
575.63	0.228
576.08	0.225
576.53	0.226
576.98	0.227
577.44	0.226
577.89	0.226
578.34	0.226
578.79	0.225
579.24	0.225
579.69	0.224
580.14	0.222
580.59	0.224
581.04	0.222
581.49	0.223
581.95	0.221
582.40	0.221
582.85	0.222
583.30	0.220
583.75	0.220
584.20	0.220
584.65	0.220
585.10	0.218
585.55	0.219
586.00	0.220
586.45	0.220
586.90	0.219
587.35	0.220
587.80	0.219
588.25	0.216
588.71	0.217
589.16	0.217
589.61	0.216
590.06	0.215
590.51	0.217
590.96	0.217
591.41	0.215
591.86	0.216
592.31	0.213
592.76	0.215
593.21	0.212
593.66	0.216
594.11	0.214
594.56	0.212
595.01	0.213
595.46	0.213
595.91	0.211
596.36	0.213
596.81	0.212
597.26	0.211
597.71	0.212
598.16	0.209
598.61	0.210
599.06	0.212
599.51	0.214
599.96	0.213
600.41	0.211
600.86	0.211
601.31	0.209
601.76	0.210
602.21	0.207
602.65	0.209
603.10	0.208
603.55	0.208
604.00	0.207
604.45	0.205
604.90	0.207
605.35	0.206
605.80	0.207
606.25	0.208
606.70	0.204
607.15	0.205
607.60	0.204
608.05	0.203
608.50	0.205
608.95	0.201
609.39	0.205
609.84	0.204
610.29	0.203
610.74	0.202
611.19	0.201
611.64	0.201
612.09	0.199
612.54	0.203
612.99	0.202
613.44	0.200
613.88	0.201
614.33	0.199
614.78	0.199
615.23	0.199
615.68	0.199
616.13	0.201
616.58	0.198
617.03	0.197
617.47	0.201
617.92	0.197
618.37	0.196
618.82	0.198
619.27	0.198
619.72	0.197
620.17	0.196
620.61	0.195
621.06	0.195
621.51	0.195
621.96	0.195
622.41	0.196
622.86	0.195
623.30	0.193
623.75	0.196
624.20	0.194
624.65	0.194
625.10	0.194
625.54	0.194
625.99	0.193
626.44	0.192
626.89	0.193
627.34	0.195
627.78	0.190
628.23	0.190
628.68	0.190
629.13	0.191
629.58	0.191
630.02	0.191
630.47	0.190
630.92	0.190
631.37	0.188
631.81	0.190
632.26	0.189
632.71	0.187
633.16	0.187
633.61	0.187
634.05	0.185
634.50	0.187
634.95	0.187
635.40	0.188
635.84	0.186
636.29	0.185
636.74	0.186
637.18	0.187
637.63	0.185
638.08	0.185
638.53	0.186
638.97	0.185
639.42	0.186
639.87	0.186
640.32	0.183
640.76	0.182
641.21	0.183
641.66	0.184
642.10	0.183
642.55	0.183
643.00	0.184
643.44	0.184
643.89	0.182
644.34	0.183
644.79	0.181
645.23	0.183
645.68	0.182
646.13	0.181
646.57	0.183
647.02	0.180
647.47	0.185
647.91	0.181
648.36	0.181
648.81	0.181
649.25	0.179
649.70	0.180
650.15	0.179
650.59	0.178
651.04	0.178
651.48	0.180
651.93	0.180
652.38	0.178
652.82	0.179
653.27	0.178
653.72	0.179
654.16	0.177
654.61	0.178
655.06	0.177
655.50	0.175
655.95	0.173
656.39	0.169
656.84	0.173
657.29	0.179
657.73	0.176
658.18	0.175
658.62	0.174
659.07	0.176
659.52	0.175
659.96	0.175
660.41	0.178
660.85	0.173
661.30	0.173
661.74	0.175
662.19	0.173
662.64	0.174
663.08	0.173
663.53	0.171
663.97	0.173
664.42	0.172
664.86	0.173
665.31	0.172
665.75	0.171
666.20	0.173
666.65	0.172
667.09	0.172
667.54	0.174
667.98	0.172
668.43	0.170
668.87	0.169
669.32	0.170
669.76	0.170
670.21	0.171
670.65	0.166
671.10	0.170
671.54	0.170
671.99	0.168
672.43	0.168
672.88	0.169
673.32	0.170
673.77	0.166
674.21	0.167
674.66	0.167
675.10	0.167
675.55	0.165
675.99	0.169
676.44	0.165
676.88	0.168
677.33	0.165
677.77	0.166
678.22	0.165
678.66	0.165
679.11	0.167
679.55	0.165
679.99	0.163
680.44	0.166
680.88	0.165
681.33	0.162
681.77	0.164
682.22	0.164
682.66	0.165
683.11	0.162
683.55	0.162
683.99	0.164
684.44	0.162
684.88	0.162
685.33	0.163
685.77	0.163
686.21	0.161
686.66	0.164
687.10	0.162
687.55	0.161
687.99	0.164
688.44	0.163
688.88	0.161
689.32	0.162
689.77	0.160
690.21	0.160
690.65	0.161
691.10	0.161
691.54	0.159
691.99	0.161
692.43	0.158
692.87	0.158
693.32	0.160
693.76	0.160
694.20	0.159
694.65	0.158
695.09	0.159
695.53	0.157
695.98	0.157
696.42	0.158
696.86	0.156
697.31	0.156
697.75	0.157
698.19	0.157
698.64	0.155
699.08	0.158
699.52	0.156
699.97	0.158
700.41	0.158
700.85	0.158
701.30	0.153
701.74	0.155
702.18	0.156
702.63	0.154
703.07	0.155
703.51	0.158
703.96	0.156
704.40	0.155
704.84	0.156
705.28	0.155
705.73	0.156
706.17	0.156
706.61	0.155
707.06	0.153
707.50	0.153
707.94	0.152
708.38	0.153
708.83	0.155
709.27	0.153
709.71	0.154
710.15	0.155
710.60	0.153
711.04	0.152
711.48	0.155
711.92	0.155
712.37	0.152
712.81	0.152
713.25	0.154
713.69	0.154
714.13	0.153
714.58	0.153
715.02	0.151
715.46	0.151
715.90	0.152
716.35	0.150
716.79	0.153
717.23	0.153
717.67	0.153
718.11	0.154
718.56	0.153
719.00	0.154
719.44	0.152
719.88	0.152
720.32	0.149
720.76	0.152
721.21	0.150
721.65	0.150
722.09	0.152
722.53	0.150
722.97	0.151
723.41	0.150
723.86	0.150
724.30	0.154
724.74	0.153
725.18	0.152
725.62	0.153
726.06	0.152
726.50	0.150
726.95	0.150
727.39	0.152
727.83	0.150
728.27	0.150
728.71	0.151
729.15	0.152
729.59	0.152
730.03	0.148
730.48	0.153
730.92	0.149
731.36	0.153
731.80	0.149
732.24	0.153
732.68	0.150
733.12	0.146
733.56	0.149
734.00	0.151
734.44	0.149
734.89	0.149
735.33	0.153
735.77	0.154
736.21	0.152
736.65	0.149
737.09	0.150
737.53	0.151
737.97	0.149
738.41	0.149
738.85	0.151
739.29	0.150
739.73	0.149
740.17	0.151
740.61	0.150
741.05	0.150
741.49	0.151
741.93	0.150
742.37	0.147
742.81	0.152
743.26	0.148
743.70	0.150
744.14	0.150
744.58	0.149
745.02	0.150
745.46	0.151
745.90	0.150
746.34	0.151
746.78	0.148
747.22	0.149
747.66	0.148
748.10	0.147
748.54	0.148
748.98	0.147
749.42	0.148
749.86	0.149
750.29	0.147
750.73	0.143
751.17	0.145
751.61	0.146
752.05	0.149
752.49	0.146
752.93	0.145
753.37	0.147
753.81	0.147
754.25	0.144
754.69	0.144
755.13	0.144
755.57	0.145
756.01	0.148
756.45	0.148
756.89	0.147
757.33	0.146
757.77	0.145
758.21	0.144
758.64	0.143
759.08	0.139
759.52	0.144
759.96	0.148
760.40	0.143
760.84	0.142
761.28	0.143
761.72	0.145
762.16	0.143
762.60	0.142
763.03	0.141
763.47	0.142
763.91	0.143
764.35	0.143
764.79	0.141
765.23	0.140
765.67	0.140
766.11	0.137
766.54	0.140
766.98	0.142
767.42	0.141
767.86	0.140
768.30	0.143
768.74	0.144
769.17	0.144
769.61	0.143
770.05	0.139
770.49	0.143
770.93	0.144
771.37	0.139
771.80	0.141
772.24	0.141
772.68	0.140
773.12	0.140
773.56	0.140
774.00	0.138
774.43	0.138
774.87	0.137
775.31	0.139
775.75	0.140
776.19	0.140
776.62	0.138
777.06	0.138
777.50	0.138
777.94	0.137
778.37	0.135
778.81	0.134
779.25	0.140
779.69	0.139
780.13	0.139
780.56	0.136
781.00	0.138
781.44	0.139
781.88	0.137
782.31	0.136
782.75	0.135
783.19	0.138
783.63	0.135
784.06	0.136
784.50	0.139
784.94	0.136
785.37	0.140
785.81	0.138
786.25	0.139
786.69	0.135
787.12	0.135
787.56	0.134
788.00	0.138
788.43	0.139
788.87	0.136
789.31	0.135
789.75	0.136
790.18	0.131
790.62	0.135
791.06	0.133
791.49	0.134
791.93	0.132
792.37	0.138
792.80	0.132
793.24	0.136
793.68	0.138
794.11	0.136
794.55	0.135
794.99	0.133
795.42	0.134
795.86	0.136
796.30	0.134
796.73	0.135
797.17	0.135
797.61	0.129
798.04	0.131
798.48	0.136
798.91	0.132
799.35	0.131
799.79	0.135
800.22	0.133
800.66	0.130
801.10	0.134
801.53	0.134
801.97	0.139
802.40	0.135
802.84	0.132
803.28	0.131
803.71	0.132
804.15	0.131
804.58	0.133
805.02	0.132
805.46	0.131
805.89	0.131
806.33	0.133
806.76	0.128
807.20	0.133
807.63	0.131
808.07	0.135
808.51	0.130
808.94	0.130
809.38	0.130
809.81	0.132
810.25	0.131
810.68	0.135
811.12	0.126
811.55	0.131
811.99	0.132
812.42	0.130
812.86	0.130
813.29	0.128
813.73	0.133
814.17	0.132
814.60	0.130
815.04	0.131
