SpectraSuite Data File
++++++++++++++++++++++++++++++++++++
Date: Sun Apr 24 18:23:29 CEST 2016
User: spectrasuite
Dark Spectrum Present: Yes
Reference Spectrum Present: Yes
Number of Sampled Component Spectra: 1
Spectrometers: HR+C0708
Integration Time (usec): 1000 (HR+C0708)
Spectra Averaged: 10 (HR+C0708)
Boxcar Smoothing: 0 (HR+C0708)
Correct for Electrical Dark: No (HR+C0708)
Strobe/Lamp Enabled: No (HR+C0708)
Correct for Detector Non-linearity: No (HR+C0708)
Correct for Stray Light: No (HR+C0708)
Number of Pixels in Processed Spectrum: 2048
>>>>>Begin Processed Spectral Data<<<<<
188.76	-0.000
189.23	-0.000
189.70	-0.000
190.17	-0.000
190.64	-0.000
191.12	-0.000
191.59	-0.000
192.06	-0.000
192.53	-0.000
193.01	-0.000
193.48	-0.000
193.95	-0.000
194.42	-0.000
194.90	-0.000
195.37	-0.000
195.84	-0.000
196.31	-0.000
196.78	-0.000
197.26	-0.000
197.73	-0.000
198.20	-0.000
198.67	-0.000
199.14	-0.000
199.62	-0.000
200.09	-0.000
200.56	-0.000
201.03	-0.000
201.50	-0.000
201.97	0.897
202.45	-0.000
202.92	1.746
203.39	-0.000
203.86	1.935
204.33	1.668
204.80	-0.000
205.28	-0.000
205.75	-0.000
206.22	-0.000
206.69	1.194
207.16	-0.000
207.63	-0.000
208.11	1.085
208.58	-0.000
209.05	-0.000
209.52	1.566
209.99	-0.000
210.46	-0.000
210.93	-0.000
211.41	-0.000
211.88	-0.000
212.35	0.973
212.82	-0.000
213.29	-0.000
213.76	1.010
214.23	-0.000
214.70	-0.000
215.18	-0.000
215.65	1.840
216.12	1.446
216.59	-0.000
217.06	-0.000
217.53	1.341
218.00	-0.000
218.47	-0.000
218.94	-0.000
219.41	-0.000
219.89	-0.000
220.36	-0.000
220.83	-0.000
221.30	-0.000
221.77	-0.000
222.24	1.695
222.71	-0.000
223.18	-0.000
223.65	-0.000
224.12	-0.000
224.59	-0.000
225.06	-0.000
225.54	1.684
226.01	1.662
226.48	2.068
226.95	-0.000
227.42	-0.000
227.89	-0.000
228.36	1.833
228.83	-0.000
229.30	2.149
229.77	-0.000
230.24	1.993
230.71	-0.000
231.18	-0.000
231.65	2.074
232.12	2.376
232.59	2.563
233.06	2.033
233.53	-0.000
234.00	2.290
234.47	-0.000
234.94	-0.000
235.41	3.473
235.88	-0.000
236.35	-0.000
236.82	2.703
237.29	-0.000
237.76	-0.000
238.23	-0.000
238.70	-0.000
239.17	2.767
239.64	2.926
240.11	-0.000
240.58	4.441
241.05	3.431
241.52	-0.000
241.99	-0.000
242.46	-0.000
242.93	-0.000
243.40	2.858
243.87	3.901
244.34	2.731
244.81	2.796
245.28	-0.000
245.75	-0.000
246.22	-0.000
246.69	-0.000
247.16	3.085
247.63	-0.000
248.10	3.489
248.57	3.398
249.04	-0.000
249.51	-0.000
249.98	3.598
250.45	-0.000
250.92	3.754
251.39	-0.000
251.85	-0.000
252.32	-0.000
252.79	-0.000
253.26	-0.000
253.73	-0.000
254.20	4.138
254.67	2.881
255.14	2.765
255.61	-0.000
256.08	2.966
256.55	3.125
257.02	2.777
257.49	2.777
257.95	2.640
258.42	2.733
258.89	2.604
259.36	2.562
259.83	2.584
260.30	2.528
260.77	2.675
261.24	2.342
261.71	2.355
262.17	2.380
262.64	2.227
263.11	2.302
263.58	2.318
264.05	2.268
264.52	2.238
264.99	2.179
265.46	2.156
265.92	2.221
266.39	2.181
266.86	2.139
267.33	2.136
267.80	2.026
268.27	2.107
268.74	2.121
269.20	2.079
269.67	2.045
270.14	1.979
270.61	1.987
271.08	2.025
271.55	1.942
272.01	1.946
272.48	1.964
272.95	1.939
273.42	1.917
273.89	1.933
274.36	1.859
274.82	1.874
275.29	1.844
275.76	1.822
276.23	1.847
276.70	1.808
277.16	1.764
277.63	1.791
278.10	1.778
278.57	1.768
279.04	1.763
279.50	1.763
279.97	1.738
280.44	1.697
280.91	1.689
281.38	1.705
281.84	1.693
282.31	1.665
282.78	1.695
283.25	1.665
283.72	1.654
284.18	1.669
284.65	1.649
285.12	1.616
285.59	1.614
286.05	1.621
286.52	1.620
286.99	1.583
287.46	1.573
287.92	1.571
288.39	1.557
288.86	1.547
289.33	1.543
289.79	1.540
290.26	1.537
290.73	1.527
291.20	1.511
291.66	1.506
292.13	1.507
292.60	1.461
293.07	1.486
293.53	1.462
294.00	1.447
294.47	1.460
294.93	1.442
295.40	1.443
295.87	1.442
296.34	1.426
296.80	1.400
297.27	1.404
297.74	1.381
298.20	1.410
298.67	1.380
299.14	1.370
299.60	1.377
300.07	1.355
300.54	1.342
301.01	1.350
301.47	1.321
301.94	1.323
302.41	1.324
302.87	1.304
303.34	1.310
303.81	1.288
304.27	1.285
304.74	1.285
305.21	1.266
305.67	1.263
306.14	1.257
306.61	1.253
307.07	1.240
307.54	1.236
308.01	1.232
308.47	1.227
308.94	1.220
309.40	1.204
309.87	1.202
310.34	1.194
310.80	1.186
311.27	1.189
311.74	1.171
312.20	1.175
312.67	1.166
313.13	1.152
313.60	1.160
314.07	1.150
314.53	1.137
315.00	1.138
315.47	1.140
315.93	1.125
316.40	1.126
316.86	1.122
317.33	1.113
317.80	1.107
318.26	1.102
318.73	1.102
319.19	1.100
319.66	1.080
320.13	1.090
320.59	1.081
321.06	1.080
321.52	1.081
321.99	1.074
322.45	1.063
322.92	1.065
323.39	1.049
323.85	1.052
324.32	1.046
324.78	1.046
325.25	1.040
325.71	1.033
326.18	1.020
326.64	1.029
327.11	1.022
327.58	1.014
328.04	1.006
328.51	1.007
328.97	1.008
329.44	1.007
329.90	0.995
330.37	0.998
330.83	0.989
331.30	0.983
331.76	0.987
332.23	0.982
332.69	0.970
333.16	0.968
333.62	0.965
334.09	0.963
334.56	0.959
335.02	0.955
335.49	0.946
335.95	0.943
336.42	0.935
336.88	0.939
337.35	0.927
337.81	0.924
338.28	0.924
338.74	0.922
339.20	0.914
339.67	0.917
340.13	0.914
340.60	0.901
341.06	0.898
341.53	0.892
341.99	0.898
342.46	0.886
342.92	0.877
343.39	0.877
343.85	0.877
344.32	0.870
344.78	0.867
345.25	0.864
345.71	0.865
346.17	0.861
346.64	0.853
347.10	0.853
347.57	0.839
348.03	0.835
348.50	0.829
348.96	0.823
349.43	0.814
349.89	0.811
350.35	0.809
350.82	0.803
351.28	0.804
351.75	0.787
352.21	0.795
352.67	0.778
353.14	0.770
353.60	0.773
354.07	0.757
354.53	0.753
355.00	0.751
355.46	0.744
355.92	0.737
356.39	0.730
356.85	0.729
357.31	0.723
357.78	0.715
358.24	0.703
358.71	0.700
359.17	0.692
359.63	0.687
360.10	0.682
360.56	0.683
361.03	0.675
361.49	0.673
361.95	0.669
362.42	0.661
362.88	0.661
363.34	0.655
363.81	0.654
364.27	0.646
364.73	0.641
365.20	0.641
365.66	0.637
366.12	0.636
366.59	0.634
367.05	0.630
367.51	0.627
367.98	0.621
368.44	0.619
368.90	0.617
369.37	0.613
369.83	0.614
370.29	0.611
370.76	0.604
371.22	0.603
371.68	0.608
372.15	0.597
372.61	0.595
373.07	0.592
373.54	0.595
374.00	0.591
374.46	0.591
374.92	0.585
375.39	0.588
375.85	0.588
376.31	0.585
376.78	0.577
377.24	0.582
377.70	0.579
378.16	0.575
378.63	0.570
379.09	0.572
379.55	0.568
380.01	0.568
380.48	0.569
380.94	0.563
381.40	0.564
381.87	0.561
382.33	0.560
382.79	0.560
383.25	0.555
383.72	0.554
384.18	0.554
384.64	0.548
385.10	0.547
385.56	0.549
386.03	0.547
386.49	0.543
386.95	0.542
387.41	0.540
387.88	0.541
388.34	0.538
388.80	0.537
389.26	0.534
389.72	0.536
390.19	0.531
390.65	0.533
391.11	0.531
391.57	0.525
392.04	0.525
392.50	0.520
392.96	0.520
393.42	0.522
393.88	0.521
394.34	0.519
394.81	0.517
395.27	0.515
395.73	0.517
396.19	0.513
396.65	0.509
397.12	0.510
397.58	0.508
398.04	0.505
398.50	0.508
398.96	0.503
399.42	0.506
399.89	0.505
400.35	0.498
400.81	0.500
401.27	0.499
401.73	0.497
402.19	0.494
402.65	0.494
403.12	0.489
403.58	0.489
404.04	0.490
404.50	0.488
404.96	0.486
405.42	0.484
405.88	0.486
406.34	0.486
406.81	0.478
407.27	0.480
407.73	0.479
408.19	0.476
408.65	0.475
409.11	0.473
409.57	0.477
410.03	0.474
410.49	0.471
410.96	0.470
411.42	0.469
411.88	0.462
412.34	0.461
412.80	0.460
413.26	0.461
413.72	0.460
414.18	0.460
414.64	0.458
415.10	0.461
415.56	0.455
416.02	0.458
416.48	0.455
416.95	0.451
417.41	0.454
417.87	0.451
418.33	0.450
418.79	0.448
419.25	0.450
419.71	0.446
420.17	0.445
420.63	0.442
421.09	0.441
421.55	0.440
422.01	0.443
422.47	0.441
422.93	0.440
423.39	0.439
423.85	0.437
424.31	0.435
424.77	0.433
425.23	0.439
425.69	0.436
426.15	0.432
426.61	0.431
427.07	0.427
427.53	0.428
427.99	0.424
428.45	0.425
428.91	0.425
429.37	0.421
429.83	0.420
430.29	0.421
430.75	0.422
431.21	0.424
431.67	0.423
432.13	0.422
432.59	0.415
433.05	0.415
433.51	0.410
433.97	0.417
434.43	0.416
434.89	0.414
435.35	0.414
435.81	0.412
436.27	0.407
436.73	0.407
437.19	0.405
437.65	0.410
438.11	0.407
438.57	0.403
439.03	0.409
439.48	0.402
439.94	0.404
440.40	0.402
440.86	0.402
441.32	0.398
441.78	0.400
442.24	0.395
442.70	0.396
443.16	0.397
443.62	0.389
444.08	0.394
444.54	0.394
444.99	0.390
445.45	0.393
445.91	0.390
446.37	0.393
446.83	0.388
447.29	0.386
447.75	0.389
448.21	0.385
448.67	0.384
449.12	0.383
449.58	0.383
450.04	0.383
450.50	0.384
450.96	0.383
451.42	0.380
451.88	0.376
452.34	0.379
452.79	0.378
453.25	0.376
453.71	0.375
454.17	0.374
454.63	0.377
455.09	0.370
455.55	0.374
456.00	0.369
456.46	0.372
456.92	0.368
457.38	0.373
457.84	0.365
458.30	0.363
458.75	0.367
459.21	0.361
459.67	0.367
460.13	0.361
460.59	0.364
461.04	0.361
461.50	0.361
461.96	0.360
462.42	0.360
462.88	0.358
463.33	0.361
463.79	0.357
464.25	0.356
464.71	0.356
465.17	0.352
465.62	0.356
466.08	0.355
466.54	0.353
467.00	0.354
467.46	0.353
467.91	0.353
468.37	0.353
468.83	0.350
469.29	0.350
469.74	0.349
470.20	0.349
470.66	0.350
471.12	0.343
471.57	0.346
472.03	0.346
472.49	0.346
472.95	0.345
473.40	0.344
473.86	0.341
474.32	0.340
474.78	0.342
475.23	0.339
475.69	0.341
476.15	0.338
476.60	0.340
477.06	0.339
477.52	0.337
477.98	0.335
478.43	0.336
478.89	0.336
479.35	0.335
479.80	0.335
480.26	0.331
480.72	0.333
481.18	0.333
481.63	0.330
482.09	0.333
482.55	0.331
483.00	0.328
483.46	0.329
483.92	0.327
484.37	0.327
484.83	0.324
485.29	0.324
485.74	0.323
486.20	0.325
486.66	0.325
487.11	0.323
487.57	0.322
488.03	0.322
488.48	0.320
488.94	0.320
489.40	0.320
489.85	0.322
490.31	0.322
490.77	0.320
491.22	0.318
491.68	0.317
492.13	0.316
492.59	0.317
493.05	0.313
493.50	0.316
493.96	0.314
494.42	0.312
494.87	0.312
495.33	0.312
495.78	0.314
496.24	0.314
496.70	0.310
497.15	0.311
497.61	0.312
498.06	0.309
498.52	0.306
498.98	0.308
499.43	0.308
499.89	0.308
500.34	0.306
500.80	0.302
501.25	0.306
501.71	0.302
502.17	0.304
502.62	0.305
503.08	0.302
503.53	0.300
503.99	0.299
504.44	0.301
504.90	0.301
505.36	0.300
505.81	0.300
506.27	0.300
506.72	0.299
507.18	0.299
507.63	0.297
508.09	0.297
508.54	0.297
509.00	0.297
509.45	0.295
509.91	0.295
510.36	0.295
510.82	0.295
511.27	0.293
511.73	0.292
512.19	0.292
512.64	0.292
513.10	0.291
513.55	0.293
514.01	0.290
514.46	0.290
514.92	0.289
515.37	0.288
515.83	0.291
516.28	0.289
516.73	0.287
517.19	0.287
517.64	0.284
518.10	0.285
518.55	0.286
519.01	0.283
519.46	0.284
519.92	0.286
520.37	0.281
520.83	0.282
521.28	0.282
521.74	0.284
522.19	0.284
522.65	0.282
523.10	0.282
523.55	0.280
524.01	0.281
524.46	0.279
524.92	0.277
525.37	0.279
525.83	0.277
526.28	0.279
526.73	0.277
527.19	0.277
527.64	0.278
528.10	0.277
528.55	0.279
529.01	0.277
529.46	0.275
529.91	0.275
530.37	0.274
530.82	0.273
531.28	0.274
531.73	0.272
532.18	0.272
532.64	0.274
533.09	0.272
533.54	0.272
534.00	0.272
534.45	0.271
534.91	0.272
535.36	0.272
535.81	0.271
536.27	0.270
536.72	0.271
537.17	0.270
537.63	0.268
538.08	0.264
538.54	0.268
538.99	0.266
539.44	0.269
539.90	0.266
540.35	0.267
540.80	0.267
541.26	0.267
541.71	0.267
542.16	0.264
542.62	0.266
543.07	0.263
543.52	0.264
543.98	0.267
544.43	0.263
544.88	0.263
545.34	0.265
545.79	0.263
546.24	0.263
546.69	0.263
547.15	0.261
547.60	0.261
548.05	0.262
548.51	0.260
548.96	0.262
549.41	0.265
549.86	0.260
550.32	0.262
550.77	0.261
551.22	0.261
551.68	0.259
552.13	0.259
552.58	0.258
553.03	0.259
553.49	0.260
553.94	0.259
554.39	0.259
554.84	0.258
555.30	0.258
555.75	0.258
556.20	0.258
556.65	0.258
557.11	0.257
557.56	0.254
558.01	0.261
558.46	0.257
558.92	0.256
559.37	0.257
559.82	0.257
560.27	0.256
560.72	0.255
561.18	0.258
561.63	0.254
562.08	0.252
562.53	0.255
562.99	0.254
563.44	0.256
563.89	0.254
564.34	0.253
564.79	0.254
565.25	0.254
565.70	0.250
566.15	0.254
566.60	0.253
567.05	0.252
567.50	0.253
567.96	0.251
568.41	0.254
568.86	0.252
569.31	0.249
569.76	0.249
570.21	0.252
570.67	0.252
571.12	0.250
571.57	0.251
572.02	0.250
572.47	0.252
572.92	0.250
573.37	0.249
573.83	0.249
574.28	0.250
574.73	0.248
575.18	0.251
575.63	0.252
576.08	0.249
576.53	0.249
576.98	0.249
577.44	0.248
577.89	0.249
578.34	0.248
578.79	0.249
579.24	0.248
579.69	0.250
580.14	0.246
580.59	0.247
581.04	0.247
581.49	0.247
581.95	0.248
582.40	0.247
582.85	0.248
583.30	0.247
583.75	0.247
584.20	0.247
584.65	0.248
585.10	0.248
585.55	0.247
586.00	0.248
586.45	0.248
586.90	0.251
587.35	0.251
587.80	0.248
588.25	0.248
588.71	0.250
589.16	0.248
589.61	0.248
590.06	0.249
590.51	0.250
590.96	0.249
591.41	0.249
591.86	0.251
592.31	0.250
592.76	0.249
593.21	0.250
593.66	0.252
594.11	0.251
594.56	0.248
595.01	0.251
595.46	0.250
595.91	0.250
596.36	0.249
596.81	0.250
597.26	0.251
597.71	0.253
598.16	0.251
598.61	0.250
599.06	0.251
599.51	0.253
599.96	0.254
600.41	0.252
600.86	0.254
601.31	0.251
601.76	0.253
602.21	0.255
602.65	0.253
603.10	0.252
603.55	0.251
604.00	0.253
604.45	0.253
604.90	0.254
605.35	0.253
605.80	0.255
606.25	0.255
606.70	0.256
607.15	0.254
607.60	0.252
608.05	0.252
608.50	0.254
608.95	0.253
609.39	0.255
609.84	0.255
610.29	0.253
610.74	0.254
611.19	0.254
611.64	0.252
612.09	0.254
612.54	0.253
612.99	0.255
613.44	0.253
613.88	0.253
614.33	0.253
614.78	0.252
615.23	0.251
615.68	0.252
616.13	0.254
616.58	0.252
617.03	0.251
617.47	0.253
617.92	0.253
618.37	0.252
618.82	0.254
619.27	0.251
619.72	0.252
620.17	0.251
620.61	0.252
621.06	0.252
621.51	0.254
621.96	0.250
622.41	0.253
622.86	0.252
623.30	0.251
623.75	0.252
624.20	0.252
624.65	0.253
625.10	0.252
625.54	0.250
625.99	0.253
626.44	0.252
626.89	0.252
627.34	0.254
627.78	0.251
628.23	0.253
628.68	0.252
629.13	0.250
629.58	0.251
630.02	0.252
630.47	0.251
630.92	0.253
631.37	0.252
631.81	0.253
632.26	0.253
632.71	0.253
633.16	0.253
633.61	0.255
634.05	0.252
634.50	0.255
634.95	0.255
635.40	0.255
635.84	0.257
636.29	0.254
636.74	0.257
637.18	0.257
637.63	0.256
638.08	0.255
638.53	0.256
638.97	0.255
639.42	0.258
639.87	0.257
640.32	0.256
640.76	0.258
641.21	0.257
641.66	0.259
642.10	0.259
642.55	0.259
643.00	0.258
643.44	0.260
643.89	0.260
644.34	0.260
644.79	0.260
645.23	0.260
645.68	0.261
646.13	0.262
646.57	0.263
647.02	0.261
647.47	0.263
647.91	0.262
648.36	0.262
648.81	0.263
649.25	0.263
649.70	0.261
650.15	0.262
650.59	0.263
651.04	0.263
651.48	0.266
651.93	0.266
652.38	0.262
652.82	0.263
653.27	0.264
653.72	0.265
654.16	0.263
654.61	0.266
655.06	0.264
655.50	0.261
655.95	0.261
656.39	0.255
656.84	0.260
657.29	0.265
657.73	0.264
658.18	0.264
658.62	0.262
659.07	0.262
659.52	0.265
659.96	0.263
660.41	0.263
660.85	0.260
661.30	0.261
661.74	0.262
662.19	0.259
662.64	0.259
663.08	0.257
663.53	0.259
663.97	0.256
664.42	0.259
664.86	0.258
665.31	0.256
665.75	0.255
666.20	0.255
666.65	0.254
667.09	0.252
667.54	0.255
667.98	0.251
668.43	0.249
668.87	0.249
669.32	0.249
669.76	0.247
670.21	0.248
670.65	0.244
671.10	0.243
671.54	0.242
671.99	0.240
672.43	0.238
672.88	0.238
673.32	0.236
673.77	0.235
674.21	0.234
674.66	0.232
675.10	0.229
675.55	0.227
675.99	0.229
676.44	0.224
676.88	0.225
677.33	0.222
677.77	0.221
678.22	0.218
678.66	0.214
679.11	0.214
679.55	0.214
679.99	0.209
680.44	0.211
680.88	0.207
681.33	0.207
681.77	0.203
682.22	0.205
682.66	0.203
683.11	0.200
683.55	0.199
683.99	0.198
684.44	0.195
684.88	0.193
685.33	0.192
685.77	0.191
686.21	0.189
686.66	0.189
687.10	0.186
687.55	0.185
687.99	0.185
688.44	0.184
688.88	0.179
689.32	0.181
689.77	0.178
690.21	0.179
690.65	0.180
691.10	0.178
691.54	0.175
691.99	0.173
692.43	0.172
692.87	0.170
693.32	0.171
693.76	0.172
694.20	0.171
694.65	0.170
695.09	0.169
695.53	0.167
695.98	0.166
696.42	0.166
696.86	0.163
697.31	0.165
697.75	0.162
698.19	0.162
698.64	0.162
699.08	0.163
699.52	0.161
699.97	0.161
700.41	0.160
700.85	0.163
701.30	0.160
701.74	0.158
702.18	0.160
702.63	0.160
703.07	0.159
703.51	0.160
703.96	0.157
704.40	0.157
704.84	0.157
705.28	0.158
705.73	0.156
706.17	0.156
706.61	0.155
707.06	0.154
707.50	0.154
707.94	0.152
708.38	0.155
708.83	0.155
709.27	0.153
709.71	0.154
710.15	0.154
710.60	0.153
711.04	0.153
711.48	0.153
711.92	0.153
712.37	0.153
712.81	0.155
713.25	0.153
713.69	0.151
714.13	0.152
714.58	0.151
715.02	0.150
715.46	0.150
715.90	0.151
716.35	0.149
716.79	0.151
717.23	0.151
717.67	0.150
718.11	0.153
718.56	0.149
719.00	0.151
719.44	0.150
719.88	0.149
720.32	0.149
720.76	0.150
721.21	0.148
721.65	0.150
722.09	0.150
722.53	0.150
722.97	0.152
723.41	0.146
723.86	0.149
724.30	0.149
724.74	0.150
725.18	0.149
725.62	0.147
726.06	0.150
726.50	0.147
726.95	0.147
727.39	0.147
727.83	0.149
728.27	0.150
728.71	0.147
729.15	0.148
729.59	0.149
730.03	0.146
730.48	0.151
730.92	0.146
731.36	0.146
731.80	0.146
732.24	0.149
732.68	0.148
733.12	0.146
733.56	0.146
734.00	0.148
734.44	0.147
734.89	0.148
735.33	0.149
735.77	0.150
736.21	0.149
736.65	0.147
737.09	0.149
737.53	0.150
737.97	0.149
738.41	0.147
738.85	0.149
739.29	0.150
739.73	0.147
740.17	0.149
740.61	0.148
741.05	0.148
741.49	0.148
741.93	0.147
742.37	0.145
742.81	0.145
743.26	0.144
743.70	0.149
744.14	0.146
744.58	0.145
745.02	0.148
745.46	0.146
745.90	0.145
746.34	0.147
746.78	0.145
747.22	0.146
747.66	0.146
748.10	0.145
748.54	0.145
748.98	0.144
749.42	0.144
749.86	0.146
750.29	0.145
750.73	0.143
751.17	0.143
751.61	0.143
752.05	0.144
752.49	0.145
752.93	0.141
753.37	0.144
753.81	0.142
754.25	0.141
754.69	0.140
755.13	0.143
755.57	0.144
756.01	0.143
756.45	0.142
756.89	0.143
757.33	0.143
757.77	0.141
758.21	0.143
758.64	0.141
759.08	0.139
759.52	0.142
759.96	0.143
760.40	0.142
760.84	0.140
761.28	0.142
761.72	0.142
762.16	0.141
762.60	0.139
763.03	0.139
763.47	0.138
763.91	0.141
764.35	0.137
764.79	0.136
765.23	0.136
765.67	0.139
766.11	0.136
766.54	0.136
766.98	0.139
767.42	0.137
767.86	0.138
768.30	0.138
768.74	0.140
769.17	0.140
769.61	0.139
770.05	0.138
770.49	0.140
770.93	0.139
771.37	0.135
771.80	0.139
772.24	0.136
772.68	0.137
773.12	0.137
773.56	0.135
774.00	0.135
774.43	0.135
774.87	0.136
775.31	0.136
775.75	0.134
776.19	0.135
776.62	0.134
777.06	0.136
777.50	0.135
777.94	0.134
778.37	0.133
778.81	0.134
779.25	0.136
779.69	0.133
780.13	0.139
780.56	0.136
781.00	0.133
781.44	0.133
781.88	0.135
782.31	0.135
782.75	0.133
783.19	0.138
783.63	0.134
784.06	0.133
784.50	0.132
784.94	0.133
785.37	0.134
785.81	0.136
786.25	0.131
786.69	0.132
787.12	0.133
787.56	0.131
788.00	0.133
788.43	0.135
788.87	0.133
789.31	0.128
789.75	0.133
790.18	0.129
790.62	0.131
791.06	0.132
791.49	0.130
791.93	0.133
792.37	0.133
792.80	0.131
793.24	0.131
793.68	0.131
794.11	0.128
794.55	0.134
794.99	0.131
795.42	0.132
795.86	0.135
796.30	0.131
796.73	0.130
797.17	0.127
797.61	0.130
798.04	0.133
798.48	0.128
798.91	0.128
799.35	0.129
799.79	0.134
800.22	0.129
800.66	0.128
801.10	0.130
801.53	0.130
801.97	0.137
802.40	0.131
802.84	0.128
803.28	0.127
803.71	0.129
804.15	0.132
804.58	0.131
805.02	0.129
805.46	0.132
805.89	0.126
806.33	0.127
806.76	0.130
807.20	0.130
807.63	0.129
808.07	0.130
808.51	0.129
808.94	0.127
809.38	0.128
809.81	0.128
810.25	0.131
810.68	0.132
811.12	0.130
811.55	0.129
811.99	0.127
812.42	0.128
812.86	0.125
813.29	0.126
813.73	0.127
814.17	0.124
814.60	0.124
