SpectraSuite Data File
++++++++++++++++++++++++++++++++++++
Date: Sun Apr 24 13:50:13 CEST 2016
User: spectrasuite
Dark Spectrum Present: Yes
Reference Spectrum Present: Yes
Number of Sampled Component Spectra: 1
Spectrometers: HR+C0708
Integration Time (usec): 1000 (HR+C0708)
Spectra Averaged: 10 (HR+C0708)
Boxcar Smoothing: 0 (HR+C0708)
Correct for Electrical Dark: No (HR+C0708)
Strobe/Lamp Enabled: No (HR+C0708)
Correct for Detector Non-linearity: No (HR+C0708)
Correct for Stray Light: No (HR+C0708)
Number of Pixels in Processed Spectrum: 2048
>>>>>Begin Processed Spectral Data<<<<<
188.76	-0.000
189.23	-0.000
189.70	-0.000
190.17	-0.000
190.64	-0.000
191.12	-0.000
191.59	-0.000
192.06	-0.000
192.53	-0.000
193.01	-0.000
193.48	-0.000
193.95	-0.000
194.42	-0.000
194.90	0.928
195.37	-0.000
195.84	-0.000
196.31	-0.000
196.78	-0.000
197.26	-0.000
197.73	-0.000
198.20	-0.000
198.67	-0.000
199.14	-0.000
199.62	-0.000
200.09	1.493
200.56	-0.000
201.03	2.064
201.50	0.734
201.97	1.142
202.45	1.055
202.92	0.791
203.39	0.720
203.86	1.041
204.33	1.066
204.80	1.047
205.28	0.995
205.75	-0.000
206.22	-0.000
206.69	0.900
207.16	-0.000
207.63	0.873
208.11	0.566
208.58	1.402
209.05	-0.000
209.52	1.297
209.99	0.790
210.46	0.784
210.93	1.490
211.41	0.812
211.88	0.663
212.35	0.990
212.82	-0.000
213.29	0.941
213.76	1.086
214.23	1.044
214.70	-0.000
215.18	-0.000
215.65	1.597
216.12	1.108
216.59	0.965
217.06	1.084
217.53	0.875
218.00	-0.000
218.47	0.804
218.94	1.079
219.41	1.099
219.89	0.925
220.36	1.328
220.83	1.412
221.30	2.014
221.77	1.014
222.24	1.086
222.71	-0.000
223.18	-0.000
223.65	1.976
224.12	1.446
224.59	-0.000
225.06	1.332
225.54	1.482
226.01	1.057
226.48	1.670
226.95	-0.000
227.42	1.733
227.89	-0.000
228.36	1.657
228.83	1.533
229.30	1.568
229.77	1.723
230.24	1.590
230.71	2.236
231.18	2.663
231.65	2.019
232.12	1.732
232.59	2.356
233.06	-0.000
233.53	2.116
234.00	1.715
234.47	2.363
234.94	-0.000
235.41	2.151
235.88	-0.000
236.35	-0.000
236.82	2.149
237.29	2.128
237.76	2.332
238.23	2.848
238.70	2.627
239.17	2.154
239.64	2.525
240.11	2.885
240.58	2.512
241.05	2.819
241.52	2.728
241.99	2.627
242.46	2.576
242.93	3.720
243.40	3.406
243.87	2.500
244.34	2.548
244.81	3.049
245.28	-0.000
245.75	2.869
246.22	2.854
246.69	2.723
247.16	2.887
247.63	2.630
248.10	2.625
248.57	4.398
249.04	-0.000
249.51	3.033
249.98	4.013
250.45	3.080
250.92	2.976
251.39	3.160
251.85	2.713
252.32	3.010
252.79	2.810
253.26	2.735
253.73	3.112
254.20	2.776
254.67	2.619
255.14	2.726
255.61	2.737
256.08	2.911
256.55	3.245
257.02	2.753
257.49	3.021
257.95	2.763
258.42	2.859
258.89	3.230
259.36	2.893
259.83	2.882
260.30	-0.000
260.77	-0.000
261.24	2.870
261.71	3.957
262.17	3.393
262.64	2.882
263.11	2.947
263.58	3.082
264.05	2.985
264.52	2.832
264.99	3.049
265.46	2.889
265.92	3.311
266.39	2.832
266.86	3.842
267.33	3.178
267.80	2.701
268.27	3.589
268.74	3.114
269.20	3.106
269.67	2.994
270.14	2.640
270.61	3.142
271.08	3.521
271.55	2.689
272.01	3.000
272.48	2.957
272.95	2.787
273.42	2.743
273.89	3.040
274.36	2.770
274.82	2.660
275.29	2.755
275.76	2.806
276.23	2.965
276.70	2.830
277.16	2.734
277.63	2.747
278.10	2.532
278.57	2.709
279.04	2.734
279.50	2.788
279.97	2.668
280.44	2.622
280.91	2.712
281.38	2.450
281.84	2.619
282.31	2.757
282.78	2.743
283.25	2.568
283.72	2.645
284.18	2.643
284.65	2.689
285.12	2.587
285.59	2.520
286.05	2.677
286.52	2.578
286.99	2.625
287.46	2.611
287.92	2.587
288.39	2.527
288.86	2.767
289.33	2.601
289.79	2.600
290.26	2.627
290.73	2.549
291.20	2.451
291.66	2.538
292.13	2.545
292.60	2.487
293.07	2.428
293.53	2.319
294.00	2.489
294.47	2.447
294.93	2.397
295.40	2.512
295.87	2.348
296.34	2.518
296.80	2.388
297.27	2.400
297.74	2.409
298.20	2.459
298.67	2.325
299.14	2.455
299.60	2.394
300.07	2.292
300.54	2.334
301.01	2.300
301.47	2.253
301.94	2.218
302.41	2.326
302.87	2.266
303.34	2.366
303.81	2.268
304.27	2.274
304.74	2.276
305.21	2.225
305.67	2.303
306.14	2.195
306.61	2.279
307.07	2.193
307.54	2.202
308.01	2.264
308.47	2.141
308.94	2.210
309.40	2.274
309.87	2.164
310.34	2.172
310.80	2.190
311.27	2.176
311.74	2.178
312.20	2.194
312.67	2.196
313.13	2.154
313.60	2.175
314.07	2.196
314.53	2.136
315.00	2.125
315.47	2.196
315.93	2.188
316.40	2.166
316.86	2.151
317.33	2.158
317.80	2.117
318.26	2.153
318.73	2.169
319.19	2.140
319.66	2.057
320.13	2.075
320.59	2.097
321.06	2.111
321.52	2.062
321.99	2.076
322.45	2.066
322.92	2.011
323.39	2.042
323.85	2.055
324.32	2.049
324.78	2.043
325.25	2.069
325.71	1.970
326.18	1.955
326.64	2.042
327.11	2.009
327.58	1.966
328.04	1.956
328.51	1.960
328.97	1.946
329.44	1.916
329.90	1.896
330.37	1.878
330.83	1.845
331.30	1.878
331.76	1.844
332.23	1.804
332.69	1.792
333.16	1.740
333.62	1.725
334.09	1.697
334.56	1.680
335.02	1.635
335.49	1.601
335.95	1.569
336.42	1.538
336.88	1.489
337.35	1.480
337.81	1.446
338.28	1.418
338.74	1.382
339.20	1.337
339.67	1.309
340.13	1.274
340.60	1.235
341.06	1.189
341.53	1.158
341.99	1.130
342.46	1.092
342.92	1.055
343.39	1.026
343.85	1.003
344.32	0.973
344.78	0.946
345.25	0.923
345.71	0.902
346.17	0.872
346.64	0.855
347.10	0.813
347.57	0.781
348.03	0.762
348.50	0.730
348.96	0.707
349.43	0.696
349.89	0.675
350.35	0.655
350.82	0.638
351.28	0.625
351.75	0.603
352.21	0.590
352.67	0.576
353.14	0.563
353.60	0.537
354.07	0.531
354.53	0.518
355.00	0.509
355.46	0.496
355.92	0.486
356.39	0.470
356.85	0.471
357.31	0.460
357.78	0.453
358.24	0.446
358.71	0.435
359.17	0.431
359.63	0.426
360.10	0.422
360.56	0.419
361.03	0.413
361.49	0.407
361.95	0.404
362.42	0.401
362.88	0.398
363.34	0.396
363.81	0.388
364.27	0.390
364.73	0.388
365.20	0.386
365.66	0.384
366.12	0.381
366.59	0.379
367.05	0.378
367.51	0.377
367.98	0.368
368.44	0.370
368.90	0.367
369.37	0.364
369.83	0.362
370.29	0.363
370.76	0.361
371.22	0.362
371.68	0.359
372.15	0.358
372.61	0.355
373.07	0.355
373.54	0.352
374.00	0.349
374.46	0.349
374.92	0.352
375.39	0.345
375.85	0.345
376.31	0.344
376.78	0.341
377.24	0.343
377.70	0.341
378.16	0.340
378.63	0.338
379.09	0.338
379.55	0.335
380.01	0.336
380.48	0.333
380.94	0.332
381.40	0.331
381.87	0.329
382.33	0.328
382.79	0.327
383.25	0.328
383.72	0.329
384.18	0.325
384.64	0.320
385.10	0.325
385.56	0.321
386.03	0.318
386.49	0.320
386.95	0.317
387.41	0.316
387.88	0.320
388.34	0.315
388.80	0.315
389.26	0.314
389.72	0.312
390.19	0.315
390.65	0.311
391.11	0.307
391.57	0.311
392.04	0.306
392.50	0.306
392.96	0.304
393.42	0.304
393.88	0.306
394.34	0.300
394.81	0.303
395.27	0.299
395.73	0.301
396.19	0.298
396.65	0.297
397.12	0.298
397.58	0.297
398.04	0.296
398.50	0.294
398.96	0.293
399.42	0.296
399.89	0.292
400.35	0.292
400.81	0.289
401.27	0.290
401.73	0.286
402.19	0.285
402.65	0.289
403.12	0.282
403.58	0.283
404.04	0.285
404.50	0.286
404.96	0.281
405.42	0.281
405.88	0.281
406.34	0.283
406.81	0.280
407.27	0.283
407.73	0.277
408.19	0.276
408.65	0.274
409.11	0.274
409.57	0.276
410.03	0.273
410.49	0.277
410.96	0.271
411.42	0.274
411.88	0.269
412.34	0.269
412.80	0.268
413.26	0.265
413.72	0.265
414.18	0.268
414.64	0.264
415.10	0.267
415.56	0.265
416.02	0.265
416.48	0.263
416.95	0.261
417.41	0.262
417.87	0.260
418.33	0.264
418.79	0.259
419.25	0.258
419.71	0.258
420.17	0.260
420.63	0.256
421.09	0.256
421.55	0.252
422.01	0.252
422.47	0.255
422.93	0.253
423.39	0.254
423.85	0.255
424.31	0.254
424.77	0.251
425.23	0.253
425.69	0.251
426.15	0.251
426.61	0.249
427.07	0.250
427.53	0.248
427.99	0.245
428.45	0.244
428.91	0.247
429.37	0.247
429.83	0.242
430.29	0.243
430.75	0.245
431.21	0.244
431.67	0.244
432.13	0.244
432.59	0.239
433.05	0.244
433.51	0.238
433.97	0.241
434.43	0.238
434.89	0.243
435.35	0.238
435.81	0.235
436.27	0.235
436.73	0.238
437.19	0.235
437.65	0.236
438.11	0.235
438.57	0.234
439.03	0.233
439.48	0.231
439.94	0.234
440.40	0.232
440.86	0.234
441.32	0.230
441.78	0.232
442.24	0.227
442.70	0.227
443.16	0.227
443.62	0.226
444.08	0.230
444.54	0.227
444.99	0.225
445.45	0.222
445.91	0.224
446.37	0.225
446.83	0.225
447.29	0.225
447.75	0.221
448.21	0.224
448.67	0.221
449.12	0.221
449.58	0.225
450.04	0.221
450.50	0.222
450.96	0.224
451.42	0.220
451.88	0.216
452.34	0.223
452.79	0.218
453.25	0.219
453.71	0.218
454.17	0.215
454.63	0.217
455.09	0.218
455.55	0.218
456.00	0.215
456.46	0.218
456.92	0.215
457.38	0.215
457.84	0.210
458.30	0.210
458.75	0.215
459.21	0.209
459.67	0.214
460.13	0.211
460.59	0.212
461.04	0.209
461.50	0.211
461.96	0.207
462.42	0.208
462.88	0.210
463.33	0.207
463.79	0.206
464.25	0.207
464.71	0.206
465.17	0.207
465.62	0.204
466.08	0.204
466.54	0.205
467.00	0.204
467.46	0.204
467.91	0.206
468.37	0.206
468.83	0.204
469.29	0.205
469.74	0.205
470.20	0.203
470.66	0.201
471.12	0.201
471.57	0.203
472.03	0.200
472.49	0.201
472.95	0.201
473.40	0.199
473.86	0.197
474.32	0.198
474.78	0.198
475.23	0.196
475.69	0.199
476.15	0.197
476.60	0.198
477.06	0.197
477.52	0.194
477.98	0.195
478.43	0.194
478.89	0.196
479.35	0.193
479.80	0.195
480.26	0.193
480.72	0.193
481.18	0.196
481.63	0.194
482.09	0.193
482.55	0.194
483.00	0.191
483.46	0.190
483.92	0.191
484.37	0.190
484.83	0.189
485.29	0.189
485.74	0.187
486.20	0.188
486.66	0.188
487.11	0.188
487.57	0.185
488.03	0.185
488.48	0.186
488.94	0.185
489.40	0.185
489.85	0.188
490.31	0.187
490.77	0.184
491.22	0.184
491.68	0.185
492.13	0.182
492.59	0.182
493.05	0.183
493.50	0.183
493.96	0.181
494.42	0.182
494.87	0.179
495.33	0.179
495.78	0.182
496.24	0.181
496.70	0.181
497.15	0.179
497.61	0.180
498.06	0.179
498.52	0.178
498.98	0.178
499.43	0.178
499.89	0.176
500.34	0.177
500.80	0.177
501.25	0.177
501.71	0.177
502.17	0.176
502.62	0.177
503.08	0.177
503.53	0.172
503.99	0.173
504.44	0.174
504.90	0.175
505.36	0.173
505.81	0.174
506.27	0.173
506.72	0.172
507.18	0.172
507.63	0.171
508.09	0.173
508.54	0.171
509.00	0.171
509.45	0.171
509.91	0.170
510.36	0.169
510.82	0.168
511.27	0.168
511.73	0.169
512.19	0.168
512.64	0.168
513.10	0.168
513.55	0.170
514.01	0.167
514.46	0.167
514.92	0.169
515.37	0.166
515.83	0.167
516.28	0.164
516.73	0.166
517.19	0.167
517.64	0.165
518.10	0.165
518.55	0.165
519.01	0.164
519.46	0.164
519.92	0.166
520.37	0.161
520.83	0.162
521.28	0.162
521.74	0.164
522.19	0.162
522.65	0.161
523.10	0.162
523.55	0.162
524.01	0.163
524.46	0.161
524.92	0.157
525.37	0.159
525.83	0.159
526.28	0.159
526.73	0.160
527.19	0.159
527.64	0.160
528.10	0.160
528.55	0.158
529.01	0.161
529.46	0.159
529.91	0.158
530.37	0.160
530.82	0.157
531.28	0.156
531.73	0.156
532.18	0.156
532.64	0.158
533.09	0.155
533.54	0.156
534.00	0.152
534.45	0.158
534.91	0.157
535.36	0.155
535.81	0.155
536.27	0.152
536.72	0.154
537.17	0.154
537.63	0.151
538.08	0.153
538.54	0.154
538.99	0.151
539.44	0.153
539.90	0.153
540.35	0.153
540.80	0.150
541.26	0.152
541.71	0.148
542.16	0.151
542.62	0.149
543.07	0.150
543.52	0.149
543.98	0.149
544.43	0.149
544.88	0.148
545.34	0.149
545.79	0.149
546.24	0.147
546.69	0.151
547.15	0.146
547.60	0.149
548.05	0.148
548.51	0.146
548.96	0.145
549.41	0.148
549.86	0.145
550.32	0.147
550.77	0.145
551.22	0.147
551.68	0.145
552.13	0.146
552.58	0.144
553.03	0.146
553.49	0.144
553.94	0.145
554.39	0.143
554.84	0.145
555.30	0.144
555.75	0.145
556.20	0.143
556.65	0.141
557.11	0.145
557.56	0.143
558.01	0.144
558.46	0.145
558.92	0.143
559.37	0.143
559.82	0.140
560.27	0.140
560.72	0.141
561.18	0.139
561.63	0.139
562.08	0.138
562.53	0.141
562.99	0.139
563.44	0.139
563.89	0.139
564.34	0.139
564.79	0.140
565.25	0.139
565.70	0.138
566.15	0.137
566.60	0.136
567.05	0.138
567.50	0.138
567.96	0.137
568.41	0.139
568.86	0.137
569.31	0.136
569.76	0.137
570.21	0.135
570.67	0.135
571.12	0.137
571.57	0.135
572.02	0.133
572.47	0.134
572.92	0.134
573.37	0.134
573.83	0.134
574.28	0.135
574.73	0.133
575.18	0.133
575.63	0.134
576.08	0.132
576.53	0.134
576.98	0.134
577.44	0.131
577.89	0.131
578.34	0.130
578.79	0.130
579.24	0.130
579.69	0.131
580.14	0.130
580.59	0.130
581.04	0.130
581.49	0.130
581.95	0.129
582.40	0.129
582.85	0.129
583.30	0.129
583.75	0.130
584.20	0.129
584.65	0.128
585.10	0.129
585.55	0.128
586.00	0.129
586.45	0.129
586.90	0.130
587.35	0.128
587.80	0.127
588.25	0.129
588.71	0.128
589.16	0.127
589.61	0.128
590.06	0.127
590.51	0.128
590.96	0.128
591.41	0.126
591.86	0.127
592.31	0.127
592.76	0.128
593.21	0.127
593.66	0.127
594.11	0.127
594.56	0.126
595.01	0.127
595.46	0.126
595.91	0.126
596.36	0.125
596.81	0.126
597.26	0.126
597.71	0.127
598.16	0.125
598.61	0.126
599.06	0.125
599.51	0.126
599.96	0.127
600.41	0.125
600.86	0.125
601.31	0.124
601.76	0.126
602.21	0.125
602.65	0.127
603.10	0.123
603.55	0.122
604.00	0.123
604.45	0.124
604.90	0.125
605.35	0.124
605.80	0.124
606.25	0.126
606.70	0.123
607.15	0.122
607.60	0.123
608.05	0.122
608.50	0.123
608.95	0.120
609.39	0.125
609.84	0.124
610.29	0.121
610.74	0.122
611.19	0.123
611.64	0.121
612.09	0.122
612.54	0.122
612.99	0.122
613.44	0.120
613.88	0.123
614.33	0.121
614.78	0.118
615.23	0.120
615.68	0.121
616.13	0.121
616.58	0.119
617.03	0.120
617.47	0.120
617.92	0.120
618.37	0.119
618.82	0.119
619.27	0.119
619.72	0.118
620.17	0.117
620.61	0.118
621.06	0.119
621.51	0.117
621.96	0.117
622.41	0.118
622.86	0.117
623.30	0.117
623.75	0.118
624.20	0.118
624.65	0.118
625.10	0.118
625.54	0.118
625.99	0.118
626.44	0.115
626.89	0.116
627.34	0.119
627.78	0.117
628.23	0.114
628.68	0.116
629.13	0.116
629.58	0.116
630.02	0.115
630.47	0.115
630.92	0.116
631.37	0.115
631.81	0.116
632.26	0.114
632.71	0.116
633.16	0.115
633.61	0.115
634.05	0.113
634.50	0.115
634.95	0.115
635.40	0.114
635.84	0.116
636.29	0.115
636.74	0.115
637.18	0.116
637.63	0.116
638.08	0.113
638.53	0.112
638.97	0.114
639.42	0.114
639.87	0.116
640.32	0.113
640.76	0.114
641.21	0.114
641.66	0.115
642.10	0.115
642.55	0.112
643.00	0.113
643.44	0.114
643.89	0.114
644.34	0.113
644.79	0.115
645.23	0.114
645.68	0.113
646.13	0.114
646.57	0.115
647.02	0.113
647.47	0.116
647.91	0.113
648.36	0.114
648.81	0.114
649.25	0.112
649.70	0.109
650.15	0.113
650.59	0.113
651.04	0.112
651.48	0.115
651.93	0.113
652.38	0.110
652.82	0.113
653.27	0.111
653.72	0.113
654.16	0.112
654.61	0.113
655.06	0.112
655.50	0.111
655.95	0.110
656.39	0.106
656.84	0.110
657.29	0.113
657.73	0.111
658.18	0.112
658.62	0.111
659.07	0.111
659.52	0.112
659.96	0.112
660.41	0.113
660.85	0.111
661.30	0.111
661.74	0.111
662.19	0.110
662.64	0.110
663.08	0.112
663.53	0.112
663.97	0.112
664.42	0.110
664.86	0.112
665.31	0.111
665.75	0.109
666.20	0.111
666.65	0.111
667.09	0.112
667.54	0.111
667.98	0.109
668.43	0.108
668.87	0.109
669.32	0.109
669.76	0.108
670.21	0.108
670.65	0.108
671.10	0.109
671.54	0.108
671.99	0.109
672.43	0.108
672.88	0.107
673.32	0.108
673.77	0.107
674.21	0.106
674.66	0.109
675.10	0.107
675.55	0.105
675.99	0.108
676.44	0.104
676.88	0.104
677.33	0.106
677.77	0.104
678.22	0.106
678.66	0.104
679.11	0.102
679.55	0.104
679.99	0.102
680.44	0.103
680.88	0.102
681.33	0.103
681.77	0.101
682.22	0.102
682.66	0.101
683.11	0.101
683.55	0.100
683.99	0.100
684.44	0.100
684.88	0.100
685.33	0.099
685.77	0.099
686.21	0.100
686.66	0.099
687.10	0.099
687.55	0.097
687.99	0.100
688.44	0.099
688.88	0.097
689.32	0.098
689.77	0.097
690.21	0.097
690.65	0.095
691.10	0.097
691.54	0.098
691.99	0.096
692.43	0.096
692.87	0.095
693.32	0.096
693.76	0.096
694.20	0.096
694.65	0.095
695.09	0.095
695.53	0.095
695.98	0.094
696.42	0.097
696.86	0.095
697.31	0.093
697.75	0.094
698.19	0.094
698.64	0.095
699.08	0.094
699.52	0.092
699.97	0.093
700.41	0.094
700.85	0.093
701.30	0.091
701.74	0.093
702.18	0.092
702.63	0.092
703.07	0.093
703.51	0.095
703.96	0.092
704.40	0.092
704.84	0.095
705.28	0.094
705.73	0.092
706.17	0.094
706.61	0.089
707.06	0.091
707.50	0.093
707.94	0.091
708.38	0.091
708.83	0.092
709.27	0.092
709.71	0.092
710.15	0.094
710.60	0.091
711.04	0.090
711.48	0.093
711.92	0.092
712.37	0.091
712.81	0.094
713.25	0.092
713.69	0.092
714.13	0.093
714.58	0.089
715.02	0.091
715.46	0.090
715.90	0.091
716.35	0.090
716.79	0.090
717.23	0.092
717.67	0.091
718.11	0.094
718.56	0.091
719.00	0.092
719.44	0.093
719.88	0.091
720.32	0.090
720.76	0.094
721.21	0.090
721.65	0.090
722.09	0.091
722.53	0.092
722.97	0.093
723.41	0.092
723.86	0.093
724.30	0.094
724.74	0.093
725.18	0.091
725.62	0.090
726.06	0.093
726.50	0.087
726.95	0.089
727.39	0.093
727.83	0.091
728.27	0.091
728.71	0.091
729.15	0.095
729.59	0.093
730.03	0.093
730.48	0.094
730.92	0.093
731.36	0.094
731.80	0.094
732.24	0.095
732.68	0.093
733.12	0.093
733.56	0.092
734.00	0.094
734.44	0.093
734.89	0.095
735.33	0.093
735.77	0.093
736.21	0.095
736.65	0.092
737.09	0.097
737.53	0.095
737.97	0.097
738.41	0.094
738.85	0.096
739.29	0.096
739.73	0.095
740.17	0.093
740.61	0.096
741.05	0.096
741.49	0.096
741.93	0.095
742.37	0.092
742.81	0.095
743.26	0.097
743.70	0.094
744.14	0.092
744.58	0.094
745.02	0.093
745.46	0.094
745.90	0.094
746.34	0.095
746.78	0.095
747.22	0.096
747.66	0.093
748.10	0.096
748.54	0.092
748.98	0.093
749.42	0.095
749.86	0.096
750.29	0.094
750.73	0.092
751.17	0.092
751.61	0.092
752.05	0.094
752.49	0.091
752.93	0.092
753.37	0.093
753.81	0.092
754.25	0.092
754.69	0.090
755.13	0.091
755.57	0.093
756.01	0.092
756.45	0.093
756.89	0.092
757.33	0.093
757.77	0.095
758.21	0.091
758.64	0.090
759.08	0.086
759.52	0.091
759.96	0.092
760.40	0.092
760.84	0.089
761.28	0.091
761.72	0.091
762.16	0.093
762.60	0.088
763.03	0.090
763.47	0.090
763.91	0.092
764.35	0.091
764.79	0.090
765.23	0.088
765.67	0.090
766.11	0.088
766.54	0.087
766.98	0.090
767.42	0.090
767.86	0.088
768.30	0.090
768.74	0.090
769.17	0.093
769.61	0.091
770.05	0.089
770.49	0.089
770.93	0.092
771.37	0.088
771.80	0.087
772.24	0.088
772.68	0.089
773.12	0.088
773.56	0.087
774.00	0.088
774.43	0.087
774.87	0.089
775.31	0.088
775.75	0.087
776.19	0.088
776.62	0.087
777.06	0.089
777.50	0.086
777.94	0.085
778.37	0.084
778.81	0.086
779.25	0.088
779.69	0.088
780.13	0.087
780.56	0.087
781.00	0.085
781.44	0.087
781.88	0.088
782.31	0.086
782.75	0.086
783.19	0.089
783.63	0.084
784.06	0.085
784.50	0.087
784.94	0.086
785.37	0.087
785.81	0.088
786.25	0.087
786.69	0.087
787.12	0.086
787.56	0.085
788.00	0.085
788.43	0.091
788.87	0.085
789.31	0.086
789.75	0.085
790.18	0.084
790.62	0.087
791.06	0.082
791.49	0.087
791.93	0.085
792.37	0.088
792.80	0.083
793.24	0.084
793.68	0.088
794.11	0.083
794.55	0.086
794.99	0.087
795.42	0.087
795.86	0.087
796.30	0.088
796.73	0.085
797.17	0.085
797.61	0.088
798.04	0.086
798.48	0.087
798.91	0.084
799.35	0.084
799.79	0.090
800.22	0.084
800.66	0.082
801.10	0.084
801.53	0.084
801.97	0.086
802.40	0.087
802.84	0.084
803.28	0.083
803.71	0.083
804.15	0.083
804.58	0.084
805.02	0.087
805.46	0.086
805.89	0.082
806.33	0.086
806.76	0.083
807.20	0.084
807.63	0.086
808.07	0.087
808.51	0.082
808.94	0.084
809.38	0.084
809.81	0.083
810.25	0.085
810.68	0.087
811.12	0.084
811.55	0.087
811.99	0.085
812.42	0.085
812.86	0.082
813.29	0.083
813.73	0.086
814.17	0.083
814.60	0.087
815.04	0.086
815.47	0.082
815.91	0.082
816.34	0.084
