SpectraSuite Data File
++++++++++++++++++++++++++++++++++++
Date: Sun Apr 24 17:51:20 CEST 2016
User: spectrasuite
Dark Spectrum Present: Yes
Reference Spectrum Present: Yes
Number of Sampled Component Spectra: 1
Spectrometers: HR+C0708
Integration Time (usec): 1000 (HR+C0708)
Spectra Averaged: 10 (HR+C0708)
Boxcar Smoothing: 0 (HR+C0708)
Correct for Electrical Dark: No (HR+C0708)
Strobe/Lamp Enabled: No (HR+C0708)
Correct for Detector Non-linearity: No (HR+C0708)
Correct for Stray Light: No (HR+C0708)
Number of Pixels in Processed Spectrum: 2048
>>>>>Begin Processed Spectral Data<<<<<
188.76	-0.000
189.23	-0.000
189.70	-0.000
190.17	-0.000
190.64	-0.000
191.12	-0.000
191.59	-0.000
192.06	-0.000
192.53	-0.000
193.01	-0.000
193.48	-0.000
193.95	-0.000
194.42	-0.000
194.90	-0.000
195.37	-0.000
195.84	-0.000
196.31	-0.000
196.78	-0.000
197.26	-0.000
197.73	-0.000
198.20	-0.000
198.67	-0.000
199.14	-0.000
199.62	-0.000
200.09	-0.000
200.56	-0.000
201.03	-0.000
201.50	-0.000
201.97	-0.000
202.45	-0.000
202.92	-0.000
203.39	1.783
203.86	-0.000
204.33	-0.000
204.80	-0.000
205.28	-0.000
205.75	-0.000
206.22	-0.000
206.69	-0.000
207.16	-0.000
207.63	-0.000
208.11	1.478
208.58	-0.000
209.05	-0.000
209.52	-0.000
209.99	-0.000
210.46	-0.000
210.93	-0.000
211.41	-0.000
211.88	-0.000
212.35	-0.000
212.82	-0.000
213.29	-0.000
213.76	-0.000
214.23	-0.000
214.70	-0.000
215.18	-0.000
215.65	-0.000
216.12	1.446
216.59	-0.000
217.06	-0.000
217.53	-0.000
218.00	-0.000
218.47	-0.000
218.94	-0.000
219.41	-0.000
219.89	-0.000
220.36	-0.000
220.83	-0.000
221.30	-0.000
221.77	-0.000
222.24	-0.000
222.71	-0.000
223.18	-0.000
223.65	-0.000
224.12	-0.000
224.59	-0.000
225.06	-0.000
225.54	-0.000
226.01	2.125
226.48	-0.000
226.95	-0.000
227.42	-0.000
227.89	-0.000
228.36	-0.000
228.83	-0.000
229.30	-0.000
229.77	-0.000
230.24	2.230
230.71	-0.000
231.18	-0.000
231.65	-0.000
232.12	2.359
232.59	-0.000
233.06	-0.000
233.53	-0.000
234.00	-0.000
234.47	-0.000
234.94	-0.000
235.41	2.644
235.88	-0.000
236.35	-0.000
236.82	-0.000
237.29	-0.000
237.76	-0.000
238.23	-0.000
238.70	-0.000
239.17	2.756
239.64	3.133
240.11	-0.000
240.58	3.596
241.05	-0.000
241.52	-0.000
241.99	-0.000
242.46	-0.000
242.93	-0.000
243.40	-0.000
243.87	3.044
244.34	3.408
244.81	-0.000
245.28	-0.000
245.75	-0.000
246.22	-0.000
246.69	-0.000
247.16	3.909
247.63	3.541
248.10	3.790
248.57	3.222
249.04	-0.000
249.51	-0.000
249.98	-0.000
250.45	3.315
250.92	-0.000
251.39	-0.000
251.85	-0.000
252.32	-0.000
252.79	-0.000
253.26	-0.000
253.73	-0.000
254.20	-0.000
254.67	3.244
255.14	3.355
255.61	3.321
256.08	-0.000
256.55	3.395
257.02	3.791
257.49	2.935
257.95	2.908
258.42	3.048
258.89	2.738
259.36	2.572
259.83	2.770
260.30	2.798
260.77	2.757
261.24	2.574
261.71	2.532
262.17	2.556
262.64	2.419
263.11	2.464
263.58	2.540
264.05	2.414
264.52	2.388
264.99	2.328
265.46	2.318
265.92	2.368
266.39	2.348
266.86	2.281
267.33	2.323
267.80	2.208
268.27	2.280
268.74	2.216
269.20	2.160
269.67	2.164
270.14	2.154
270.61	2.144
271.08	2.106
271.55	2.101
272.01	2.028
272.48	2.085
272.95	2.071
273.42	2.032
273.89	2.044
274.36	1.992
274.82	1.927
275.29	1.959
275.76	1.958
276.23	1.965
276.70	1.945
277.16	1.914
277.63	1.924
278.10	1.882
278.57	1.882
279.04	1.880
279.50	1.837
279.97	1.854
280.44	1.818
280.91	1.821
281.38	1.794
281.84	1.821
282.31	1.776
282.78	1.801
283.25	1.767
283.72	1.741
284.18	1.777
284.65	1.772
285.12	1.725
285.59	1.706
286.05	1.701
286.52	1.710
286.99	1.700
287.46	1.666
287.92	1.670
288.39	1.663
288.86	1.647
289.33	1.639
289.79	1.632
290.26	1.626
290.73	1.626
291.20	1.608
291.66	1.594
292.13	1.608
292.60	1.567
293.07	1.569
293.53	1.549
294.00	1.548
294.47	1.540
294.93	1.542
295.40	1.541
295.87	1.523
296.34	1.521
296.80	1.500
297.27	1.497
297.74	1.476
298.20	1.488
298.67	1.474
299.14	1.474
299.60	1.444
300.07	1.442
300.54	1.436
301.01	1.432
301.47	1.415
301.94	1.405
302.41	1.424
302.87	1.406
303.34	1.414
303.81	1.382
304.27	1.391
304.74	1.363
305.21	1.357
305.67	1.361
306.14	1.357
306.61	1.355
307.07	1.346
307.54	1.342
308.01	1.326
308.47	1.326
308.94	1.312
309.40	1.305
309.87	1.298
310.34	1.300
310.80	1.288
311.27	1.283
311.74	1.280
312.20	1.274
312.67	1.274
313.13	1.258
313.60	1.252
314.07	1.254
314.53	1.241
315.00	1.232
315.47	1.244
315.93	1.221
316.40	1.216
316.86	1.212
317.33	1.210
317.80	1.201
318.26	1.201
318.73	1.199
319.19	1.195
319.66	1.181
320.13	1.180
320.59	1.178
321.06	1.164
321.52	1.171
321.99	1.158
322.45	1.157
322.92	1.151
323.39	1.153
323.85	1.144
324.32	1.147
324.78	1.138
325.25	1.131
325.71	1.126
326.18	1.117
326.64	1.121
327.11	1.110
327.58	1.097
328.04	1.106
328.51	1.100
328.97	1.097
329.44	1.091
329.90	1.081
330.37	1.088
330.83	1.073
331.30	1.075
331.76	1.067
332.23	1.065
332.69	1.063
333.16	1.059
333.62	1.053
334.09	1.044
334.56	1.045
335.02	1.039
335.49	1.033
335.95	1.025
336.42	1.023
336.88	1.015
337.35	1.020
337.81	1.013
338.28	1.005
338.74	0.999
339.20	0.997
339.67	0.994
340.13	0.986
340.60	0.978
341.06	0.972
341.53	0.967
341.99	0.963
342.46	0.961
342.92	0.951
343.39	0.945
343.85	0.940
344.32	0.939
344.78	0.936
345.25	0.931
345.71	0.924
346.17	0.922
346.64	0.905
347.10	0.906
347.57	0.894
348.03	0.886
348.50	0.882
348.96	0.871
349.43	0.869
349.89	0.864
350.35	0.853
350.82	0.850
351.28	0.843
351.75	0.833
352.21	0.826
352.67	0.820
353.14	0.804
353.60	0.803
354.07	0.795
354.53	0.774
355.00	0.780
355.46	0.762
355.92	0.760
356.39	0.748
356.85	0.743
357.31	0.739
357.78	0.732
358.24	0.718
358.71	0.713
359.17	0.704
359.63	0.707
360.10	0.697
360.56	0.697
361.03	0.692
361.49	0.679
361.95	0.679
362.42	0.676
362.88	0.671
363.34	0.661
363.81	0.659
364.27	0.658
364.73	0.656
365.20	0.652
365.66	0.648
366.12	0.645
366.59	0.642
367.05	0.638
367.51	0.637
367.98	0.629
368.44	0.628
368.90	0.626
369.37	0.624
369.83	0.616
370.29	0.618
370.76	0.614
371.22	0.618
371.68	0.613
372.15	0.605
372.61	0.602
373.07	0.603
373.54	0.604
374.00	0.603
374.46	0.600
374.92	0.596
375.39	0.593
375.85	0.595
376.31	0.594
376.78	0.590
377.24	0.589
377.70	0.586
378.16	0.583
378.63	0.581
379.09	0.585
379.55	0.580
380.01	0.577
380.48	0.574
380.94	0.574
381.40	0.572
381.87	0.566
382.33	0.566
382.79	0.561
383.25	0.565
383.72	0.569
384.18	0.559
384.64	0.560
385.10	0.557
385.56	0.558
386.03	0.553
386.49	0.555
386.95	0.551
387.41	0.550
387.88	0.546
388.34	0.545
388.80	0.545
389.26	0.544
389.72	0.545
390.19	0.539
390.65	0.536
391.11	0.539
391.57	0.537
392.04	0.531
392.50	0.528
392.96	0.530
393.42	0.527
393.88	0.531
394.34	0.527
394.81	0.524
395.27	0.521
395.73	0.522
396.19	0.521
396.65	0.518
397.12	0.512
397.58	0.515
398.04	0.513
398.50	0.513
398.96	0.511
399.42	0.514
399.89	0.507
400.35	0.504
400.81	0.500
401.27	0.504
401.73	0.500
402.19	0.502
402.65	0.501
403.12	0.496
403.58	0.495
404.04	0.497
404.50	0.495
404.96	0.491
405.42	0.489
405.88	0.491
406.34	0.491
406.81	0.484
407.27	0.485
407.73	0.487
408.19	0.483
408.65	0.478
409.11	0.479
409.57	0.480
410.03	0.478
410.49	0.477
410.96	0.477
411.42	0.476
411.88	0.470
412.34	0.467
412.80	0.474
413.26	0.465
413.72	0.466
414.18	0.468
414.64	0.464
415.10	0.466
415.56	0.465
416.02	0.465
416.48	0.462
416.95	0.457
417.41	0.458
417.87	0.456
418.33	0.454
418.79	0.454
419.25	0.454
419.71	0.448
420.17	0.451
420.63	0.449
421.09	0.447
421.55	0.448
422.01	0.448
422.47	0.448
422.93	0.449
423.39	0.442
423.85	0.442
424.31	0.440
424.77	0.437
425.23	0.439
425.69	0.440
426.15	0.438
426.61	0.437
427.07	0.434
427.53	0.434
427.99	0.431
428.45	0.430
428.91	0.431
429.37	0.427
429.83	0.428
430.29	0.430
430.75	0.426
431.21	0.428
431.67	0.428
432.13	0.427
432.59	0.419
433.05	0.423
433.51	0.417
433.97	0.422
434.43	0.422
434.89	0.419
435.35	0.421
435.81	0.418
436.27	0.412
436.73	0.414
437.19	0.410
437.65	0.413
438.11	0.413
438.57	0.409
439.03	0.410
439.48	0.410
439.94	0.406
440.40	0.409
440.86	0.407
441.32	0.405
441.78	0.405
442.24	0.401
442.70	0.403
443.16	0.398
443.62	0.395
444.08	0.396
444.54	0.397
444.99	0.393
445.45	0.396
445.91	0.392
446.37	0.394
446.83	0.396
447.29	0.391
447.75	0.392
448.21	0.394
448.67	0.390
449.12	0.386
449.58	0.389
450.04	0.384
450.50	0.383
450.96	0.388
451.42	0.384
451.88	0.384
452.34	0.382
452.79	0.381
453.25	0.384
453.71	0.380
454.17	0.377
454.63	0.382
455.09	0.377
455.55	0.376
456.00	0.377
456.46	0.374
456.92	0.372
457.38	0.373
457.84	0.371
458.30	0.370
458.75	0.372
459.21	0.365
459.67	0.372
460.13	0.369
460.59	0.366
461.04	0.367
461.50	0.369
461.96	0.365
462.42	0.363
462.88	0.363
463.33	0.361
463.79	0.362
464.25	0.359
464.71	0.361
465.17	0.358
465.62	0.360
466.08	0.360
466.54	0.358
467.00	0.360
467.46	0.355
467.91	0.355
468.37	0.355
468.83	0.354
469.29	0.357
469.74	0.352
470.20	0.352
470.66	0.351
471.12	0.348
471.57	0.348
472.03	0.349
472.49	0.348
472.95	0.348
473.40	0.348
473.86	0.346
474.32	0.345
474.78	0.345
475.23	0.344
475.69	0.344
476.15	0.343
476.60	0.344
477.06	0.343
477.52	0.339
477.98	0.339
478.43	0.341
478.89	0.339
479.35	0.339
479.80	0.338
480.26	0.336
480.72	0.336
481.18	0.339
481.63	0.335
482.09	0.336
482.55	0.335
483.00	0.330
483.46	0.332
483.92	0.329
484.37	0.332
484.83	0.329
485.29	0.328
485.74	0.327
486.20	0.327
486.66	0.326
487.11	0.327
487.57	0.326
488.03	0.325
488.48	0.324
488.94	0.321
489.40	0.322
489.85	0.324
490.31	0.324
490.77	0.321
491.22	0.321
491.68	0.318
492.13	0.320
492.59	0.318
493.05	0.316
493.50	0.320
493.96	0.317
494.42	0.316
494.87	0.315
495.33	0.312
495.78	0.318
496.24	0.315
496.70	0.311
497.15	0.312
497.61	0.312
498.06	0.311
498.52	0.310
498.98	0.309
499.43	0.310
499.89	0.312
500.34	0.309
500.80	0.308
501.25	0.308
501.71	0.306
502.17	0.307
502.62	0.309
503.08	0.303
503.53	0.303
503.99	0.306
504.44	0.304
504.90	0.305
505.36	0.302
505.81	0.303
506.27	0.303
506.72	0.302
507.18	0.301
507.63	0.299
508.09	0.300
508.54	0.298
509.00	0.299
509.45	0.300
509.91	0.296
510.36	0.298
510.82	0.298
511.27	0.295
511.73	0.298
512.19	0.292
512.64	0.294
513.10	0.292
513.55	0.293
514.01	0.293
514.46	0.290
514.92	0.290
515.37	0.291
515.83	0.289
516.28	0.289
516.73	0.292
517.19	0.288
517.64	0.286
518.10	0.286
518.55	0.288
519.01	0.286
519.46	0.286
519.92	0.287
520.37	0.283
520.83	0.284
521.28	0.285
521.74	0.284
522.19	0.283
522.65	0.282
523.10	0.280
523.55	0.281
524.01	0.282
524.46	0.280
524.92	0.279
525.37	0.281
525.83	0.279
526.28	0.279
526.73	0.279
527.19	0.281
527.64	0.279
528.10	0.278
528.55	0.277
529.01	0.277
529.46	0.273
529.91	0.275
530.37	0.274
530.82	0.275
531.28	0.274
531.73	0.273
532.18	0.275
532.64	0.273
533.09	0.271
533.54	0.272
534.00	0.270
534.45	0.275
534.91	0.271
535.36	0.272
535.81	0.271
536.27	0.268
536.72	0.271
537.17	0.268
537.63	0.269
538.08	0.266
538.54	0.269
538.99	0.266
539.44	0.266
539.90	0.267
540.35	0.265
540.80	0.266
541.26	0.266
541.71	0.264
542.16	0.263
542.62	0.262
543.07	0.261
543.52	0.263
543.98	0.264
544.43	0.262
544.88	0.260
545.34	0.265
545.79	0.264
546.24	0.260
546.69	0.264
547.15	0.259
547.60	0.259
548.05	0.261
548.51	0.259
548.96	0.260
549.41	0.260
549.86	0.258
550.32	0.259
550.77	0.258
551.22	0.257
551.68	0.257
552.13	0.257
552.58	0.257
553.03	0.255
553.49	0.256
553.94	0.255
554.39	0.256
554.84	0.257
555.30	0.254
555.75	0.255
556.20	0.255
556.65	0.254
557.11	0.255
557.56	0.254
558.01	0.255
558.46	0.255
558.92	0.251
559.37	0.253
559.82	0.252
560.27	0.254
560.72	0.252
561.18	0.252
561.63	0.251
562.08	0.249
562.53	0.252
562.99	0.251
563.44	0.250
563.89	0.249
564.34	0.249
564.79	0.249
565.25	0.250
565.70	0.247
566.15	0.248
566.60	0.247
567.05	0.247
567.50	0.246
567.96	0.245
568.41	0.246
568.86	0.247
569.31	0.244
569.76	0.245
570.21	0.246
570.67	0.246
571.12	0.245
571.57	0.244
572.02	0.244
572.47	0.244
572.92	0.244
573.37	0.242
573.83	0.241
574.28	0.244
574.73	0.242
575.18	0.243
575.63	0.242
576.08	0.240
576.53	0.242
576.98	0.241
577.44	0.239
577.89	0.242
578.34	0.241
578.79	0.240
579.24	0.239
579.69	0.240
580.14	0.239
580.59	0.239
581.04	0.240
581.49	0.239
581.95	0.237
582.40	0.238
582.85	0.239
583.30	0.237
583.75	0.235
584.20	0.237
584.65	0.237
585.10	0.238
585.55	0.236
586.00	0.237
586.45	0.238
586.90	0.237
587.35	0.237
587.80	0.237
588.25	0.235
588.71	0.238
589.16	0.238
589.61	0.235
590.06	0.236
590.51	0.235
590.96	0.235
591.41	0.236
591.86	0.236
592.31	0.235
592.76	0.237
593.21	0.235
593.66	0.237
594.11	0.236
594.56	0.235
595.01	0.238
595.46	0.236
595.91	0.238
596.36	0.235
596.81	0.236
597.26	0.237
597.71	0.235
598.16	0.235
598.61	0.234
599.06	0.234
599.51	0.238
599.96	0.237
600.41	0.236
600.86	0.236
601.31	0.236
601.76	0.236
602.21	0.235
602.65	0.236
603.10	0.235
603.55	0.235
604.00	0.234
604.45	0.236
604.90	0.236
605.35	0.234
605.80	0.234
606.25	0.238
606.70	0.235
607.15	0.233
607.60	0.234
608.05	0.233
608.50	0.235
608.95	0.233
609.39	0.237
609.84	0.234
610.29	0.233
610.74	0.235
611.19	0.233
611.64	0.233
612.09	0.233
612.54	0.232
612.99	0.235
613.44	0.231
613.88	0.235
614.33	0.233
614.78	0.230
615.23	0.230
615.68	0.232
616.13	0.233
616.58	0.231
617.03	0.231
617.47	0.232
617.92	0.231
618.37	0.230
618.82	0.231
619.27	0.231
619.72	0.230
620.17	0.229
620.61	0.228
621.06	0.230
621.51	0.231
621.96	0.227
622.41	0.232
622.86	0.228
623.30	0.228
623.75	0.231
624.20	0.230
624.65	0.228
625.10	0.229
625.54	0.228
625.99	0.229
626.44	0.228
626.89	0.228
627.34	0.230
627.78	0.227
628.23	0.226
628.68	0.227
629.13	0.227
629.58	0.227
630.02	0.228
630.47	0.227
630.92	0.226
631.37	0.226
631.81	0.230
632.26	0.228
632.71	0.227
633.16	0.227
633.61	0.226
634.05	0.225
634.50	0.227
634.95	0.227
635.40	0.229
635.84	0.228
636.29	0.228
636.74	0.228
637.18	0.229
637.63	0.227
638.08	0.227
638.53	0.227
638.97	0.227
639.42	0.230
639.87	0.230
640.32	0.226
640.76	0.229
641.21	0.229
641.66	0.229
642.10	0.230
642.55	0.228
643.00	0.228
643.44	0.230
643.89	0.230
644.34	0.228
644.79	0.228
645.23	0.230
645.68	0.229
646.13	0.231
646.57	0.230
647.02	0.228
647.47	0.231
647.91	0.230
648.36	0.230
648.81	0.229
649.25	0.231
649.70	0.229
650.15	0.231
650.59	0.229
651.04	0.230
651.48	0.231
651.93	0.232
652.38	0.228
652.82	0.230
653.27	0.230
653.72	0.231
654.16	0.230
654.61	0.231
655.06	0.229
655.50	0.226
655.95	0.226
656.39	0.221
656.84	0.226
657.29	0.231
657.73	0.228
658.18	0.228
658.62	0.228
659.07	0.227
659.52	0.229
659.96	0.227
660.41	0.229
660.85	0.226
661.30	0.226
661.74	0.227
662.19	0.225
662.64	0.226
663.08	0.224
663.53	0.224
663.97	0.222
664.42	0.223
664.86	0.222
665.31	0.224
665.75	0.222
666.20	0.222
666.65	0.221
667.09	0.219
667.54	0.221
667.98	0.219
668.43	0.219
668.87	0.219
669.32	0.217
669.76	0.215
670.21	0.217
670.65	0.215
671.10	0.213
671.54	0.212
671.99	0.214
672.43	0.210
672.88	0.209
673.32	0.210
673.77	0.206
674.21	0.206
674.66	0.205
675.10	0.204
675.55	0.201
675.99	0.203
676.44	0.201
676.88	0.202
677.33	0.200
677.77	0.200
678.22	0.198
678.66	0.197
679.11	0.195
679.55	0.194
679.99	0.194
680.44	0.192
680.88	0.190
681.33	0.188
681.77	0.187
682.22	0.189
682.66	0.187
683.11	0.185
683.55	0.184
683.99	0.184
684.44	0.181
684.88	0.182
685.33	0.180
685.77	0.179
686.21	0.179
686.66	0.177
687.10	0.176
687.55	0.176
687.99	0.177
688.44	0.176
688.88	0.174
689.32	0.174
689.77	0.172
690.21	0.172
690.65	0.171
691.10	0.171
691.54	0.168
691.99	0.169
692.43	0.166
692.87	0.165
693.32	0.170
693.76	0.166
694.20	0.165
694.65	0.166
695.09	0.166
695.53	0.164
695.98	0.164
696.42	0.164
696.86	0.163
697.31	0.160
697.75	0.162
698.19	0.159
698.64	0.161
699.08	0.162
699.52	0.160
699.97	0.161
700.41	0.160
700.85	0.160
701.30	0.160
701.74	0.160
702.18	0.156
702.63	0.160
703.07	0.161
703.51	0.160
703.96	0.157
704.40	0.157
704.84	0.158
705.28	0.158
705.73	0.157
706.17	0.157
706.61	0.156
707.06	0.156
707.50	0.155
707.94	0.152
708.38	0.153
708.83	0.159
709.27	0.154
709.71	0.154
710.15	0.156
710.60	0.155
711.04	0.154
711.48	0.154
711.92	0.156
712.37	0.155
712.81	0.154
713.25	0.154
713.69	0.154
714.13	0.153
714.58	0.154
715.02	0.153
715.46	0.151
715.90	0.152
716.35	0.152
716.79	0.153
717.23	0.154
717.67	0.152
718.11	0.152
718.56	0.153
719.00	0.152
719.44	0.153
719.88	0.151
720.32	0.152
720.76	0.151
721.21	0.151
721.65	0.150
722.09	0.151
722.53	0.151
722.97	0.152
723.41	0.148
723.86	0.151
724.30	0.151
724.74	0.152
725.18	0.150
725.62	0.149
726.06	0.152
726.50	0.148
726.95	0.150
727.39	0.150
727.83	0.149
728.27	0.152
728.71	0.151
729.15	0.152
729.59	0.152
730.03	0.149
730.48	0.151
730.92	0.151
731.36	0.150
731.80	0.151
732.24	0.150
732.68	0.148
733.12	0.149
733.56	0.149
734.00	0.149
734.44	0.152
734.89	0.149
735.33	0.150
735.77	0.153
736.21	0.151
736.65	0.150
737.09	0.150
737.53	0.152
737.97	0.153
738.41	0.150
738.85	0.153
739.29	0.151
739.73	0.149
740.17	0.151
740.61	0.149
741.05	0.151
741.49	0.151
741.93	0.148
742.37	0.147
742.81	0.150
743.26	0.150
743.70	0.149
744.14	0.149
744.58	0.147
745.02	0.149
745.46	0.149
745.90	0.149
746.34	0.149
746.78	0.149
747.22	0.149
747.66	0.149
748.10	0.146
748.54	0.146
748.98	0.148
749.42	0.148
749.86	0.149
750.29	0.146
750.73	0.144
751.17	0.145
751.61	0.147
752.05	0.148
752.49	0.146
752.93	0.144
753.37	0.144
753.81	0.144
754.25	0.144
754.69	0.141
755.13	0.143
755.57	0.144
756.01	0.145
756.45	0.145
756.89	0.146
757.33	0.144
757.77	0.144
758.21	0.145
758.64	0.142
759.08	0.140
759.52	0.143
759.96	0.147
760.40	0.141
760.84	0.142
761.28	0.143
761.72	0.144
762.16	0.145
762.60	0.143
763.03	0.143
763.47	0.142
763.91	0.142
764.35	0.138
764.79	0.139
765.23	0.140
765.67	0.141
766.11	0.139
766.54	0.137
766.98	0.141
767.42	0.142
767.86	0.138
768.30	0.141
768.74	0.142
769.17	0.142
769.61	0.142
770.05	0.141
770.49	0.144
770.93	0.143
771.37	0.138
771.80	0.140
772.24	0.137
772.68	0.136
773.12	0.139
773.56	0.136
774.00	0.138
774.43	0.138
774.87	0.136
775.31	0.139
775.75	0.138
776.19	0.138
776.62	0.137
777.06	0.137
777.50	0.137
777.94	0.139
778.37	0.137
778.81	0.137
779.25	0.136
779.69	0.137
780.13	0.139
780.56	0.137
781.00	0.138
781.44	0.139
781.88	0.139
782.31	0.135
782.75	0.136
783.19	0.139
783.63	0.134
784.06	0.135
784.50	0.136
784.94	0.134
785.37	0.137
785.81	0.136
786.25	0.136
786.69	0.133
787.12	0.133
787.56	0.135
788.00	0.137
788.43	0.138
788.87	0.136
789.31	0.134
789.75	0.137
790.18	0.132
790.62	0.133
791.06	0.133
791.49	0.133
791.93	0.133
792.37	0.134
792.80	0.137
793.24	0.137
793.68	0.134
794.11	0.131
794.55	0.136
794.99	0.133
795.42	0.133
795.86	0.135
796.30	0.132
796.73	0.134
797.17	0.132
797.61	0.132
798.04	0.133
798.48	0.133
798.91	0.129
799.35	0.133
799.79	0.138
800.22	0.133
800.66	0.133
801.10	0.135
801.53	0.131
801.97	0.137
802.40	0.134
802.84	0.133
803.28	0.130
803.71	0.133
804.15	0.134
804.58	0.132
805.02	0.133
805.46	0.130
805.89	0.131
806.33	0.133
806.76	0.131
807.20	0.131
807.63	0.131
808.07	0.135
808.51	0.129
808.94	0.131
809.38	0.130
809.81	0.133
810.25	0.131
810.68	0.133
811.12	0.132
811.55	0.136
811.99	0.135
812.42	0.130
812.86	0.131
813.29	0.130
813.73	0.131
814.17	0.129
