SpectraSuite Data File
++++++++++++++++++++++++++++++++++++
Date: Sun Apr 24 15:03:33 CEST 2016
User: spectrasuite
Dark Spectrum Present: Yes
Reference Spectrum Present: Yes
Number of Sampled Component Spectra: 1
Spectrometers: HR+C0708
Integration Time (usec): 1000 (HR+C0708)
Spectra Averaged: 10 (HR+C0708)
Boxcar Smoothing: 0 (HR+C0708)
Correct for Electrical Dark: No (HR+C0708)
Strobe/Lamp Enabled: No (HR+C0708)
Correct for Detector Non-linearity: No (HR+C0708)
Correct for Stray Light: No (HR+C0708)
Number of Pixels in Processed Spectrum: 2048
>>>>>Begin Processed Spectral Data<<<<<
188.76	-0.000
189.23	0.809
189.70	-0.000
190.17	-0.000
190.64	-0.000
191.12	-0.000
191.59	-0.000
192.06	-0.000
192.53	-0.000
193.01	-0.000
193.48	-0.000
193.95	-0.000
194.42	-0.000
194.90	1.060
195.37	-0.000
195.84	-0.000
196.31	-0.000
196.78	-0.000
197.26	-0.000
197.73	-0.000
198.20	-0.000
198.67	-0.000
199.14	-0.000
199.62	-0.000
200.09	-0.000
200.56	-0.000
201.03	-0.000
201.50	1.106
201.97	0.928
202.45	-0.000
202.92	0.976
203.39	1.074
203.86	1.600
204.33	1.177
204.80	1.203
205.28	1.107
205.75	-0.000
206.22	1.349
206.69	0.790
207.16	-0.000
207.63	1.014
208.11	0.887
208.58	0.997
209.05	1.482
209.52	-0.000
209.99	-0.000
210.46	1.868
210.93	-0.000
211.41	1.039
211.88	1.224
212.35	-0.000
212.82	-0.000
213.29	1.242
213.76	0.995
214.23	-0.000
214.70	-0.000
215.18	-0.000
215.65	0.944
216.12	0.902
216.59	-0.000
217.06	-0.000
217.53	0.906
218.00	1.104
218.47	1.230
218.94	1.365
219.41	-0.000
219.89	-0.000
220.36	-0.000
220.83	-0.000
221.30	-0.000
221.77	1.818
222.24	1.616
222.71	2.545
223.18	-0.000
223.65	-0.000
224.12	1.709
224.59	-0.000
225.06	-0.000
225.54	-0.000
226.01	1.274
226.48	-0.000
226.95	-0.000
227.42	1.293
227.89	-0.000
228.36	1.731
228.83	-0.000
229.30	1.517
229.77	2.920
230.24	2.110
230.71	1.982
231.18	2.186
231.65	2.375
232.12	2.102
232.59	2.033
233.06	2.485
233.53	2.102
234.00	2.055
234.47	2.373
234.94	-0.000
235.41	2.531
235.88	-0.000
236.35	-0.000
236.82	2.532
237.29	2.325
237.76	2.608
238.23	3.215
238.70	2.895
239.17	2.231
239.64	3.309
240.11	-0.000
240.58	2.979
241.05	2.646
241.52	2.800
241.99	-0.000
242.46	-0.000
242.93	3.167
243.40	2.827
243.87	2.559
244.34	2.372
244.81	2.802
245.28	-0.000
245.75	2.835
246.22	3.667
246.69	2.808
247.16	3.289
247.63	2.674
248.10	2.929
248.57	3.208
249.04	4.228
249.51	-0.000
249.98	-0.000
250.45	2.965
250.92	3.708
251.39	2.903
251.85	-0.000
252.32	-0.000
252.79	2.845
253.26	3.104
253.73	-0.000
254.20	-0.000
254.67	2.613
255.14	3.309
255.61	-0.000
256.08	3.182
256.55	-0.000
257.02	3.019
257.49	3.185
257.95	3.557
258.42	4.435
258.89	3.689
259.36	3.030
259.83	2.922
260.30	4.637
260.77	-0.000
261.24	3.296
261.71	4.002
262.17	3.168
262.64	3.098
263.11	4.671
263.58	-0.000
264.05	3.338
264.52	2.996
264.99	3.039
265.46	2.990
265.92	3.170
266.39	3.057
266.86	3.666
267.33	3.440
267.80	3.169
268.27	3.057
268.74	3.096
269.20	3.720
269.67	2.904
270.14	2.601
270.61	2.901
271.08	2.896
271.55	2.799
272.01	2.717
272.48	2.764
272.95	2.754
273.42	2.832
273.89	2.949
274.36	2.991
274.82	2.653
275.29	2.814
275.76	2.806
276.23	2.858
276.70	2.734
277.16	2.560
277.63	2.735
278.10	2.632
278.57	2.532
279.04	2.692
279.50	2.792
279.97	2.599
280.44	2.539
280.91	2.616
281.38	2.539
281.84	2.512
282.31	2.552
282.78	2.978
283.25	2.575
283.72	2.506
284.18	2.585
284.65	2.551
285.12	2.498
285.59	2.434
286.05	2.598
286.52	2.466
286.99	2.450
287.46	2.449
287.92	2.442
288.39	2.337
288.86	2.371
289.33	2.380
289.79	2.377
290.26	2.377
290.73	2.396
291.20	2.382
291.66	2.387
292.13	2.297
292.60	2.317
293.07	2.272
293.53	2.230
294.00	2.339
294.47	2.352
294.93	2.288
295.40	2.280
295.87	2.270
296.34	2.313
296.80	2.241
297.27	2.257
297.74	2.250
298.20	2.280
298.67	2.218
299.14	2.221
299.60	2.211
300.07	2.199
300.54	2.189
301.01	2.191
301.47	2.130
301.94	2.117
302.41	2.153
302.87	2.139
303.34	2.182
303.81	2.088
304.27	2.127
304.74	2.132
305.21	2.087
305.67	2.090
306.14	2.039
306.61	2.131
307.07	2.098
307.54	2.104
308.01	2.051
308.47	2.031
308.94	2.054
309.40	2.073
309.87	2.052
310.34	2.007
310.80	2.022
311.27	2.060
311.74	2.029
312.20	2.020
312.67	2.014
313.13	1.964
313.60	2.013
314.07	2.012
314.53	1.989
315.00	1.948
315.47	1.992
315.93	1.968
316.40	1.965
316.86	1.969
317.33	1.923
317.80	1.920
318.26	1.967
318.73	1.948
319.19	1.933
319.66	1.926
320.13	1.908
320.59	1.892
321.06	1.894
321.52	1.886
321.99	1.892
322.45	1.885
322.92	1.862
323.39	1.853
323.85	1.868
324.32	1.824
324.78	1.849
325.25	1.857
325.71	1.791
326.18	1.781
326.64	1.812
327.11	1.801
327.58	1.766
328.04	1.779
328.51	1.795
328.97	1.754
329.44	1.747
329.90	1.751
330.37	1.716
330.83	1.705
331.30	1.718
331.76	1.707
332.23	1.681
332.69	1.668
333.16	1.641
333.62	1.639
334.09	1.603
334.56	1.590
335.02	1.567
335.49	1.564
335.95	1.527
336.42	1.522
336.88	1.505
337.35	1.492
337.81	1.455
338.28	1.441
338.74	1.425
339.20	1.402
339.67	1.377
340.13	1.359
340.60	1.334
341.06	1.293
341.53	1.277
341.99	1.259
342.46	1.227
342.92	1.199
343.39	1.188
343.85	1.163
344.32	1.144
344.78	1.135
345.25	1.109
345.71	1.087
346.17	1.062
346.64	1.039
347.10	1.018
347.57	0.981
348.03	0.967
348.50	0.949
348.96	0.924
349.43	0.906
349.89	0.889
350.35	0.870
350.82	0.849
351.28	0.843
351.75	0.827
352.21	0.816
352.67	0.794
353.14	0.786
353.60	0.767
354.07	0.752
354.53	0.745
355.00	0.726
355.46	0.719
355.92	0.707
356.39	0.693
356.85	0.691
357.31	0.681
357.78	0.665
358.24	0.663
358.71	0.654
359.17	0.650
359.63	0.639
360.10	0.636
360.56	0.634
361.03	0.625
361.49	0.618
361.95	0.617
362.42	0.609
362.88	0.603
363.34	0.595
363.81	0.598
364.27	0.595
364.73	0.591
365.20	0.588
365.66	0.586
366.12	0.585
366.59	0.580
367.05	0.580
367.51	0.574
367.98	0.570
368.44	0.567
368.90	0.567
369.37	0.565
369.83	0.561
370.29	0.560
370.76	0.556
371.22	0.555
371.68	0.554
372.15	0.552
372.61	0.547
373.07	0.547
373.54	0.547
374.00	0.545
374.46	0.540
374.92	0.542
375.39	0.536
375.85	0.537
376.31	0.537
376.78	0.532
377.24	0.532
377.70	0.534
378.16	0.527
378.63	0.526
379.09	0.527
379.55	0.523
380.01	0.522
380.48	0.519
380.94	0.518
381.40	0.516
381.87	0.515
382.33	0.510
382.79	0.511
383.25	0.510
383.72	0.509
384.18	0.508
384.64	0.503
385.10	0.499
385.56	0.505
386.03	0.500
386.49	0.499
386.95	0.495
387.41	0.494
387.88	0.494
388.34	0.490
388.80	0.491
389.26	0.489
389.72	0.490
390.19	0.487
390.65	0.485
391.11	0.484
391.57	0.484
392.04	0.482
392.50	0.478
392.96	0.479
393.42	0.478
393.88	0.478
394.34	0.475
394.81	0.476
395.27	0.474
395.73	0.472
396.19	0.468
396.65	0.466
397.12	0.465
397.58	0.466
398.04	0.464
398.50	0.461
398.96	0.461
399.42	0.463
399.89	0.458
400.35	0.460
400.81	0.455
401.27	0.457
401.73	0.453
402.19	0.450
402.65	0.451
403.12	0.446
403.58	0.449
404.04	0.449
404.50	0.447
404.96	0.443
405.42	0.447
405.88	0.444
406.34	0.441
406.81	0.440
407.27	0.439
407.73	0.442
408.19	0.438
408.65	0.435
409.11	0.435
409.57	0.438
410.03	0.431
410.49	0.436
410.96	0.434
411.42	0.428
411.88	0.424
412.34	0.426
412.80	0.426
413.26	0.424
413.72	0.424
414.18	0.424
414.64	0.423
415.10	0.424
415.56	0.422
416.02	0.420
416.48	0.415
416.95	0.414
417.41	0.414
417.87	0.413
418.33	0.412
418.79	0.414
419.25	0.414
419.71	0.409
420.17	0.411
420.63	0.407
421.09	0.405
421.55	0.402
422.01	0.406
422.47	0.403
422.93	0.403
423.39	0.403
423.85	0.400
424.31	0.401
424.77	0.400
425.23	0.397
425.69	0.400
426.15	0.394
426.61	0.395
427.07	0.392
427.53	0.394
427.99	0.388
428.45	0.391
428.91	0.391
429.37	0.388
429.83	0.386
430.29	0.388
430.75	0.389
431.21	0.390
431.67	0.385
432.13	0.387
432.59	0.382
433.05	0.382
433.51	0.380
433.97	0.380
434.43	0.382
434.89	0.380
435.35	0.379
435.81	0.378
436.27	0.372
436.73	0.374
437.19	0.375
437.65	0.377
438.11	0.374
438.57	0.373
439.03	0.373
439.48	0.370
439.94	0.367
440.40	0.370
440.86	0.374
441.32	0.367
441.78	0.371
442.24	0.369
442.70	0.363
443.16	0.363
443.62	0.359
444.08	0.362
444.54	0.361
444.99	0.358
445.45	0.358
445.91	0.359
446.37	0.360
446.83	0.355
447.29	0.356
447.75	0.356
448.21	0.357
448.67	0.353
449.12	0.352
449.58	0.353
450.04	0.347
450.50	0.348
450.96	0.353
451.42	0.345
451.88	0.346
452.34	0.347
452.79	0.344
453.25	0.347
453.71	0.347
454.17	0.343
454.63	0.345
455.09	0.344
455.55	0.344
456.00	0.341
456.46	0.341
456.92	0.340
457.38	0.338
457.84	0.335
458.30	0.333
458.75	0.339
459.21	0.332
459.67	0.336
460.13	0.334
460.59	0.331
461.04	0.333
461.50	0.331
461.96	0.327
462.42	0.331
462.88	0.329
463.33	0.329
463.79	0.327
464.25	0.331
464.71	0.330
465.17	0.326
465.62	0.325
466.08	0.325
466.54	0.325
467.00	0.325
467.46	0.323
467.91	0.322
468.37	0.325
468.83	0.323
469.29	0.322
469.74	0.322
470.20	0.318
470.66	0.317
471.12	0.317
471.57	0.317
472.03	0.318
472.49	0.317
472.95	0.318
473.40	0.317
473.86	0.312
474.32	0.313
474.78	0.311
475.23	0.311
475.69	0.313
476.15	0.310
476.60	0.310
477.06	0.309
477.52	0.310
477.98	0.306
478.43	0.306
478.89	0.309
479.35	0.306
479.80	0.306
480.26	0.305
480.72	0.306
481.18	0.304
481.63	0.303
482.09	0.303
482.55	0.305
483.00	0.304
483.46	0.300
483.92	0.303
484.37	0.299
484.83	0.300
485.29	0.298
485.74	0.297
486.20	0.299
486.66	0.296
487.11	0.296
487.57	0.295
488.03	0.295
488.48	0.296
488.94	0.294
489.40	0.290
489.85	0.295
490.31	0.292
490.77	0.292
491.22	0.293
491.68	0.291
492.13	0.292
492.59	0.291
493.05	0.288
493.50	0.288
493.96	0.287
494.42	0.289
494.87	0.283
495.33	0.285
495.78	0.287
496.24	0.287
496.70	0.285
497.15	0.286
497.61	0.285
498.06	0.281
498.52	0.280
498.98	0.281
499.43	0.283
499.89	0.282
500.34	0.281
500.80	0.280
501.25	0.279
501.71	0.277
502.17	0.278
502.62	0.281
503.08	0.279
503.53	0.277
503.99	0.275
504.44	0.276
504.90	0.275
505.36	0.275
505.81	0.274
506.27	0.273
506.72	0.271
507.18	0.271
507.63	0.270
508.09	0.273
508.54	0.268
509.00	0.271
509.45	0.270
509.91	0.269
510.36	0.270
510.82	0.268
511.27	0.269
511.73	0.268
512.19	0.265
512.64	0.268
513.10	0.265
513.55	0.269
514.01	0.263
514.46	0.262
514.92	0.263
515.37	0.263
515.83	0.265
516.28	0.262
516.73	0.261
517.19	0.262
517.64	0.259
518.10	0.261
518.55	0.260
519.01	0.260
519.46	0.258
519.92	0.260
520.37	0.253
520.83	0.257
521.28	0.257
521.74	0.258
522.19	0.258
522.65	0.255
523.10	0.255
523.55	0.256
524.01	0.257
524.46	0.254
524.92	0.255
525.37	0.253
525.83	0.250
526.28	0.252
526.73	0.253
527.19	0.256
527.64	0.254
528.10	0.251
528.55	0.250
529.01	0.252
529.46	0.248
529.91	0.251
530.37	0.248
530.82	0.245
531.28	0.248
531.73	0.246
532.18	0.248
532.64	0.247
533.09	0.245
533.54	0.247
534.00	0.244
534.45	0.245
534.91	0.246
535.36	0.244
535.81	0.244
536.27	0.242
536.72	0.243
537.17	0.242
537.63	0.242
538.08	0.241
538.54	0.243
538.99	0.239
539.44	0.241
539.90	0.239
540.35	0.237
540.80	0.238
541.26	0.240
541.71	0.240
542.16	0.237
542.62	0.236
543.07	0.237
543.52	0.239
543.98	0.236
544.43	0.235
544.88	0.233
545.34	0.238
545.79	0.235
546.24	0.234
546.69	0.235
547.15	0.234
547.60	0.234
548.05	0.233
548.51	0.231
548.96	0.232
549.41	0.234
549.86	0.230
550.32	0.231
550.77	0.232
551.22	0.229
551.68	0.228
552.13	0.228
552.58	0.228
553.03	0.229
553.49	0.226
553.94	0.227
554.39	0.227
554.84	0.229
555.30	0.225
555.75	0.228
556.20	0.224
556.65	0.224
557.11	0.226
557.56	0.223
558.01	0.225
558.46	0.224
558.92	0.222
559.37	0.223
559.82	0.222
560.27	0.221
560.72	0.220
561.18	0.221
561.63	0.220
562.08	0.217
562.53	0.220
562.99	0.220
563.44	0.220
563.89	0.219
564.34	0.218
564.79	0.218
565.25	0.218
565.70	0.216
566.15	0.216
566.60	0.215
567.05	0.216
567.50	0.216
567.96	0.215
568.41	0.216
568.86	0.214
569.31	0.215
569.76	0.215
570.21	0.212
570.67	0.214
571.12	0.214
571.57	0.214
572.02	0.214
572.47	0.211
572.92	0.211
573.37	0.210
573.83	0.209
574.28	0.209
574.73	0.208
575.18	0.210
575.63	0.211
576.08	0.208
576.53	0.208
576.98	0.207
577.44	0.205
577.89	0.207
578.34	0.207
578.79	0.204
579.24	0.206
579.69	0.207
580.14	0.203
580.59	0.202
581.04	0.202
581.49	0.202
581.95	0.204
582.40	0.203
582.85	0.203
583.30	0.199
583.75	0.200
584.20	0.201
584.65	0.201
585.10	0.200
585.55	0.202
586.00	0.201
586.45	0.201
586.90	0.202
587.35	0.201
587.80	0.200
588.25	0.198
588.71	0.201
589.16	0.197
589.61	0.198
590.06	0.197
590.51	0.198
590.96	0.196
591.41	0.197
591.86	0.198
592.31	0.195
592.76	0.194
593.21	0.197
593.66	0.196
594.11	0.197
594.56	0.194
595.01	0.196
595.46	0.193
595.91	0.195
596.36	0.195
596.81	0.194
597.26	0.193
597.71	0.194
598.16	0.191
598.61	0.192
599.06	0.193
599.51	0.193
599.96	0.194
600.41	0.193
600.86	0.191
601.31	0.191
601.76	0.192
602.21	0.192
602.65	0.191
603.10	0.191
603.55	0.192
604.00	0.190
604.45	0.189
604.90	0.188
605.35	0.187
605.80	0.189
606.25	0.191
606.70	0.188
607.15	0.187
607.60	0.186
608.05	0.186
608.50	0.187
608.95	0.185
609.39	0.188
609.84	0.187
610.29	0.185
610.74	0.184
611.19	0.183
611.64	0.185
612.09	0.186
612.54	0.185
612.99	0.185
613.44	0.182
613.88	0.186
614.33	0.185
614.78	0.182
615.23	0.182
615.68	0.183
616.13	0.183
616.58	0.180
617.03	0.182
617.47	0.182
617.92	0.182
618.37	0.179
618.82	0.180
619.27	0.182
619.72	0.181
620.17	0.178
620.61	0.179
621.06	0.179
621.51	0.179
621.96	0.176
622.41	0.179
622.86	0.177
623.30	0.177
623.75	0.180
624.20	0.178
624.65	0.178
625.10	0.176
625.54	0.176
625.99	0.178
626.44	0.176
626.89	0.178
627.34	0.177
627.78	0.176
628.23	0.175
628.68	0.174
629.13	0.173
629.58	0.176
630.02	0.174
630.47	0.173
630.92	0.173
631.37	0.173
631.81	0.174
632.26	0.172
632.71	0.171
633.16	0.171
633.61	0.171
634.05	0.170
634.50	0.173
634.95	0.171
635.40	0.172
635.84	0.173
636.29	0.171
636.74	0.171
637.18	0.171
637.63	0.171
638.08	0.169
638.53	0.169
638.97	0.169
639.42	0.170
639.87	0.171
640.32	0.169
640.76	0.170
641.21	0.168
641.66	0.168
642.10	0.170
642.55	0.168
643.00	0.166
643.44	0.167
643.89	0.168
644.34	0.167
644.79	0.167
645.23	0.167
645.68	0.168
646.13	0.165
646.57	0.166
647.02	0.166
647.47	0.167
647.91	0.166
648.36	0.164
648.81	0.164
649.25	0.163
649.70	0.164
650.15	0.164
650.59	0.163
651.04	0.165
651.48	0.166
651.93	0.165
652.38	0.161
652.82	0.163
653.27	0.163
653.72	0.164
654.16	0.163
654.61	0.162
655.06	0.160
655.50	0.162
655.95	0.159
656.39	0.156
656.84	0.159
657.29	0.163
657.73	0.160
658.18	0.160
658.62	0.160
659.07	0.161
659.52	0.161
659.96	0.161
660.41	0.160
660.85	0.160
661.30	0.159
661.74	0.159
662.19	0.159
662.64	0.160
663.08	0.159
663.53	0.158
663.97	0.158
664.42	0.157
664.86	0.159
665.31	0.160
665.75	0.158
666.20	0.157
666.65	0.158
667.09	0.157
667.54	0.159
667.98	0.156
668.43	0.156
668.87	0.156
669.32	0.156
669.76	0.155
670.21	0.156
670.65	0.155
671.10	0.155
671.54	0.155
671.99	0.155
672.43	0.155
672.88	0.154
673.32	0.154
673.77	0.150
674.21	0.153
674.66	0.153
675.10	0.155
675.55	0.151
675.99	0.154
676.44	0.152
676.88	0.155
677.33	0.152
677.77	0.152
678.22	0.152
678.66	0.152
679.11	0.149
679.55	0.153
679.99	0.152
680.44	0.155
680.88	0.152
681.33	0.150
681.77	0.150
682.22	0.153
682.66	0.151
683.11	0.151
683.55	0.149
683.99	0.150
684.44	0.149
684.88	0.149
685.33	0.149
685.77	0.150
686.21	0.150
686.66	0.148
687.10	0.149
687.55	0.148
687.99	0.149
688.44	0.149
688.88	0.149
689.32	0.150
689.77	0.148
690.21	0.147
690.65	0.149
691.10	0.150
691.54	0.145
691.99	0.146
692.43	0.146
692.87	0.147
693.32	0.148
693.76	0.148
694.20	0.148
694.65	0.145
695.09	0.146
695.53	0.146
695.98	0.146
696.42	0.147
696.86	0.146
697.31	0.143
697.75	0.145
698.19	0.145
698.64	0.144
699.08	0.145
699.52	0.144
699.97	0.144
700.41	0.145
700.85	0.143
701.30	0.142
701.74	0.142
702.18	0.145
702.63	0.144
703.07	0.144
703.51	0.145
703.96	0.142
704.40	0.144
704.84	0.144
705.28	0.144
705.73	0.142
706.17	0.142
706.61	0.143
707.06	0.142
707.50	0.143
707.94	0.140
708.38	0.141
708.83	0.144
709.27	0.143
709.71	0.139
710.15	0.142
710.60	0.140
711.04	0.142
711.48	0.143
711.92	0.143
712.37	0.142
712.81	0.143
713.25	0.142
713.69	0.144
714.13	0.142
714.58	0.141
715.02	0.140
715.46	0.142
715.90	0.141
716.35	0.140
716.79	0.139
717.23	0.141
717.67	0.139
718.11	0.142
718.56	0.142
719.00	0.143
719.44	0.141
719.88	0.141
720.32	0.140
720.76	0.140
721.21	0.138
721.65	0.140
722.09	0.139
722.53	0.139
722.97	0.142
723.41	0.139
723.86	0.144
724.30	0.140
724.74	0.141
725.18	0.140
725.62	0.137
726.06	0.141
726.50	0.138
726.95	0.137
727.39	0.139
727.83	0.137
728.27	0.140
728.71	0.140
729.15	0.143
729.59	0.142
730.03	0.138
730.48	0.140
730.92	0.140
731.36	0.143
731.80	0.143
732.24	0.140
732.68	0.137
733.12	0.138
733.56	0.139
734.00	0.141
734.44	0.139
734.89	0.141
735.33	0.142
735.77	0.142
736.21	0.140
736.65	0.137
737.09	0.142
737.53	0.140
737.97	0.141
738.41	0.141
738.85	0.143
739.29	0.140
739.73	0.137
740.17	0.136
740.61	0.140
741.05	0.143
741.49	0.139
741.93	0.139
742.37	0.138
742.81	0.138
743.26	0.139
743.70	0.137
744.14	0.138
744.58	0.139
745.02	0.139
745.46	0.138
745.90	0.138
746.34	0.138
746.78	0.139
747.22	0.139
747.66	0.138
748.10	0.139
748.54	0.136
748.98	0.137
749.42	0.136
749.86	0.138
750.29	0.136
750.73	0.137
751.17	0.135
751.61	0.135
752.05	0.139
752.49	0.136
752.93	0.135
753.37	0.135
753.81	0.136
754.25	0.136
754.69	0.132
755.13	0.134
755.57	0.135
756.01	0.136
756.45	0.137
756.89	0.134
757.33	0.135
757.77	0.133
758.21	0.133
758.64	0.131
759.08	0.130
759.52	0.134
759.96	0.137
760.40	0.136
760.84	0.134
761.28	0.134
761.72	0.135
762.16	0.135
762.60	0.133
763.03	0.130
763.47	0.132
763.91	0.133
764.35	0.134
764.79	0.131
765.23	0.130
765.67	0.134
766.11	0.130
766.54	0.130
766.98	0.132
767.42	0.135
767.86	0.129
768.30	0.130
768.74	0.132
769.17	0.134
769.61	0.131
770.05	0.132
770.49	0.132
770.93	0.134
771.37	0.130
771.80	0.129
772.24	0.130
772.68	0.130
773.12	0.129
773.56	0.127
774.00	0.129
774.43	0.130
774.87	0.127
775.31	0.130
775.75	0.128
776.19	0.128
776.62	0.128
777.06	0.131
777.50	0.129
777.94	0.130
778.37	0.129
778.81	0.129
779.25	0.129
779.69	0.128
780.13	0.131
780.56	0.129
781.00	0.129
781.44	0.129
781.88	0.129
782.31	0.129
782.75	0.127
783.19	0.128
783.63	0.125
784.06	0.125
784.50	0.129
784.94	0.128
785.37	0.128
785.81	0.129
786.25	0.129
786.69	0.127
787.12	0.128
787.56	0.126
788.00	0.126
788.43	0.128
788.87	0.127
789.31	0.126
789.75	0.125
790.18	0.125
790.62	0.126
791.06	0.126
791.49	0.124
791.93	0.124
792.37	0.127
792.80	0.123
793.24	0.126
793.68	0.128
794.11	0.123
794.55	0.128
794.99	0.127
795.42	0.126
795.86	0.129
796.30	0.123
796.73	0.125
797.17	0.126
797.61	0.123
798.04	0.125
798.48	0.125
798.91	0.123
799.35	0.122
799.79	0.128
800.22	0.124
800.66	0.122
801.10	0.126
801.53	0.125
801.97	0.129
802.40	0.127
802.84	0.123
803.28	0.120
803.71	0.123
804.15	0.121
804.58	0.125
805.02	0.122
805.46	0.121
805.89	0.122
806.33	0.123
806.76	0.121
807.20	0.122
807.63	0.122
808.07	0.125
808.51	0.123
808.94	0.119
809.38	0.120
809.81	0.120
810.25	0.127
810.68	0.124
811.12	0.124
811.55	0.127
811.99	0.122
812.42	0.124
812.86	0.123
813.29	0.120
813.73	0.122
814.17	0.120
814.60	0.122
815.04	0.117
815.47	0.121
815.91	0.120
