SpectraSuite Data File
++++++++++++++++++++++++++++++++++++
Date: Sun Apr 24 16:25:56 CEST 2016
User: spectrasuite
Dark Spectrum Present: Yes
Reference Spectrum Present: Yes
Number of Sampled Component Spectra: 1
Spectrometers: HR+C0708
Integration Time (usec): 1000 (HR+C0708)
Spectra Averaged: 10 (HR+C0708)
Boxcar Smoothing: 0 (HR+C0708)
Correct for Electrical Dark: No (HR+C0708)
Strobe/Lamp Enabled: No (HR+C0708)
Correct for Detector Non-linearity: No (HR+C0708)
Correct for Stray Light: No (HR+C0708)
Number of Pixels in Processed Spectrum: 2048
>>>>>Begin Processed Spectral Data<<<<<
188.76	-0.000
189.23	-0.000
189.70	-0.000
190.17	-0.000
190.64	-0.000
191.12	-0.000
191.59	-0.000
192.06	-0.000
192.53	-0.000
193.01	-0.000
193.48	-0.000
193.95	-0.000
194.42	-0.000
194.90	-0.000
195.37	-0.000
195.84	-0.000
196.31	-0.000
196.78	-0.000
197.26	-0.000
197.73	-0.000
198.20	-0.000
198.67	-0.000
199.14	-0.000
199.62	-0.000
200.09	-0.000
200.56	-0.000
201.03	-0.000
201.50	-0.000
201.97	1.017
202.45	1.853
202.92	1.098
203.39	-0.000
203.86	-0.000
204.33	-0.000
204.80	-0.000
205.28	-0.000
205.75	-0.000
206.22	-0.000
206.69	-0.000
207.16	-0.000
207.63	-0.000
208.11	0.774
208.58	-0.000
209.05	0.988
209.52	-0.000
209.99	-0.000
210.46	-0.000
210.93	-0.000
211.41	1.129
211.88	-0.000
212.35	-0.000
212.82	-0.000
213.29	2.117
213.76	-0.000
214.23	-0.000
214.70	-0.000
215.18	-0.000
215.65	1.630
216.12	2.312
216.59	-0.000
217.06	-0.000
217.53	1.247
218.00	-0.000
218.47	1.106
218.94	-0.000
219.41	-0.000
219.89	1.846
220.36	1.540
220.83	-0.000
221.30	-0.000
221.77	-0.000
222.24	-0.000
222.71	2.846
223.18	-0.000
223.65	-0.000
224.12	-0.000
224.59	-0.000
225.06	-0.000
225.54	-0.000
226.01	1.426
226.48	-0.000
226.95	2.414
227.42	-0.000
227.89	-0.000
228.36	2.134
228.83	-0.000
229.30	2.216
229.77	-0.000
230.24	1.939
230.71	-0.000
231.18	2.172
231.65	2.186
232.12	2.495
232.59	2.438
233.06	-0.000
233.53	-0.000
234.00	-0.000
234.47	-0.000
234.94	-0.000
235.41	-0.000
235.88	-0.000
236.35	-0.000
236.82	2.663
237.29	2.660
237.76	-0.000
238.23	-0.000
238.70	2.821
239.17	2.659
239.64	-0.000
240.11	-0.000
240.58	3.441
241.05	3.217
241.52	-0.000
241.99	-0.000
242.46	-0.000
242.93	-0.000
243.40	3.378
243.87	2.661
244.34	2.658
244.81	-0.000
245.28	-0.000
245.75	4.052
246.22	-0.000
246.69	2.906
247.16	2.954
247.63	3.006
248.10	-0.000
248.57	-0.000
249.04	4.705
249.51	-0.000
249.98	-0.000
250.45	-0.000
250.92	2.953
251.39	3.093
251.85	-0.000
252.32	-0.000
252.79	-0.000
253.26	4.416
253.73	-0.000
254.20	3.016
254.67	2.741
255.14	3.531
255.61	-0.000
256.08	3.605
256.55	3.954
257.02	3.051
257.49	-0.000
257.95	3.094
258.42	3.393
258.89	-0.000
259.36	2.988
259.83	3.322
260.30	3.213
260.77	4.099
261.24	3.209
261.71	3.400
262.17	4.359
262.64	2.806
263.11	3.273
263.58	3.900
264.05	3.835
264.52	2.910
264.99	2.748
265.46	2.822
265.92	2.945
266.39	2.890
266.86	2.935
267.33	3.152
267.80	2.579
268.27	2.866
268.74	2.716
269.20	2.835
269.67	2.773
270.14	2.551
270.61	2.629
271.08	2.569
271.55	2.551
272.01	2.490
272.48	2.532
272.95	2.614
273.42	2.529
273.89	2.531
274.36	2.450
274.82	2.371
275.29	2.353
275.76	2.416
276.23	2.347
276.70	2.352
277.16	2.288
277.63	2.317
278.10	2.283
278.57	2.258
279.04	2.317
279.50	2.307
279.97	2.310
280.44	2.188
280.91	2.205
281.38	2.177
281.84	2.202
282.31	2.179
282.78	2.237
283.25	2.133
283.72	2.122
284.18	2.154
284.65	2.136
285.12	2.142
285.59	2.070
286.05	2.118
286.52	2.099
286.99	2.062
287.46	2.075
287.92	2.083
288.39	2.034
288.86	2.013
289.33	2.024
289.79	2.024
290.26	2.056
290.73	1.988
291.20	2.046
291.66	2.042
292.13	1.997
292.60	1.969
293.07	1.981
293.53	1.909
294.00	1.940
294.47	1.944
294.93	1.932
295.40	1.948
295.87	1.903
296.34	1.930
296.80	1.882
297.27	1.901
297.74	1.862
298.20	1.884
298.67	1.839
299.14	1.870
299.60	1.854
300.07	1.849
300.54	1.859
301.01	1.804
301.47	1.814
301.94	1.790
302.41	1.782
302.87	1.792
303.34	1.838
303.81	1.789
304.27	1.756
304.74	1.755
305.21	1.753
305.67	1.737
306.14	1.721
306.61	1.744
307.07	1.742
307.54	1.728
308.01	1.706
308.47	1.702
308.94	1.722
309.40	1.703
309.87	1.702
310.34	1.692
310.80	1.688
311.27	1.667
311.74	1.659
312.20	1.653
312.67	1.652
313.13	1.641
313.60	1.644
314.07	1.615
314.53	1.608
315.00	1.609
315.47	1.613
315.93	1.602
316.40	1.609
316.86	1.588
317.33	1.592
317.80	1.561
318.26	1.564
318.73	1.570
319.19	1.577
319.66	1.554
320.13	1.545
320.59	1.546
321.06	1.556
321.52	1.538
321.99	1.521
322.45	1.527
322.92	1.507
323.39	1.508
323.85	1.516
324.32	1.494
324.78	1.504
325.25	1.502
325.71	1.490
326.18	1.463
326.64	1.497
327.11	1.460
327.58	1.470
328.04	1.460
328.51	1.460
328.97	1.445
329.44	1.434
329.90	1.430
330.37	1.426
330.83	1.404
331.30	1.411
331.76	1.415
332.23	1.399
332.69	1.383
333.16	1.369
333.62	1.365
334.09	1.370
334.56	1.347
335.02	1.346
335.49	1.330
335.95	1.317
336.42	1.300
336.88	1.310
337.35	1.299
337.81	1.281
338.28	1.264
338.74	1.263
339.20	1.260
339.67	1.244
340.13	1.236
340.60	1.214
341.06	1.200
341.53	1.184
341.99	1.189
342.46	1.166
342.92	1.158
343.39	1.148
343.85	1.128
344.32	1.123
344.78	1.110
345.25	1.095
345.71	1.082
346.17	1.072
346.64	1.059
347.10	1.036
347.57	1.013
348.03	1.001
348.50	0.985
348.96	0.975
349.43	0.959
349.89	0.939
350.35	0.932
350.82	0.924
351.28	0.910
351.75	0.887
352.21	0.888
352.67	0.871
353.14	0.859
353.60	0.842
354.07	0.827
354.53	0.813
355.00	0.810
355.46	0.794
355.92	0.784
356.39	0.762
356.85	0.758
357.31	0.753
357.78	0.744
358.24	0.725
358.71	0.724
359.17	0.712
359.63	0.707
360.10	0.709
360.56	0.694
361.03	0.690
361.49	0.683
361.95	0.680
362.42	0.673
362.88	0.666
363.34	0.661
363.81	0.657
364.27	0.656
364.73	0.650
365.20	0.651
365.66	0.648
366.12	0.641
366.59	0.636
367.05	0.639
367.51	0.640
367.98	0.624
368.44	0.627
368.90	0.625
369.37	0.621
369.83	0.619
370.29	0.621
370.76	0.613
371.22	0.612
371.68	0.609
372.15	0.604
372.61	0.604
373.07	0.603
373.54	0.602
374.00	0.598
374.46	0.597
374.92	0.597
375.39	0.593
375.85	0.587
376.31	0.590
376.78	0.584
377.24	0.589
377.70	0.585
378.16	0.576
378.63	0.580
379.09	0.578
379.55	0.580
380.01	0.573
380.48	0.574
380.94	0.572
381.40	0.568
381.87	0.566
382.33	0.563
382.79	0.565
383.25	0.561
383.72	0.564
384.18	0.558
384.64	0.552
385.10	0.556
385.56	0.555
386.03	0.552
386.49	0.548
386.95	0.545
387.41	0.545
387.88	0.544
388.34	0.539
388.80	0.542
389.26	0.540
389.72	0.542
390.19	0.536
390.65	0.537
391.11	0.536
391.57	0.529
392.04	0.532
392.50	0.525
392.96	0.525
393.42	0.524
393.88	0.526
394.34	0.523
394.81	0.521
395.27	0.516
395.73	0.521
396.19	0.517
396.65	0.515
397.12	0.513
397.58	0.508
398.04	0.509
398.50	0.512
398.96	0.508
399.42	0.512
399.89	0.507
400.35	0.506
400.81	0.502
401.27	0.503
401.73	0.503
402.19	0.500
402.65	0.499
403.12	0.491
403.58	0.494
404.04	0.494
404.50	0.493
404.96	0.490
405.42	0.492
405.88	0.488
406.34	0.490
406.81	0.482
407.27	0.486
407.73	0.480
408.19	0.479
408.65	0.481
409.11	0.478
409.57	0.482
410.03	0.478
410.49	0.477
410.96	0.473
411.42	0.472
411.88	0.473
412.34	0.470
412.80	0.472
413.26	0.465
413.72	0.468
414.18	0.463
414.64	0.463
415.10	0.467
415.56	0.464
416.02	0.462
416.48	0.458
416.95	0.461
417.41	0.458
417.87	0.454
418.33	0.458
418.79	0.454
419.25	0.454
419.71	0.453
420.17	0.453
420.63	0.449
421.09	0.448
421.55	0.447
422.01	0.446
422.47	0.448
422.93	0.445
423.39	0.443
423.85	0.445
424.31	0.440
424.77	0.441
425.23	0.441
425.69	0.443
426.15	0.437
426.61	0.433
427.07	0.433
427.53	0.434
427.99	0.430
428.45	0.429
428.91	0.434
429.37	0.425
429.83	0.426
430.29	0.426
430.75	0.428
431.21	0.429
431.67	0.424
432.13	0.425
432.59	0.422
433.05	0.423
433.51	0.417
433.97	0.420
434.43	0.422
434.89	0.420
435.35	0.420
435.81	0.415
436.27	0.413
436.73	0.415
437.19	0.412
437.65	0.415
438.11	0.409
438.57	0.408
439.03	0.410
439.48	0.410
439.94	0.405
440.40	0.406
440.86	0.406
441.32	0.401
441.78	0.405
442.24	0.402
442.70	0.402
443.16	0.399
443.62	0.399
444.08	0.399
444.54	0.400
444.99	0.397
445.45	0.398
445.91	0.393
446.37	0.395
446.83	0.393
447.29	0.390
447.75	0.390
448.21	0.391
448.67	0.389
449.12	0.388
449.58	0.386
450.04	0.381
450.50	0.385
450.96	0.385
451.42	0.379
451.88	0.381
452.34	0.384
452.79	0.381
453.25	0.382
453.71	0.379
454.17	0.379
454.63	0.383
455.09	0.381
455.55	0.377
456.00	0.374
456.46	0.373
456.92	0.375
457.38	0.374
457.84	0.369
458.30	0.371
458.75	0.370
459.21	0.365
459.67	0.368
460.13	0.368
460.59	0.369
461.04	0.366
461.50	0.368
461.96	0.364
462.42	0.364
462.88	0.363
463.33	0.360
463.79	0.360
464.25	0.362
464.71	0.362
465.17	0.362
465.62	0.359
466.08	0.359
466.54	0.356
467.00	0.359
467.46	0.358
467.91	0.356
468.37	0.355
468.83	0.354
469.29	0.353
469.74	0.353
470.20	0.353
470.66	0.350
471.12	0.347
471.57	0.348
472.03	0.348
472.49	0.348
472.95	0.348
473.40	0.346
473.86	0.344
474.32	0.342
474.78	0.345
475.23	0.342
475.69	0.344
476.15	0.344
476.60	0.342
477.06	0.340
477.52	0.340
477.98	0.336
478.43	0.335
478.89	0.339
479.35	0.337
479.80	0.339
480.26	0.336
480.72	0.335
481.18	0.336
481.63	0.333
482.09	0.334
482.55	0.334
483.00	0.331
483.46	0.332
483.92	0.329
484.37	0.331
484.83	0.325
485.29	0.327
485.74	0.329
486.20	0.326
486.66	0.328
487.11	0.326
487.57	0.324
488.03	0.324
488.48	0.325
488.94	0.322
489.40	0.322
489.85	0.321
490.31	0.324
490.77	0.321
491.22	0.319
491.68	0.319
492.13	0.320
492.59	0.320
493.05	0.317
493.50	0.318
493.96	0.315
494.42	0.316
494.87	0.315
495.33	0.313
495.78	0.315
496.24	0.316
496.70	0.314
497.15	0.313
497.61	0.312
498.06	0.309
498.52	0.308
498.98	0.310
499.43	0.311
499.89	0.310
500.34	0.310
500.80	0.306
501.25	0.307
501.71	0.306
502.17	0.305
502.62	0.309
503.08	0.305
503.53	0.305
503.99	0.300
504.44	0.302
504.90	0.302
505.36	0.300
505.81	0.302
506.27	0.301
506.72	0.299
507.18	0.298
507.63	0.297
508.09	0.300
508.54	0.298
509.00	0.299
509.45	0.296
509.91	0.296
510.36	0.298
510.82	0.295
511.27	0.293
511.73	0.295
512.19	0.294
512.64	0.292
513.10	0.292
513.55	0.295
514.01	0.290
514.46	0.292
514.92	0.291
515.37	0.289
515.83	0.291
516.28	0.288
516.73	0.288
517.19	0.287
517.64	0.287
518.10	0.286
518.55	0.285
519.01	0.285
519.46	0.282
519.92	0.284
520.37	0.281
520.83	0.283
521.28	0.283
521.74	0.284
522.19	0.285
522.65	0.281
523.10	0.281
523.55	0.280
524.01	0.282
524.46	0.278
524.92	0.278
525.37	0.277
525.83	0.277
526.28	0.279
526.73	0.279
527.19	0.279
527.64	0.279
528.10	0.277
528.55	0.274
529.01	0.277
529.46	0.273
529.91	0.274
530.37	0.274
530.82	0.273
531.28	0.271
531.73	0.269
532.18	0.270
532.64	0.272
533.09	0.270
533.54	0.269
534.00	0.268
534.45	0.271
534.91	0.270
535.36	0.271
535.81	0.267
536.27	0.267
536.72	0.269
537.17	0.266
537.63	0.267
538.08	0.265
538.54	0.266
538.99	0.264
539.44	0.263
539.90	0.263
540.35	0.262
540.80	0.261
541.26	0.264
541.71	0.261
542.16	0.260
542.62	0.260
543.07	0.260
543.52	0.260
543.98	0.260
544.43	0.260
544.88	0.259
545.34	0.262
545.79	0.259
546.24	0.256
546.69	0.260
547.15	0.255
547.60	0.256
548.05	0.258
548.51	0.256
548.96	0.256
549.41	0.255
549.86	0.256
550.32	0.255
550.77	0.254
551.22	0.255
551.68	0.251
552.13	0.251
552.58	0.249
553.03	0.251
553.49	0.252
553.94	0.252
554.39	0.250
554.84	0.252
555.30	0.251
555.75	0.251
556.20	0.248
556.65	0.249
557.11	0.249
557.56	0.246
558.01	0.249
558.46	0.252
558.92	0.248
559.37	0.246
559.82	0.245
560.27	0.248
560.72	0.247
561.18	0.245
561.63	0.243
562.08	0.241
562.53	0.244
562.99	0.244
563.44	0.244
563.89	0.242
564.34	0.242
564.79	0.244
565.25	0.241
565.70	0.240
566.15	0.241
566.60	0.238
567.05	0.240
567.50	0.240
567.96	0.239
568.41	0.241
568.86	0.239
569.31	0.235
569.76	0.236
570.21	0.236
570.67	0.237
571.12	0.236
571.57	0.236
572.02	0.234
572.47	0.233
572.92	0.234
573.37	0.235
573.83	0.233
574.28	0.234
574.73	0.234
575.18	0.234
575.63	0.236
576.08	0.232
576.53	0.232
576.98	0.231
577.44	0.229
577.89	0.231
578.34	0.229
578.79	0.229
579.24	0.228
579.69	0.230
580.14	0.226
580.59	0.225
581.04	0.227
581.49	0.227
581.95	0.226
582.40	0.228
582.85	0.226
583.30	0.226
583.75	0.224
584.20	0.225
584.65	0.223
585.10	0.224
585.55	0.223
586.00	0.224
586.45	0.223
586.90	0.226
587.35	0.224
587.80	0.224
588.25	0.225
588.71	0.224
589.16	0.224
589.61	0.222
590.06	0.222
590.51	0.222
590.96	0.221
591.41	0.222
591.86	0.222
592.31	0.220
592.76	0.221
593.21	0.221
593.66	0.221
594.11	0.222
594.56	0.219
595.01	0.221
595.46	0.220
595.91	0.220
596.36	0.218
596.81	0.219
597.26	0.218
597.71	0.216
598.16	0.215
598.61	0.215
599.06	0.217
599.51	0.219
599.96	0.217
600.41	0.217
600.86	0.216
601.31	0.216
601.76	0.214
602.21	0.216
602.65	0.217
603.10	0.216
603.55	0.215
604.00	0.215
604.45	0.214
604.90	0.214
605.35	0.214
605.80	0.214
606.25	0.216
606.70	0.212
607.15	0.211
607.60	0.212
608.05	0.211
608.50	0.211
608.95	0.209
609.39	0.211
609.84	0.211
610.29	0.211
610.74	0.212
611.19	0.210
611.64	0.210
612.09	0.208
612.54	0.210
612.99	0.209
613.44	0.208
613.88	0.210
614.33	0.210
614.78	0.207
615.23	0.207
615.68	0.206
616.13	0.207
616.58	0.206
617.03	0.206
617.47	0.207
617.92	0.205
618.37	0.205
618.82	0.206
619.27	0.205
619.72	0.204
620.17	0.203
620.61	0.204
621.06	0.204
621.51	0.204
621.96	0.202
622.41	0.204
622.86	0.201
623.30	0.203
623.75	0.204
624.20	0.202
624.65	0.201
625.10	0.201
625.54	0.200
625.99	0.201
626.44	0.202
626.89	0.202
627.34	0.203
627.78	0.201
628.23	0.198
628.68	0.199
629.13	0.201
629.58	0.200
630.02	0.199
630.47	0.198
630.92	0.198
631.37	0.199
631.81	0.199
632.26	0.197
632.71	0.198
633.16	0.197
633.61	0.198
634.05	0.196
634.50	0.197
634.95	0.197
635.40	0.196
635.84	0.198
636.29	0.195
636.74	0.195
637.18	0.198
637.63	0.195
638.08	0.194
638.53	0.193
638.97	0.195
639.42	0.195
639.87	0.196
640.32	0.195
640.76	0.197
641.21	0.196
641.66	0.196
642.10	0.195
642.55	0.193
643.00	0.191
643.44	0.193
643.89	0.194
644.34	0.194
644.79	0.194
645.23	0.193
645.68	0.193
646.13	0.193
646.57	0.193
647.02	0.190
647.47	0.194
647.91	0.192
648.36	0.192
648.81	0.193
649.25	0.189
649.70	0.190
650.15	0.189
650.59	0.192
651.04	0.190
651.48	0.192
651.93	0.194
652.38	0.190
652.82	0.191
653.27	0.188
653.72	0.191
654.16	0.188
654.61	0.189
655.06	0.189
655.50	0.188
655.95	0.188
656.39	0.182
656.84	0.186
657.29	0.191
657.73	0.188
658.18	0.187
658.62	0.187
659.07	0.187
659.52	0.188
659.96	0.187
660.41	0.188
660.85	0.185
661.30	0.186
661.74	0.187
662.19	0.188
662.64	0.186
663.08	0.186
663.53	0.187
663.97	0.185
664.42	0.185
664.86	0.184
665.31	0.185
665.75	0.182
666.20	0.185
666.65	0.183
667.09	0.184
667.54	0.185
667.98	0.183
668.43	0.181
668.87	0.180
669.32	0.182
669.76	0.182
670.21	0.182
670.65	0.178
671.10	0.181
671.54	0.181
671.99	0.179
672.43	0.180
672.88	0.180
673.32	0.180
673.77	0.176
674.21	0.178
674.66	0.179
675.10	0.177
675.55	0.176
675.99	0.178
676.44	0.176
676.88	0.176
677.33	0.176
677.77	0.175
678.22	0.173
678.66	0.173
679.11	0.172
679.55	0.174
679.99	0.173
680.44	0.176
680.88	0.172
681.33	0.169
681.77	0.172
682.22	0.170
682.66	0.170
683.11	0.169
683.55	0.169
683.99	0.168
684.44	0.167
684.88	0.167
685.33	0.167
685.77	0.168
686.21	0.167
686.66	0.168
687.10	0.165
687.55	0.166
687.99	0.167
688.44	0.166
688.88	0.165
689.32	0.166
689.77	0.164
690.21	0.164
690.65	0.163
691.10	0.164
691.54	0.165
691.99	0.163
692.43	0.162
692.87	0.161
693.32	0.163
693.76	0.163
694.20	0.163
694.65	0.161
695.09	0.161
695.53	0.162
695.98	0.160
696.42	0.161
696.86	0.160
697.31	0.160
697.75	0.160
698.19	0.157
698.64	0.158
699.08	0.158
699.52	0.158
699.97	0.161
700.41	0.160
700.85	0.160
701.30	0.157
701.74	0.158
702.18	0.159
702.63	0.158
703.07	0.160
703.51	0.159
703.96	0.156
704.40	0.157
704.84	0.157
705.28	0.157
705.73	0.158
706.17	0.158
706.61	0.158
707.06	0.155
707.50	0.158
707.94	0.151
708.38	0.154
708.83	0.157
709.27	0.157
709.71	0.153
710.15	0.154
710.60	0.155
711.04	0.155
711.48	0.156
711.92	0.155
712.37	0.152
712.81	0.157
713.25	0.156
713.69	0.153
714.13	0.158
714.58	0.153
715.02	0.154
715.46	0.153
715.90	0.152
716.35	0.151
716.79	0.153
717.23	0.156
717.67	0.155
718.11	0.155
718.56	0.152
719.00	0.154
719.44	0.153
719.88	0.151
720.32	0.153
720.76	0.154
721.21	0.152
721.65	0.152
722.09	0.152
722.53	0.152
722.97	0.152
723.41	0.152
723.86	0.152
724.30	0.152
724.74	0.154
725.18	0.153
725.62	0.151
726.06	0.153
726.50	0.151
726.95	0.151
727.39	0.152
727.83	0.150
728.27	0.152
728.71	0.151
729.15	0.153
729.59	0.151
730.03	0.151
730.48	0.153
730.92	0.149
731.36	0.152
731.80	0.153
732.24	0.152
732.68	0.150
733.12	0.149
733.56	0.150
734.00	0.150
734.44	0.150
734.89	0.152
735.33	0.152
735.77	0.156
736.21	0.150
736.65	0.151
737.09	0.151
737.53	0.153
737.97	0.152
738.41	0.152
738.85	0.155
739.29	0.152
739.73	0.148
740.17	0.151
740.61	0.153
741.05	0.153
741.49	0.151
741.93	0.147
742.37	0.147
742.81	0.151
743.26	0.150
743.70	0.150
744.14	0.151
744.58	0.150
745.02	0.151
745.46	0.149
745.90	0.151
746.34	0.150
746.78	0.150
747.22	0.150
747.66	0.151
748.10	0.151
748.54	0.148
748.98	0.149
749.42	0.148
749.86	0.149
750.29	0.146
750.73	0.147
751.17	0.146
751.61	0.148
752.05	0.150
752.49	0.146
752.93	0.146
753.37	0.148
753.81	0.144
754.25	0.147
754.69	0.146
755.13	0.143
755.57	0.146
756.01	0.146
756.45	0.148
756.89	0.148
757.33	0.147
757.77	0.146
758.21	0.145
758.64	0.145
759.08	0.143
759.52	0.146
759.96	0.147
760.40	0.145
760.84	0.144
761.28	0.145
761.72	0.143
762.16	0.144
762.60	0.143
763.03	0.143
763.47	0.144
763.91	0.145
764.35	0.142
764.79	0.141
765.23	0.140
765.67	0.142
766.11	0.140
766.54	0.139
766.98	0.144
767.42	0.141
767.86	0.139
768.30	0.144
768.74	0.145
769.17	0.143
769.61	0.145
770.05	0.142
770.49	0.142
770.93	0.142
771.37	0.141
771.80	0.140
772.24	0.139
772.68	0.138
773.12	0.139
773.56	0.141
774.00	0.139
774.43	0.139
774.87	0.138
775.31	0.140
775.75	0.140
776.19	0.141
776.62	0.137
777.06	0.140
777.50	0.139
777.94	0.139
778.37	0.137
778.81	0.137
779.25	0.140
779.69	0.139
780.13	0.140
780.56	0.139
781.00	0.141
781.44	0.139
781.88	0.138
782.31	0.138
782.75	0.139
783.19	0.139
783.63	0.138
784.06	0.135
784.50	0.141
784.94	0.135
785.37	0.138
785.81	0.140
786.25	0.136
786.69	0.137
787.12	0.136
787.56	0.134
788.00	0.140
788.43	0.140
788.87	0.135
789.31	0.135
789.75	0.140
790.18	0.134
790.62	0.134
791.06	0.136
791.49	0.133
791.93	0.135
792.37	0.139
792.80	0.135
793.24	0.133
793.68	0.136
794.11	0.133
794.55	0.139
794.99	0.138
795.42	0.135
795.86	0.135
796.30	0.133
796.73	0.137
797.17	0.135
797.61	0.132
798.04	0.133
798.48	0.136
798.91	0.134
799.35	0.132
799.79	0.138
800.22	0.134
800.66	0.131
801.10	0.135
801.53	0.132
801.97	0.140
802.40	0.134
802.84	0.135
803.28	0.132
803.71	0.133
804.15	0.134
804.58	0.131
805.02	0.136
805.46	0.128
805.89	0.131
806.33	0.134
806.76	0.133
807.20	0.136
807.63	0.132
808.07	0.135
808.51	0.131
808.94	0.129
809.38	0.133
809.81	0.133
810.25	0.135
810.68	0.134
811.12	0.131
811.55	0.137
811.99	0.133
812.42	0.136
812.86	0.131
813.29	0.132
813.73	0.131
814.17	0.132
814.60	0.130
