SpectraSuite Data File
++++++++++++++++++++++++++++++++++++
Date: Sun Apr 24 16:09:51 CEST 2016
User: spectrasuite
Dark Spectrum Present: Yes
Reference Spectrum Present: Yes
Number of Sampled Component Spectra: 1
Spectrometers: HR+C0708
Integration Time (usec): 1000 (HR+C0708)
Spectra Averaged: 10 (HR+C0708)
Boxcar Smoothing: 0 (HR+C0708)
Correct for Electrical Dark: No (HR+C0708)
Strobe/Lamp Enabled: No (HR+C0708)
Correct for Detector Non-linearity: No (HR+C0708)
Correct for Stray Light: No (HR+C0708)
Number of Pixels in Processed Spectrum: 2048
>>>>>Begin Processed Spectral Data<<<<<
188.76	-0.000
189.23	-0.000
189.70	-0.000
190.17	-0.000
190.64	-0.000
191.12	-0.000
191.59	-0.000
192.06	-0.000
192.53	-0.000
193.01	-0.000
193.48	-0.000
193.95	-0.000
194.42	-0.000
194.90	0.968
195.37	-0.000
195.84	-0.000
196.31	-0.000
196.78	-0.000
197.26	-0.000
197.73	-0.000
198.20	-0.000
198.67	-0.000
199.14	-0.000
199.62	-0.000
200.09	-0.000
200.56	-0.000
201.03	-0.000
201.50	1.106
201.97	-0.000
202.45	1.619
202.92	0.722
203.39	-0.000
203.86	1.634
204.33	1.969
204.80	-0.000
205.28	1.515
205.75	-0.000
206.22	-0.000
206.69	0.900
207.16	-0.000
207.63	1.254
208.11	0.770
208.58	2.004
209.05	1.194
209.52	2.712
209.99	-0.000
210.46	1.282
210.93	-0.000
211.41	1.720
211.88	1.525
212.35	-0.000
212.82	-0.000
213.29	0.956
213.76	-0.000
214.23	1.117
214.70	-0.000
215.18	-0.000
215.65	-0.000
216.12	1.342
216.59	-0.000
217.06	1.718
217.53	1.535
218.00	1.196
218.47	1.054
218.94	1.827
219.41	-0.000
219.89	-0.000
220.36	-0.000
220.83	-0.000
221.30	1.497
221.77	-0.000
222.24	-0.000
222.71	-0.000
223.18	-0.000
223.65	2.027
224.12	-0.000
224.59	-0.000
225.06	-0.000
225.54	1.773
226.01	1.325
226.48	1.732
226.95	-0.000
227.42	2.138
227.89	-0.000
228.36	1.820
228.83	1.905
229.30	-0.000
229.77	-0.000
230.24	1.586
230.71	-0.000
231.18	-0.000
231.65	2.395
232.12	2.058
232.59	3.517
233.06	2.751
233.53	-0.000
234.00	2.175
234.47	-0.000
234.94	-0.000
235.41	2.312
235.88	-0.000
236.35	-0.000
236.82	2.356
237.29	2.751
237.76	-0.000
238.23	2.539
238.70	3.724
239.17	2.317
239.64	-0.000
240.11	-0.000
240.58	2.910
241.05	-0.000
241.52	3.596
241.99	-0.000
242.46	3.134
242.93	-0.000
243.40	2.713
243.87	2.919
244.34	2.621
244.81	3.327
245.28	-0.000
245.75	-0.000
246.22	-0.000
246.69	3.097
247.16	2.916
247.63	3.307
248.10	3.614
248.57	3.319
249.04	-0.000
249.51	-0.000
249.98	-0.000
250.45	3.458
250.92	3.117
251.39	-0.000
251.85	-0.000
252.32	3.533
252.79	-0.000
253.26	3.814
253.73	-0.000
254.20	3.160
254.67	3.762
255.14	-0.000
255.61	-0.000
256.08	3.556
256.55	-0.000
257.02	4.870
257.49	3.092
257.95	3.048
258.42	3.957
258.89	2.799
259.36	3.198
259.83	3.378
260.30	-0.000
260.77	-0.000
261.24	2.932
261.71	3.465
262.17	3.682
262.64	2.711
263.11	3.058
263.58	-0.000
264.05	2.736
264.52	2.858
264.99	3.070
265.46	2.893
265.92	3.292
266.39	2.767
266.86	3.069
267.33	2.984
267.80	2.543
268.27	2.922
268.74	2.671
269.20	2.782
269.67	2.729
270.14	2.764
270.61	2.639
271.08	2.702
271.55	2.618
272.01	2.616
272.48	2.623
272.95	2.603
273.42	2.631
273.89	2.712
274.36	2.516
274.82	2.441
275.29	2.444
275.76	2.458
276.23	2.464
276.70	2.422
277.16	2.362
277.63	2.337
278.10	2.320
278.57	2.379
279.04	2.467
279.50	2.422
279.97	2.349
280.44	2.245
280.91	2.262
281.38	2.257
281.84	2.279
282.31	2.252
282.78	2.323
283.25	2.270
283.72	2.258
284.18	2.225
284.65	2.202
285.12	2.215
285.59	2.131
286.05	2.175
286.52	2.165
286.99	2.186
287.46	2.149
287.92	2.178
288.39	2.098
288.86	2.163
289.33	2.095
289.79	2.119
290.26	2.112
290.73	2.076
291.20	2.032
291.66	2.103
292.13	2.059
292.60	2.006
293.07	2.039
293.53	1.987
294.00	2.040
294.47	2.015
294.93	1.979
295.40	2.029
295.87	1.996
296.34	1.997
296.80	1.943
297.27	1.963
297.74	1.942
298.20	1.977
298.67	1.913
299.14	1.953
299.60	1.929
300.07	1.927
300.54	1.900
301.01	1.899
301.47	1.859
301.94	1.883
302.41	1.883
302.87	1.844
303.34	1.915
303.81	1.816
304.27	1.855
304.74	1.843
305.21	1.805
305.67	1.846
306.14	1.803
306.61	1.818
307.07	1.798
307.54	1.797
308.01	1.786
308.47	1.811
308.94	1.809
309.40	1.778
309.87	1.773
310.34	1.748
310.80	1.771
311.27	1.765
311.74	1.763
312.20	1.735
312.67	1.742
313.13	1.705
313.60	1.746
314.07	1.733
314.53	1.708
315.00	1.687
315.47	1.707
315.93	1.707
316.40	1.682
316.86	1.671
317.33	1.669
317.80	1.670
318.26	1.653
318.73	1.672
319.19	1.662
319.66	1.630
320.13	1.641
320.59	1.640
321.06	1.641
321.52	1.651
321.99	1.600
322.45	1.616
322.92	1.586
323.39	1.602
323.85	1.602
324.32	1.610
324.78	1.589
325.25	1.604
325.71	1.560
326.18	1.561
326.64	1.589
327.11	1.536
327.58	1.547
328.04	1.528
328.51	1.515
328.97	1.524
329.44	1.518
329.90	1.476
330.37	1.512
330.83	1.477
331.30	1.489
331.76	1.469
332.23	1.450
332.69	1.462
333.16	1.428
333.62	1.406
334.09	1.412
334.56	1.396
335.02	1.390
335.49	1.387
335.95	1.360
336.42	1.342
336.88	1.343
337.35	1.322
337.81	1.322
338.28	1.304
338.74	1.291
339.20	1.281
339.67	1.266
340.13	1.240
340.60	1.236
341.06	1.212
341.53	1.197
341.99	1.193
342.46	1.158
342.92	1.156
343.39	1.130
343.85	1.119
344.32	1.110
344.78	1.095
345.25	1.087
345.71	1.070
346.17	1.055
346.64	1.033
347.10	1.023
347.57	0.990
348.03	0.978
348.50	0.956
348.96	0.947
349.43	0.937
349.89	0.911
350.35	0.897
350.82	0.896
351.28	0.872
351.75	0.861
352.21	0.854
352.67	0.835
353.14	0.833
353.60	0.812
354.07	0.795
354.53	0.787
355.00	0.774
355.46	0.762
355.92	0.760
356.39	0.753
356.85	0.739
357.31	0.735
357.78	0.723
358.24	0.713
358.71	0.702
359.17	0.696
359.63	0.691
360.10	0.687
360.56	0.678
361.03	0.679
361.49	0.670
361.95	0.669
362.42	0.660
362.88	0.655
363.34	0.652
363.81	0.645
364.27	0.641
364.73	0.639
365.20	0.640
365.66	0.634
366.12	0.627
366.59	0.627
367.05	0.625
367.51	0.626
367.98	0.617
368.44	0.613
368.90	0.613
369.37	0.608
369.83	0.611
370.29	0.603
370.76	0.600
371.22	0.604
371.68	0.597
372.15	0.591
372.61	0.593
373.07	0.594
373.54	0.588
374.00	0.591
374.46	0.585
374.92	0.585
375.39	0.583
375.85	0.580
376.31	0.579
376.78	0.578
377.24	0.576
377.70	0.576
378.16	0.567
378.63	0.568
379.09	0.571
379.55	0.566
380.01	0.563
380.48	0.561
380.94	0.563
381.40	0.558
381.87	0.554
382.33	0.556
382.79	0.553
383.25	0.551
383.72	0.557
384.18	0.549
384.64	0.545
385.10	0.547
385.56	0.548
386.03	0.539
386.49	0.540
386.95	0.540
387.41	0.537
387.88	0.535
388.34	0.533
388.80	0.536
389.26	0.531
389.72	0.532
390.19	0.529
390.65	0.528
391.11	0.523
391.57	0.527
392.04	0.519
392.50	0.520
392.96	0.516
393.42	0.517
393.88	0.516
394.34	0.514
394.81	0.511
395.27	0.510
395.73	0.512
396.19	0.511
396.65	0.507
397.12	0.505
397.58	0.503
398.04	0.501
398.50	0.502
398.96	0.498
399.42	0.499
399.89	0.498
400.35	0.495
400.81	0.496
401.27	0.495
401.73	0.495
402.19	0.491
402.65	0.490
403.12	0.486
403.58	0.487
404.04	0.484
404.50	0.487
404.96	0.482
405.42	0.482
405.88	0.482
406.34	0.481
406.81	0.478
407.27	0.479
407.73	0.473
408.19	0.474
408.65	0.469
409.11	0.470
409.57	0.471
410.03	0.469
410.49	0.470
410.96	0.467
411.42	0.466
411.88	0.459
412.34	0.462
412.80	0.459
413.26	0.456
413.72	0.462
414.18	0.458
414.64	0.454
415.10	0.456
415.56	0.457
416.02	0.456
416.48	0.451
416.95	0.447
417.41	0.449
417.87	0.449
418.33	0.450
418.79	0.444
419.25	0.444
419.71	0.445
420.17	0.443
420.63	0.442
421.09	0.438
421.55	0.438
422.01	0.441
422.47	0.442
422.93	0.436
423.39	0.435
423.85	0.433
424.31	0.433
424.77	0.435
425.23	0.432
425.69	0.435
426.15	0.429
426.61	0.431
427.07	0.424
427.53	0.427
427.99	0.421
428.45	0.423
428.91	0.423
429.37	0.421
429.83	0.421
430.29	0.418
430.75	0.422
431.21	0.420
431.67	0.422
432.13	0.419
432.59	0.416
433.05	0.415
433.51	0.413
433.97	0.411
434.43	0.413
434.89	0.416
435.35	0.410
435.81	0.407
436.27	0.404
436.73	0.407
437.19	0.407
437.65	0.407
438.11	0.403
438.57	0.402
439.03	0.404
439.48	0.399
439.94	0.400
440.40	0.399
440.86	0.403
441.32	0.396
441.78	0.395
442.24	0.396
442.70	0.394
443.16	0.391
443.62	0.390
444.08	0.393
444.54	0.393
444.99	0.391
445.45	0.388
445.91	0.386
446.37	0.391
446.83	0.385
447.29	0.381
447.75	0.385
448.21	0.389
448.67	0.382
449.12	0.383
449.58	0.381
450.04	0.382
450.50	0.379
450.96	0.381
451.42	0.377
451.88	0.372
452.34	0.376
452.79	0.374
453.25	0.375
453.71	0.372
454.17	0.371
454.63	0.376
455.09	0.374
455.55	0.372
456.00	0.369
456.46	0.373
456.92	0.366
457.38	0.366
457.84	0.361
458.30	0.362
458.75	0.363
459.21	0.361
459.67	0.365
460.13	0.364
460.59	0.363
461.04	0.360
461.50	0.360
461.96	0.359
462.42	0.357
462.88	0.356
463.33	0.355
463.79	0.353
464.25	0.355
464.71	0.355
465.17	0.355
465.62	0.352
466.08	0.355
466.54	0.352
467.00	0.351
467.46	0.350
467.91	0.349
468.37	0.349
468.83	0.346
469.29	0.349
469.74	0.348
470.20	0.348
470.66	0.346
471.12	0.341
471.57	0.344
472.03	0.343
472.49	0.340
472.95	0.343
473.40	0.341
473.86	0.340
474.32	0.335
474.78	0.340
475.23	0.337
475.69	0.339
476.15	0.333
476.60	0.339
477.06	0.336
477.52	0.333
477.98	0.333
478.43	0.331
478.89	0.331
479.35	0.332
479.80	0.333
480.26	0.332
480.72	0.333
481.18	0.332
481.63	0.327
482.09	0.328
482.55	0.329
483.00	0.327
483.46	0.325
483.92	0.323
484.37	0.325
484.83	0.323
485.29	0.320
485.74	0.322
486.20	0.324
486.66	0.323
487.11	0.322
487.57	0.319
488.03	0.319
488.48	0.320
488.94	0.317
489.40	0.316
489.85	0.320
490.31	0.319
490.77	0.315
491.22	0.314
491.68	0.313
492.13	0.313
492.59	0.312
493.05	0.312
493.50	0.312
493.96	0.310
494.42	0.310
494.87	0.308
495.33	0.306
495.78	0.309
496.24	0.309
496.70	0.305
497.15	0.307
497.61	0.308
498.06	0.305
498.52	0.303
498.98	0.301
499.43	0.304
499.89	0.301
500.34	0.302
500.80	0.303
501.25	0.302
501.71	0.298
502.17	0.300
502.62	0.302
503.08	0.299
503.53	0.298
503.99	0.295
504.44	0.297
504.90	0.298
505.36	0.294
505.81	0.298
506.27	0.296
506.72	0.296
507.18	0.296
507.63	0.292
508.09	0.294
508.54	0.290
509.00	0.292
509.45	0.291
509.91	0.292
510.36	0.292
510.82	0.291
511.27	0.288
511.73	0.288
512.19	0.288
512.64	0.289
513.10	0.287
513.55	0.288
514.01	0.283
514.46	0.285
514.92	0.284
515.37	0.284
515.83	0.285
516.28	0.284
516.73	0.280
517.19	0.283
517.64	0.281
518.10	0.282
518.55	0.278
519.01	0.278
519.46	0.279
519.92	0.280
520.37	0.275
520.83	0.275
521.28	0.280
521.74	0.277
522.19	0.278
522.65	0.274
523.10	0.275
523.55	0.274
524.01	0.277
524.46	0.273
524.92	0.272
525.37	0.274
525.83	0.275
526.28	0.275
526.73	0.274
527.19	0.273
527.64	0.274
528.10	0.271
528.55	0.270
529.01	0.273
529.46	0.270
529.91	0.269
530.37	0.267
530.82	0.270
531.28	0.265
531.73	0.264
532.18	0.266
532.64	0.265
533.09	0.264
533.54	0.266
534.00	0.262
534.45	0.266
534.91	0.263
535.36	0.265
535.81	0.263
536.27	0.260
536.72	0.263
537.17	0.261
537.63	0.262
538.08	0.258
538.54	0.263
538.99	0.261
539.44	0.261
539.90	0.259
540.35	0.256
540.80	0.260
541.26	0.255
541.71	0.256
542.16	0.256
542.62	0.257
543.07	0.256
543.52	0.256
543.98	0.255
544.43	0.254
544.88	0.255
545.34	0.254
545.79	0.252
546.24	0.251
546.69	0.254
547.15	0.251
547.60	0.250
548.05	0.253
548.51	0.250
548.96	0.249
549.41	0.251
549.86	0.248
550.32	0.251
550.77	0.251
551.22	0.248
551.68	0.245
552.13	0.246
552.58	0.244
553.03	0.245
553.49	0.245
553.94	0.245
554.39	0.246
554.84	0.247
555.30	0.245
555.75	0.245
556.20	0.244
556.65	0.242
557.11	0.245
557.56	0.241
558.01	0.243
558.46	0.243
558.92	0.241
559.37	0.240
559.82	0.242
560.27	0.241
560.72	0.238
561.18	0.239
561.63	0.236
562.08	0.236
562.53	0.238
562.99	0.239
563.44	0.236
563.89	0.234
564.34	0.236
564.79	0.237
565.25	0.235
565.70	0.235
566.15	0.235
566.60	0.233
567.05	0.237
567.50	0.233
567.96	0.229
568.41	0.233
568.86	0.231
569.31	0.230
569.76	0.229
570.21	0.231
570.67	0.232
571.12	0.233
571.57	0.229
572.02	0.229
572.47	0.228
572.92	0.229
573.37	0.227
573.83	0.226
574.28	0.227
574.73	0.226
575.18	0.226
575.63	0.228
576.08	0.225
576.53	0.224
576.98	0.226
577.44	0.222
577.89	0.224
578.34	0.223
578.79	0.221
579.24	0.223
579.69	0.222
580.14	0.221
580.59	0.220
581.04	0.218
581.49	0.218
581.95	0.219
582.40	0.220
582.85	0.220
583.30	0.218
583.75	0.217
584.20	0.220
584.65	0.217
585.10	0.216
585.55	0.217
586.00	0.217
586.45	0.218
586.90	0.217
587.35	0.217
587.80	0.215
588.25	0.216
588.71	0.216
589.16	0.213
589.61	0.214
590.06	0.214
590.51	0.213
590.96	0.214
591.41	0.214
591.86	0.214
592.31	0.213
592.76	0.212
593.21	0.213
593.66	0.213
594.11	0.212
594.56	0.211
595.01	0.212
595.46	0.210
595.91	0.209
596.36	0.210
596.81	0.210
597.26	0.209
597.71	0.210
598.16	0.209
598.61	0.208
599.06	0.208
599.51	0.210
599.96	0.208
600.41	0.208
600.86	0.208
601.31	0.206
601.76	0.207
602.21	0.208
602.65	0.208
603.10	0.206
603.55	0.204
604.00	0.205
604.45	0.204
604.90	0.204
605.35	0.203
605.80	0.204
606.25	0.207
606.70	0.205
607.15	0.203
607.60	0.202
608.05	0.202
608.50	0.203
608.95	0.201
609.39	0.203
609.84	0.201
610.29	0.200
610.74	0.201
611.19	0.201
611.64	0.200
612.09	0.199
612.54	0.198
612.99	0.199
613.44	0.199
613.88	0.199
614.33	0.198
614.78	0.198
615.23	0.197
615.68	0.198
616.13	0.199
616.58	0.195
617.03	0.196
617.47	0.196
617.92	0.197
618.37	0.194
618.82	0.194
619.27	0.197
619.72	0.194
620.17	0.194
620.61	0.194
621.06	0.193
621.51	0.193
621.96	0.192
622.41	0.193
622.86	0.192
623.30	0.192
623.75	0.192
624.20	0.192
624.65	0.192
625.10	0.191
625.54	0.192
625.99	0.192
626.44	0.189
626.89	0.188
627.34	0.192
627.78	0.189
628.23	0.189
628.68	0.188
629.13	0.187
629.58	0.188
630.02	0.186
630.47	0.186
630.92	0.188
631.37	0.187
631.81	0.189
632.26	0.187
632.71	0.189
633.16	0.187
633.61	0.186
634.05	0.185
634.50	0.187
634.95	0.185
635.40	0.187
635.84	0.186
636.29	0.186
636.74	0.185
637.18	0.185
637.63	0.185
638.08	0.183
638.53	0.186
638.97	0.184
639.42	0.185
639.87	0.184
640.32	0.182
640.76	0.182
641.21	0.181
641.66	0.183
642.10	0.182
642.55	0.180
643.00	0.180
643.44	0.182
643.89	0.181
644.34	0.180
644.79	0.181
645.23	0.180
645.68	0.183
646.13	0.179
646.57	0.180
647.02	0.178
647.47	0.182
647.91	0.179
648.36	0.179
648.81	0.180
649.25	0.178
649.70	0.177
650.15	0.178
650.59	0.176
651.04	0.180
651.48	0.179
651.93	0.177
652.38	0.176
652.82	0.175
653.27	0.175
653.72	0.175
654.16	0.176
654.61	0.177
655.06	0.176
655.50	0.174
655.95	0.173
656.39	0.169
656.84	0.172
657.29	0.175
657.73	0.176
658.18	0.174
658.62	0.173
659.07	0.175
659.52	0.174
659.96	0.174
660.41	0.177
660.85	0.173
661.30	0.172
661.74	0.173
662.19	0.171
662.64	0.172
663.08	0.172
663.53	0.171
663.97	0.170
664.42	0.171
664.86	0.172
665.31	0.172
665.75	0.168
666.20	0.171
666.65	0.171
667.09	0.169
667.54	0.172
667.98	0.169
668.43	0.169
668.87	0.168
669.32	0.169
669.76	0.168
670.21	0.169
670.65	0.166
671.10	0.168
671.54	0.168
671.99	0.165
672.43	0.167
672.88	0.167
673.32	0.167
673.77	0.165
674.21	0.164
674.66	0.166
675.10	0.166
675.55	0.165
675.99	0.166
676.44	0.166
676.88	0.166
677.33	0.163
677.77	0.165
678.22	0.163
678.66	0.163
679.11	0.165
679.55	0.165
679.99	0.163
680.44	0.163
680.88	0.163
681.33	0.163
681.77	0.160
682.22	0.163
682.66	0.162
683.11	0.164
683.55	0.162
683.99	0.162
684.44	0.162
684.88	0.160
685.33	0.162
685.77	0.161
686.21	0.160
686.66	0.161
687.10	0.159
687.55	0.160
687.99	0.162
688.44	0.161
688.88	0.159
689.32	0.160
689.77	0.158
690.21	0.160
690.65	0.159
691.10	0.160
691.54	0.160
691.99	0.160
692.43	0.156
692.87	0.156
693.32	0.158
693.76	0.157
694.20	0.157
694.65	0.157
695.09	0.158
695.53	0.155
695.98	0.156
696.42	0.158
696.86	0.158
697.31	0.154
697.75	0.156
698.19	0.156
698.64	0.157
699.08	0.155
699.52	0.154
699.97	0.156
700.41	0.157
700.85	0.157
701.30	0.153
701.74	0.154
702.18	0.155
702.63	0.154
703.07	0.156
703.51	0.156
703.96	0.152
704.40	0.154
704.84	0.156
705.28	0.152
705.73	0.155
706.17	0.155
706.61	0.154
707.06	0.154
707.50	0.152
707.94	0.153
708.38	0.151
708.83	0.154
709.27	0.153
709.71	0.153
710.15	0.153
710.60	0.152
711.04	0.152
711.48	0.153
711.92	0.153
712.37	0.151
712.81	0.154
713.25	0.150
713.69	0.152
714.13	0.152
714.58	0.153
715.02	0.149
715.46	0.151
715.90	0.150
716.35	0.149
716.79	0.150
717.23	0.151
717.67	0.150
718.11	0.154
718.56	0.151
719.00	0.152
719.44	0.153
719.88	0.151
720.32	0.150
720.76	0.151
721.21	0.150
721.65	0.150
722.09	0.150
722.53	0.150
722.97	0.152
723.41	0.149
723.86	0.152
724.30	0.151
724.74	0.153
725.18	0.151
725.62	0.149
726.06	0.149
726.50	0.149
726.95	0.146
727.39	0.152
727.83	0.149
728.27	0.149
728.71	0.152
729.15	0.151
729.59	0.150
730.03	0.148
730.48	0.151
730.92	0.148
731.36	0.151
731.80	0.151
732.24	0.150
732.68	0.149
733.12	0.146
733.56	0.149
734.00	0.148
734.44	0.148
734.89	0.152
735.33	0.151
735.77	0.152
736.21	0.150
736.65	0.148
737.09	0.151
737.53	0.150
737.97	0.150
738.41	0.150
738.85	0.152
739.29	0.151
739.73	0.148
740.17	0.148
740.61	0.148
741.05	0.151
741.49	0.149
741.93	0.149
742.37	0.148
742.81	0.149
743.26	0.148
743.70	0.150
744.14	0.147
744.58	0.148
745.02	0.147
745.46	0.149
745.90	0.148
746.34	0.152
746.78	0.148
747.22	0.147
747.66	0.148
748.10	0.150
748.54	0.146
748.98	0.146
749.42	0.148
749.86	0.148
750.29	0.146
750.73	0.143
751.17	0.143
751.61	0.144
752.05	0.149
752.49	0.145
752.93	0.145
753.37	0.144
753.81	0.145
754.25	0.145
754.69	0.141
755.13	0.143
755.57	0.145
756.01	0.145
756.45	0.145
756.89	0.143
757.33	0.144
757.77	0.143
758.21	0.145
758.64	0.142
759.08	0.141
759.52	0.142
759.96	0.144
760.40	0.146
760.84	0.142
761.28	0.143
761.72	0.142
762.16	0.141
762.60	0.141
763.03	0.142
763.47	0.140
763.91	0.143
764.35	0.139
764.79	0.139
765.23	0.138
765.67	0.141
766.11	0.138
766.54	0.137
766.98	0.141
767.42	0.140
767.86	0.141
768.30	0.142
768.74	0.142
769.17	0.141
769.61	0.140
770.05	0.139
770.49	0.143
770.93	0.142
771.37	0.137
771.80	0.139
772.24	0.138
772.68	0.140
773.12	0.139
773.56	0.136
774.00	0.138
774.43	0.137
774.87	0.138
775.31	0.137
775.75	0.136
776.19	0.139
776.62	0.137
777.06	0.138
777.50	0.136
777.94	0.136
778.37	0.134
778.81	0.137
779.25	0.135
779.69	0.138
780.13	0.136
780.56	0.139
781.00	0.136
781.44	0.137
781.88	0.135
782.31	0.133
782.75	0.138
783.19	0.135
783.63	0.134
784.06	0.134
784.50	0.139
784.94	0.135
785.37	0.136
785.81	0.137
786.25	0.136
786.69	0.132
787.12	0.137
787.56	0.132
788.00	0.133
788.43	0.137
788.87	0.133
789.31	0.134
789.75	0.135
790.18	0.135
790.62	0.137
791.06	0.134
791.49	0.131
791.93	0.134
792.37	0.137
792.80	0.131
793.24	0.135
793.68	0.137
794.11	0.134
794.55	0.135
794.99	0.136
795.42	0.135
795.86	0.137
796.30	0.132
796.73	0.133
797.17	0.130
797.61	0.130
798.04	0.135
798.48	0.134
798.91	0.132
799.35	0.135
799.79	0.134
800.22	0.136
800.66	0.130
801.10	0.132
801.53	0.131
801.97	0.136
802.40	0.135
802.84	0.133
803.28	0.129
803.71	0.132
804.15	0.133
804.58	0.131
805.02	0.133
805.46	0.129
805.89	0.131
806.33	0.132
806.76	0.127
807.20	0.129
807.63	0.132
808.07	0.135
808.51	0.132
808.94	0.128
809.38	0.129
809.81	0.131
810.25	0.134
810.68	0.130
811.12	0.133
811.55	0.135
811.99	0.131
812.42	0.133
812.86	0.131
813.29	0.131
813.73	0.130
814.17	0.126
814.60	0.130
815.04	0.129
