SpectraSuite Data File
++++++++++++++++++++++++++++++++++++
Date: Sun Apr 24 16:21:55 CEST 2016
User: spectrasuite
Dark Spectrum Present: Yes
Reference Spectrum Present: Yes
Number of Sampled Component Spectra: 1
Spectrometers: HR+C0708
Integration Time (usec): 1000 (HR+C0708)
Spectra Averaged: 10 (HR+C0708)
Boxcar Smoothing: 0 (HR+C0708)
Correct for Electrical Dark: No (HR+C0708)
Strobe/Lamp Enabled: No (HR+C0708)
Correct for Detector Non-linearity: No (HR+C0708)
Correct for Stray Light: No (HR+C0708)
Number of Pixels in Processed Spectrum: 2048
>>>>>Begin Processed Spectral Data<<<<<
188.76	-0.000
189.23	-0.000
189.70	-0.000
190.17	-0.000
190.64	-0.000
191.12	-0.000
191.59	-0.000
192.06	-0.000
192.53	-0.000
193.01	-0.000
193.48	-0.000
193.95	-0.000
194.42	-0.000
194.90	-0.000
195.37	-0.000
195.84	-0.000
196.31	-0.000
196.78	-0.000
197.26	-0.000
197.73	-0.000
198.20	-0.000
198.67	-0.000
199.14	-0.000
199.62	-0.000
200.09	-0.000
200.56	-0.000
201.03	-0.000
201.50	-0.000
201.97	-0.000
202.45	-0.000
202.92	1.554
203.39	-0.000
203.86	-0.000
204.33	-0.000
204.80	-0.000
205.28	-0.000
205.75	-0.000
206.22	-0.000
206.69	-0.000
207.16	-0.000
207.63	1.343
208.11	-0.000
208.58	-0.000
209.05	1.281
209.52	-0.000
209.99	-0.000
210.46	-0.000
210.93	-0.000
211.41	-0.000
211.88	-0.000
212.35	1.425
212.82	-0.000
213.29	-0.000
213.76	-0.000
214.23	1.375
214.70	-0.000
215.18	-0.000
215.65	-0.000
216.12	-0.000
216.59	-0.000
217.06	-0.000
217.53	-0.000
218.00	-0.000
218.47	-0.000
218.94	-0.000
219.41	-0.000
219.89	-0.000
220.36	-0.000
220.83	-0.000
221.30	-0.000
221.77	-0.000
222.24	-0.000
222.71	-0.000
223.18	-0.000
223.65	-0.000
224.12	-0.000
224.59	-0.000
225.06	-0.000
225.54	1.610
226.01	1.870
226.48	-0.000
226.95	-0.000
227.42	-0.000
227.89	-0.000
228.36	-0.000
228.83	-0.000
229.30	1.940
229.77	2.060
230.24	-0.000
230.71	-0.000
231.18	-0.000
231.65	-0.000
232.12	2.342
232.59	2.457
233.06	-0.000
233.53	2.446
234.00	-0.000
234.47	-0.000
234.94	-0.000
235.41	-0.000
235.88	-0.000
236.35	-0.000
236.82	-0.000
237.29	2.831
237.76	-0.000
238.23	-0.000
238.70	-0.000
239.17	3.128
239.64	-0.000
240.11	3.572
240.58	3.362
241.05	-0.000
241.52	-0.000
241.99	-0.000
242.46	2.958
242.93	-0.000
243.40	3.240
243.87	-0.000
244.34	2.849
244.81	3.214
245.28	-0.000
245.75	-0.000
246.22	-0.000
246.69	2.826
247.16	-0.000
247.63	3.483
248.10	-0.000
248.57	-0.000
249.04	-0.000
249.51	-0.000
249.98	-0.000
250.45	-0.000
250.92	-0.000
251.39	-0.000
251.85	3.235
252.32	-0.000
252.79	-0.000
253.26	3.054
253.73	-0.000
254.20	-0.000
254.67	4.063
255.14	3.388
255.61	-0.000
256.08	-0.000
256.55	-0.000
257.02	2.784
257.49	-0.000
257.95	-0.000
258.42	2.862
258.89	3.340
259.36	2.968
259.83	3.378
260.30	3.576
260.77	4.166
261.24	3.268
261.71	4.178
262.17	2.889
262.64	3.381
263.11	3.140
263.58	3.087
264.05	3.257
264.52	2.921
264.99	2.829
265.46	2.856
265.92	2.889
266.39	2.754
266.86	3.316
267.33	2.884
267.80	2.715
268.27	2.982
268.74	2.612
269.20	3.212
269.67	2.698
270.14	2.571
270.61	2.704
271.08	2.567
271.55	2.659
272.01	2.535
272.48	2.474
272.95	2.511
273.42	2.490
273.89	2.391
274.36	2.488
274.82	2.413
275.29	2.421
275.76	2.327
276.23	2.502
276.70	2.475
277.16	2.332
277.63	2.301
278.10	2.378
278.57	2.321
279.04	2.259
279.50	2.336
279.97	2.284
280.44	2.120
280.91	2.264
281.38	2.184
281.84	2.256
282.31	2.225
282.78	2.262
283.25	2.168
283.72	2.134
284.18	2.153
284.65	2.223
285.12	2.174
285.59	2.091
286.05	2.129
286.52	2.112
286.99	2.078
287.46	2.071
287.92	2.053
288.39	2.044
288.86	2.070
289.33	2.023
289.79	2.077
290.26	2.040
290.73	1.994
291.20	2.028
291.66	2.032
292.13	1.992
292.60	1.959
293.07	1.964
293.53	1.940
294.00	1.964
294.47	1.951
294.93	1.967
295.40	1.949
295.87	1.907
296.34	1.967
296.80	1.878
297.27	1.904
297.74	1.914
298.20	1.896
298.67	1.856
299.14	1.887
299.60	1.861
300.07	1.856
300.54	1.861
301.01	1.806
301.47	1.839
301.94	1.805
302.41	1.799
302.87	1.834
303.34	1.846
303.81	1.786
304.27	1.791
304.74	1.762
305.21	1.766
305.67	1.776
306.14	1.719
306.61	1.767
307.07	1.733
307.54	1.708
308.01	1.745
308.47	1.736
308.94	1.745
309.40	1.722
309.87	1.685
310.34	1.697
310.80	1.705
311.27	1.694
311.74	1.695
312.20	1.700
312.67	1.651
313.13	1.647
313.60	1.679
314.07	1.667
314.53	1.639
315.00	1.621
315.47	1.654
315.93	1.644
316.40	1.604
316.86	1.630
317.33	1.627
317.80	1.592
318.26	1.601
318.73	1.600
319.19	1.606
319.66	1.581
320.13	1.577
320.59	1.584
321.06	1.568
321.52	1.569
321.99	1.565
322.45	1.548
322.92	1.527
323.39	1.544
323.85	1.537
324.32	1.530
324.78	1.527
325.25	1.529
325.71	1.513
326.18	1.475
326.64	1.509
327.11	1.501
327.58	1.466
328.04	1.457
328.51	1.480
328.97	1.473
329.44	1.455
329.90	1.446
330.37	1.444
330.83	1.420
331.30	1.433
331.76	1.413
332.23	1.403
332.69	1.405
333.16	1.374
333.62	1.385
334.09	1.369
334.56	1.352
335.02	1.346
335.49	1.335
335.95	1.319
336.42	1.305
336.88	1.303
337.35	1.296
337.81	1.286
338.28	1.264
338.74	1.274
339.20	1.240
339.67	1.223
340.13	1.229
340.60	1.200
341.06	1.194
341.53	1.173
341.99	1.164
342.46	1.148
342.92	1.133
343.39	1.114
343.85	1.116
344.32	1.096
344.78	1.077
345.25	1.077
345.71	1.057
346.17	1.041
346.64	1.030
347.10	1.019
347.57	0.985
348.03	0.971
348.50	0.955
348.96	0.952
349.43	0.936
349.89	0.915
350.35	0.906
350.82	0.899
351.28	0.882
351.75	0.858
352.21	0.853
352.67	0.853
353.14	0.835
353.60	0.820
354.07	0.811
354.53	0.788
355.00	0.772
355.46	0.779
355.92	0.762
356.39	0.753
356.85	0.750
357.31	0.742
357.78	0.730
358.24	0.716
358.71	0.711
359.17	0.711
359.63	0.702
360.10	0.694
360.56	0.689
361.03	0.682
361.49	0.674
361.95	0.673
362.42	0.671
362.88	0.662
363.34	0.657
363.81	0.654
364.27	0.651
364.73	0.648
365.20	0.642
365.66	0.644
366.12	0.638
366.59	0.633
367.05	0.631
367.51	0.628
367.98	0.628
368.44	0.620
368.90	0.617
369.37	0.618
369.83	0.616
370.29	0.615
370.76	0.613
371.22	0.614
371.68	0.603
372.15	0.603
372.61	0.599
373.07	0.597
373.54	0.596
374.00	0.594
374.46	0.591
374.92	0.590
375.39	0.588
375.85	0.591
376.31	0.585
376.78	0.584
377.24	0.583
377.70	0.583
378.16	0.574
378.63	0.576
379.09	0.576
379.55	0.574
380.01	0.573
380.48	0.571
380.94	0.569
381.40	0.564
381.87	0.564
382.33	0.564
382.79	0.565
383.25	0.557
383.72	0.562
384.18	0.559
384.64	0.556
385.10	0.556
385.56	0.555
386.03	0.548
386.49	0.547
386.95	0.544
387.41	0.545
387.88	0.544
388.34	0.540
388.80	0.537
389.26	0.541
389.72	0.539
390.19	0.534
390.65	0.532
391.11	0.533
391.57	0.532
392.04	0.526
392.50	0.526
392.96	0.522
393.42	0.521
393.88	0.528
394.34	0.521
394.81	0.519
395.27	0.518
395.73	0.517
396.19	0.513
396.65	0.512
397.12	0.510
397.58	0.509
398.04	0.511
398.50	0.505
398.96	0.510
399.42	0.506
399.89	0.504
400.35	0.502
400.81	0.496
401.27	0.502
401.73	0.499
402.19	0.498
402.65	0.495
403.12	0.491
403.58	0.489
404.04	0.492
404.50	0.492
404.96	0.483
405.42	0.489
405.88	0.488
406.34	0.487
406.81	0.485
407.27	0.479
407.73	0.480
408.19	0.478
408.65	0.475
409.11	0.478
409.57	0.476
410.03	0.473
410.49	0.474
410.96	0.476
411.42	0.472
411.88	0.469
412.34	0.465
412.80	0.469
413.26	0.462
413.72	0.462
414.18	0.462
414.64	0.464
415.10	0.463
415.56	0.461
416.02	0.462
416.48	0.457
416.95	0.455
417.41	0.455
417.87	0.453
418.33	0.454
418.79	0.450
419.25	0.450
419.71	0.450
420.17	0.446
420.63	0.449
421.09	0.444
421.55	0.441
422.01	0.446
422.47	0.444
422.93	0.445
423.39	0.442
423.85	0.444
424.31	0.439
424.77	0.435
425.23	0.436
425.69	0.440
426.15	0.436
426.61	0.433
427.07	0.433
427.53	0.428
427.99	0.430
428.45	0.429
428.91	0.430
429.37	0.430
429.83	0.427
430.29	0.424
430.75	0.427
431.21	0.423
431.67	0.421
432.13	0.426
432.59	0.417
433.05	0.419
433.51	0.415
433.97	0.418
434.43	0.418
434.89	0.418
435.35	0.413
435.81	0.415
436.27	0.408
436.73	0.411
437.19	0.410
437.65	0.417
438.11	0.411
438.57	0.408
439.03	0.409
439.48	0.406
439.94	0.401
440.40	0.400
440.86	0.407
441.32	0.400
441.78	0.403
442.24	0.403
442.70	0.401
443.16	0.398
443.62	0.395
444.08	0.397
444.54	0.397
444.99	0.395
445.45	0.393
445.91	0.391
446.37	0.396
446.83	0.390
447.29	0.392
447.75	0.390
448.21	0.388
448.67	0.384
449.12	0.386
449.58	0.386
450.04	0.382
450.50	0.387
450.96	0.385
451.42	0.383
451.88	0.378
452.34	0.384
452.79	0.380
453.25	0.378
453.71	0.377
454.17	0.374
454.63	0.378
455.09	0.375
455.55	0.375
456.00	0.375
456.46	0.373
456.92	0.368
457.38	0.374
457.84	0.368
458.30	0.368
458.75	0.369
459.21	0.365
459.67	0.367
460.13	0.364
460.59	0.365
461.04	0.364
461.50	0.364
461.96	0.364
462.42	0.364
462.88	0.361
463.33	0.359
463.79	0.358
464.25	0.358
464.71	0.358
465.17	0.356
465.62	0.356
466.08	0.358
466.54	0.357
467.00	0.355
467.46	0.356
467.91	0.355
468.37	0.351
468.83	0.354
469.29	0.352
469.74	0.349
470.20	0.349
470.66	0.347
471.12	0.343
471.57	0.348
472.03	0.346
472.49	0.346
472.95	0.346
473.40	0.341
473.86	0.342
474.32	0.340
474.78	0.342
475.23	0.341
475.69	0.342
476.15	0.337
476.60	0.340
477.06	0.338
477.52	0.336
477.98	0.337
478.43	0.336
478.89	0.336
479.35	0.332
479.80	0.334
480.26	0.336
480.72	0.333
481.18	0.332
481.63	0.331
482.09	0.332
482.55	0.330
483.00	0.328
483.46	0.325
483.92	0.330
484.37	0.326
484.83	0.326
485.29	0.324
485.74	0.325
486.20	0.325
486.66	0.325
487.11	0.324
487.57	0.325
488.03	0.323
488.48	0.322
488.94	0.320
489.40	0.322
489.85	0.322
490.31	0.322
490.77	0.320
491.22	0.318
491.68	0.315
492.13	0.316
492.59	0.316
493.05	0.314
493.50	0.314
493.96	0.314
494.42	0.314
494.87	0.311
495.33	0.311
495.78	0.316
496.24	0.314
496.70	0.311
497.15	0.311
497.61	0.310
498.06	0.308
498.52	0.306
498.98	0.305
499.43	0.309
499.89	0.306
500.34	0.306
500.80	0.304
501.25	0.304
501.71	0.304
502.17	0.303
502.62	0.305
503.08	0.302
503.53	0.301
503.99	0.299
504.44	0.299
504.90	0.300
505.36	0.299
505.81	0.301
506.27	0.301
506.72	0.301
507.18	0.299
507.63	0.298
508.09	0.297
508.54	0.294
509.00	0.296
509.45	0.295
509.91	0.294
510.36	0.294
510.82	0.294
511.27	0.291
511.73	0.293
512.19	0.290
512.64	0.291
513.10	0.290
513.55	0.291
514.01	0.289
514.46	0.287
514.92	0.288
515.37	0.288
515.83	0.285
516.28	0.285
516.73	0.285
517.19	0.284
517.64	0.284
518.10	0.282
518.55	0.283
519.01	0.283
519.46	0.282
519.92	0.280
520.37	0.280
520.83	0.281
521.28	0.278
521.74	0.281
522.19	0.282
522.65	0.279
523.10	0.280
523.55	0.278
524.01	0.278
524.46	0.278
524.92	0.274
525.37	0.276
525.83	0.276
526.28	0.275
526.73	0.276
527.19	0.276
527.64	0.274
528.10	0.273
528.55	0.272
529.01	0.274
529.46	0.270
529.91	0.272
530.37	0.270
530.82	0.267
531.28	0.269
531.73	0.269
532.18	0.268
532.64	0.269
533.09	0.267
533.54	0.267
534.00	0.265
534.45	0.268
534.91	0.266
535.36	0.266
535.81	0.266
536.27	0.262
536.72	0.266
537.17	0.264
537.63	0.262
538.08	0.262
538.54	0.264
538.99	0.261
539.44	0.262
539.90	0.261
540.35	0.261
540.80	0.260
541.26	0.260
541.71	0.258
542.16	0.260
542.62	0.256
543.07	0.260
543.52	0.262
543.98	0.257
544.43	0.256
544.88	0.255
545.34	0.256
545.79	0.254
546.24	0.255
546.69	0.256
547.15	0.254
547.60	0.253
548.05	0.255
548.51	0.253
548.96	0.252
549.41	0.254
549.86	0.253
550.32	0.253
550.77	0.254
551.22	0.249
551.68	0.249
552.13	0.251
552.58	0.248
553.03	0.250
553.49	0.249
553.94	0.247
554.39	0.247
554.84	0.247
555.30	0.247
555.75	0.248
556.20	0.245
556.65	0.248
557.11	0.246
557.56	0.245
558.01	0.247
558.46	0.244
558.92	0.241
559.37	0.241
559.82	0.243
560.27	0.243
560.72	0.241
561.18	0.241
561.63	0.240
562.08	0.239
562.53	0.241
562.99	0.241
563.44	0.240
563.89	0.238
564.34	0.240
564.79	0.240
565.25	0.238
565.70	0.237
566.15	0.236
566.60	0.236
567.05	0.235
567.50	0.235
567.96	0.235
568.41	0.236
568.86	0.234
569.31	0.235
569.76	0.232
570.21	0.234
570.67	0.233
571.12	0.233
571.57	0.231
572.02	0.230
572.47	0.230
572.92	0.231
573.37	0.232
573.83	0.230
574.28	0.232
574.73	0.230
575.18	0.228
575.63	0.230
576.08	0.228
576.53	0.227
576.98	0.227
577.44	0.225
577.89	0.226
578.34	0.226
578.79	0.224
579.24	0.227
579.69	0.226
580.14	0.223
580.59	0.223
581.04	0.221
581.49	0.222
581.95	0.223
582.40	0.222
582.85	0.222
583.30	0.221
583.75	0.220
584.20	0.221
584.65	0.220
585.10	0.219
585.55	0.220
586.00	0.219
586.45	0.221
586.90	0.219
587.35	0.221
587.80	0.218
588.25	0.217
588.71	0.217
589.16	0.217
589.61	0.216
590.06	0.217
590.51	0.217
590.96	0.216
591.41	0.215
591.86	0.216
592.31	0.215
592.76	0.215
593.21	0.215
593.66	0.216
594.11	0.215
594.56	0.213
595.01	0.214
595.46	0.213
595.91	0.213
596.36	0.212
596.81	0.213
597.26	0.212
597.71	0.213
598.16	0.212
598.61	0.211
599.06	0.211
599.51	0.213
599.96	0.211
600.41	0.211
600.86	0.210
601.31	0.209
601.76	0.209
602.21	0.210
602.65	0.210
603.10	0.209
603.55	0.207
604.00	0.207
604.45	0.209
604.90	0.207
605.35	0.206
605.80	0.209
606.25	0.208
606.70	0.206
607.15	0.206
607.60	0.205
608.05	0.204
608.50	0.204
608.95	0.204
609.39	0.207
609.84	0.204
610.29	0.203
610.74	0.204
611.19	0.202
611.64	0.203
612.09	0.202
612.54	0.202
612.99	0.202
613.44	0.201
613.88	0.205
614.33	0.203
614.78	0.199
615.23	0.199
615.68	0.199
616.13	0.200
616.58	0.198
617.03	0.197
617.47	0.199
617.92	0.199
618.37	0.196
618.82	0.198
619.27	0.196
619.72	0.196
620.17	0.196
620.61	0.197
621.06	0.195
621.51	0.196
621.96	0.195
622.41	0.195
622.86	0.195
623.30	0.195
623.75	0.195
624.20	0.193
624.65	0.193
625.10	0.194
625.54	0.194
625.99	0.191
626.44	0.193
626.89	0.193
627.34	0.193
627.78	0.190
628.23	0.191
628.68	0.192
629.13	0.190
629.58	0.190
630.02	0.191
630.47	0.191
630.92	0.190
631.37	0.189
631.81	0.191
632.26	0.189
632.71	0.189
633.16	0.189
633.61	0.190
634.05	0.186
634.50	0.188
634.95	0.188
635.40	0.188
635.84	0.187
636.29	0.187
636.74	0.189
637.18	0.189
637.63	0.188
638.08	0.187
638.53	0.186
638.97	0.186
639.42	0.187
639.87	0.187
640.32	0.184
640.76	0.185
641.21	0.185
641.66	0.185
642.10	0.184
642.55	0.183
643.00	0.183
643.44	0.185
643.89	0.183
644.34	0.185
644.79	0.183
645.23	0.183
645.68	0.185
646.13	0.184
646.57	0.182
647.02	0.181
647.47	0.183
647.91	0.181
648.36	0.182
648.81	0.181
649.25	0.180
649.70	0.179
650.15	0.181
650.59	0.180
651.04	0.179
651.48	0.184
651.93	0.178
652.38	0.179
652.82	0.179
653.27	0.179
653.72	0.180
654.16	0.177
654.61	0.179
655.06	0.178
655.50	0.176
655.95	0.175
656.39	0.173
656.84	0.175
657.29	0.180
657.73	0.176
658.18	0.178
658.62	0.176
659.07	0.177
659.52	0.176
659.96	0.176
660.41	0.176
660.85	0.175
661.30	0.174
661.74	0.175
662.19	0.175
662.64	0.176
663.08	0.174
663.53	0.173
663.97	0.173
664.42	0.175
664.86	0.173
665.31	0.174
665.75	0.171
666.20	0.174
666.65	0.173
667.09	0.172
667.54	0.174
667.98	0.173
668.43	0.173
668.87	0.170
669.32	0.172
669.76	0.171
670.21	0.173
670.65	0.170
671.10	0.170
671.54	0.171
671.99	0.168
672.43	0.169
672.88	0.169
673.32	0.170
673.77	0.167
674.21	0.168
674.66	0.169
675.10	0.167
675.55	0.167
675.99	0.166
676.44	0.166
676.88	0.167
677.33	0.166
677.77	0.166
678.22	0.167
678.66	0.165
679.11	0.165
679.55	0.165
679.99	0.165
680.44	0.168
680.88	0.165
681.33	0.163
681.77	0.164
682.22	0.165
682.66	0.165
683.11	0.165
683.55	0.164
683.99	0.163
684.44	0.163
684.88	0.162
685.33	0.162
685.77	0.162
686.21	0.161
686.66	0.162
687.10	0.161
687.55	0.161
687.99	0.162
688.44	0.164
688.88	0.161
689.32	0.162
689.77	0.161
690.21	0.162
690.65	0.161
691.10	0.160
691.54	0.159
691.99	0.160
692.43	0.158
692.87	0.158
693.32	0.159
693.76	0.161
694.20	0.161
694.65	0.158
695.09	0.160
695.53	0.159
695.98	0.157
696.42	0.160
696.86	0.159
697.31	0.156
697.75	0.156
698.19	0.157
698.64	0.156
699.08	0.157
699.52	0.156
699.97	0.157
700.41	0.157
700.85	0.157
701.30	0.156
701.74	0.156
702.18	0.156
702.63	0.155
703.07	0.156
703.51	0.156
703.96	0.157
704.40	0.155
704.84	0.156
705.28	0.156
705.73	0.156
706.17	0.157
706.61	0.153
707.06	0.155
707.50	0.154
707.94	0.153
708.38	0.153
708.83	0.156
709.27	0.157
709.71	0.154
710.15	0.154
710.60	0.153
711.04	0.153
711.48	0.154
711.92	0.156
712.37	0.153
712.81	0.154
713.25	0.154
713.69	0.156
714.13	0.153
714.58	0.153
715.02	0.155
715.46	0.153
715.90	0.153
716.35	0.149
716.79	0.154
717.23	0.155
717.67	0.155
718.11	0.155
718.56	0.154
719.00	0.150
719.44	0.152
719.88	0.151
720.32	0.152
720.76	0.154
721.21	0.151
721.65	0.150
722.09	0.154
722.53	0.152
722.97	0.151
723.41	0.148
723.86	0.152
724.30	0.152
724.74	0.155
725.18	0.150
725.62	0.150
726.06	0.152
726.50	0.150
726.95	0.150
727.39	0.151
727.83	0.150
728.27	0.152
728.71	0.150
729.15	0.149
729.59	0.153
730.03	0.151
730.48	0.153
730.92	0.151
731.36	0.153
731.80	0.152
732.24	0.152
732.68	0.152
733.12	0.146
733.56	0.149
734.00	0.149
734.44	0.151
734.89	0.151
735.33	0.153
735.77	0.154
736.21	0.152
736.65	0.150
737.09	0.153
737.53	0.151
737.97	0.154
738.41	0.152
738.85	0.152
739.29	0.154
739.73	0.149
740.17	0.148
740.61	0.151
741.05	0.152
741.49	0.151
741.93	0.150
742.37	0.147
742.81	0.151
743.26	0.149
743.70	0.148
744.14	0.149
744.58	0.149
745.02	0.149
745.46	0.151
745.90	0.150
746.34	0.148
746.78	0.150
747.22	0.149
747.66	0.149
748.10	0.149
748.54	0.146
748.98	0.148
749.42	0.150
749.86	0.148
750.29	0.148
750.73	0.146
751.17	0.145
751.61	0.146
752.05	0.147
752.49	0.145
752.93	0.145
753.37	0.145
753.81	0.146
754.25	0.144
754.69	0.145
755.13	0.145
755.57	0.147
756.01	0.147
756.45	0.146
756.89	0.144
757.33	0.146
757.77	0.143
758.21	0.144
758.64	0.143
759.08	0.141
759.52	0.143
759.96	0.145
760.40	0.146
760.84	0.140
761.28	0.145
761.72	0.145
762.16	0.144
762.60	0.142
763.03	0.140
763.47	0.142
763.91	0.142
764.35	0.142
764.79	0.139
765.23	0.142
765.67	0.140
766.11	0.142
766.54	0.140
766.98	0.143
767.42	0.142
767.86	0.139
768.30	0.144
768.74	0.142
769.17	0.145
769.61	0.144
770.05	0.143
770.49	0.141
770.93	0.144
771.37	0.141
771.80	0.141
772.24	0.139
772.68	0.137
773.12	0.140
773.56	0.140
774.00	0.138
774.43	0.140
774.87	0.139
775.31	0.137
775.75	0.139
776.19	0.140
776.62	0.139
777.06	0.140
777.50	0.142
777.94	0.141
778.37	0.136
778.81	0.137
779.25	0.140
779.69	0.139
780.13	0.137
780.56	0.142
781.00	0.141
781.44	0.139
781.88	0.138
782.31	0.135
782.75	0.134
783.19	0.138
783.63	0.136
784.06	0.139
784.50	0.139
784.94	0.138
785.37	0.142
785.81	0.139
786.25	0.137
786.69	0.137
787.12	0.135
787.56	0.134
788.00	0.136
788.43	0.138
788.87	0.134
789.31	0.137
789.75	0.139
790.18	0.135
790.62	0.138
791.06	0.134
791.49	0.135
791.93	0.136
792.37	0.135
792.80	0.131
793.24	0.134
793.68	0.135
794.11	0.134
794.55	0.137
794.99	0.138
795.42	0.134
795.86	0.136
796.30	0.136
796.73	0.135
797.17	0.136
797.61	0.132
798.04	0.133
798.48	0.133
798.91	0.134
799.35	0.130
799.79	0.137
800.22	0.135
800.66	0.133
801.10	0.137
801.53	0.132
801.97	0.138
802.40	0.137
802.84	0.133
803.28	0.132
803.71	0.133
804.15	0.132
804.58	0.132
805.02	0.136
805.46	0.128
805.89	0.134
806.33	0.135
806.76	0.131
807.20	0.134
807.63	0.133
808.07	0.134
808.51	0.128
808.94	0.129
809.38	0.132
809.81	0.132
810.25	0.134
810.68	0.135
811.12	0.135
811.55	0.134
811.99	0.129
812.42	0.132
812.86	0.129
813.29	0.132
813.73	0.132
814.17	0.127
