SpectraSuite Data File
++++++++++++++++++++++++++++++++++++
Date: Sun Apr 24 16:03:50 CEST 2016
User: spectrasuite
Dark Spectrum Present: Yes
Reference Spectrum Present: Yes
Number of Sampled Component Spectra: 1
Spectrometers: HR+C0708
Integration Time (usec): 1000 (HR+C0708)
Spectra Averaged: 10 (HR+C0708)
Boxcar Smoothing: 0 (HR+C0708)
Correct for Electrical Dark: No (HR+C0708)
Strobe/Lamp Enabled: No (HR+C0708)
Correct for Detector Non-linearity: No (HR+C0708)
Correct for Stray Light: No (HR+C0708)
Number of Pixels in Processed Spectrum: 2048
>>>>>Begin Processed Spectral Data<<<<<
188.76	0.897
189.23	-0.000
189.70	-0.000
190.17	-0.000
190.64	-0.000
191.12	-0.000
191.59	-0.000
192.06	-0.000
192.53	-0.000
193.01	-0.000
193.48	-0.000
193.95	-0.000
194.42	-0.000
194.90	0.859
195.37	-0.000
195.84	-0.000
196.31	-0.000
196.78	-0.000
197.26	-0.000
197.73	-0.000
198.20	-0.000
198.67	-0.000
199.14	-0.000
199.62	-0.000
200.09	-0.000
200.56	-0.000
201.03	-0.000
201.50	-0.000
201.97	-0.000
202.45	-0.000
202.92	1.496
203.39	1.146
203.86	-0.000
204.33	-0.000
204.80	-0.000
205.28	1.188
205.75	-0.000
206.22	-0.000
206.69	-0.000
207.16	-0.000
207.63	1.052
208.11	0.827
208.58	1.703
209.05	1.509
209.52	-0.000
209.99	1.145
210.46	-0.000
210.93	-0.000
211.41	-0.000
211.88	1.038
212.35	-0.000
212.82	-0.000
213.29	0.775
213.76	1.582
214.23	-0.000
214.70	-0.000
215.18	-0.000
215.65	1.744
216.12	-0.000
216.59	-0.000
217.06	1.174
217.53	1.307
218.00	-0.000
218.47	1.124
218.94	-0.000
219.41	-0.000
219.89	-0.000
220.36	-0.000
220.83	-0.000
221.30	-0.000
221.77	-0.000
222.24	1.380
222.71	-0.000
223.18	-0.000
223.65	1.608
224.12	-0.000
224.59	-0.000
225.06	-0.000
225.54	1.701
226.01	-0.000
226.48	2.448
226.95	1.777
227.42	-0.000
227.89	-0.000
228.36	-0.000
228.83	1.773
229.30	-0.000
229.77	-0.000
230.24	1.794
230.71	-0.000
231.18	2.341
231.65	-0.000
232.12	1.968
232.59	-0.000
233.06	2.503
233.53	2.794
234.00	1.966
234.47	-0.000
234.94	-0.000
235.41	2.195
235.88	-0.000
236.35	-0.000
236.82	3.080
237.29	2.538
237.76	3.261
238.23	-0.000
238.70	2.879
239.17	2.507
239.64	-0.000
240.11	-0.000
240.58	2.538
241.05	2.773
241.52	2.751
241.99	-0.000
242.46	2.801
242.93	-0.000
243.40	-0.000
243.87	2.605
244.34	2.419
244.81	3.049
245.28	-0.000
245.75	3.955
246.22	-0.000
246.69	3.200
247.16	3.085
247.63	3.015
248.10	3.994
248.57	-0.000
249.04	-0.000
249.51	3.426
249.98	3.633
250.45	-0.000
250.92	-0.000
251.39	-0.000
251.85	-0.000
252.32	-0.000
252.79	-0.000
253.26	3.676
253.73	-0.000
254.20	-0.000
254.67	2.838
255.14	3.371
255.61	-0.000
256.08	3.079
256.55	-0.000
257.02	3.138
257.49	3.160
257.95	3.025
258.42	3.435
258.89	4.142
259.36	2.973
259.83	3.472
260.30	-0.000
260.77	-0.000
261.24	2.800
261.71	-0.000
262.17	3.148
262.64	2.944
263.11	-0.000
263.58	-0.000
264.05	3.089
264.52	2.785
264.99	2.814
265.46	2.929
265.92	3.085
266.39	2.825
266.86	3.169
267.33	2.989
267.80	2.697
268.27	3.685
268.74	2.962
269.20	2.934
269.67	2.784
270.14	2.620
270.61	2.660
271.08	2.810
271.55	2.493
272.01	2.622
272.48	2.761
272.95	2.484
273.42	2.585
273.89	2.671
274.36	2.540
274.82	2.495
275.29	2.466
275.76	2.436
276.23	2.505
276.70	2.441
277.16	2.389
277.63	2.386
278.10	2.372
278.57	2.454
279.04	2.325
279.50	2.419
279.97	2.323
280.44	2.275
280.91	2.283
281.38	2.275
281.84	2.309
282.31	2.334
282.78	2.448
283.25	2.263
283.72	2.264
284.18	2.265
284.65	2.273
285.12	2.241
285.59	2.167
286.05	2.267
286.52	2.178
286.99	2.189
287.46	2.184
287.92	2.154
288.39	2.148
288.86	2.154
289.33	2.127
289.79	2.095
290.26	2.135
290.73	2.120
291.20	2.134
291.66	2.073
292.13	2.094
292.60	2.038
293.07	2.064
293.53	1.992
294.00	2.085
294.47	2.072
294.93	2.016
295.40	2.055
295.87	1.996
296.34	2.003
296.80	1.963
297.27	1.977
297.74	1.951
298.20	1.988
298.67	1.942
299.14	1.981
299.60	1.976
300.07	1.941
300.54	1.950
301.01	1.939
301.47	1.899
301.94	1.907
302.41	1.917
302.87	1.924
303.34	1.954
303.81	1.836
304.27	1.864
304.74	1.872
305.21	1.829
305.67	1.861
306.14	1.828
306.61	1.867
307.07	1.833
307.54	1.825
308.01	1.818
308.47	1.816
308.94	1.799
309.40	1.799
309.87	1.802
310.34	1.768
310.80	1.805
311.27	1.776
311.74	1.760
312.20	1.784
312.67	1.758
313.13	1.746
313.60	1.764
314.07	1.747
314.53	1.748
315.00	1.705
315.47	1.740
315.93	1.726
316.40	1.714
316.86	1.697
317.33	1.692
317.80	1.695
318.26	1.706
318.73	1.694
319.19	1.676
319.66	1.686
320.13	1.672
320.59	1.660
321.06	1.659
321.52	1.669
321.99	1.646
322.45	1.643
322.92	1.620
323.39	1.625
323.85	1.621
324.32	1.599
324.78	1.633
325.25	1.602
325.71	1.594
326.18	1.587
326.64	1.599
327.11	1.569
327.58	1.553
328.04	1.540
328.51	1.555
328.97	1.541
329.44	1.518
329.90	1.517
330.37	1.501
330.83	1.480
331.30	1.507
331.76	1.504
332.23	1.459
332.69	1.455
333.16	1.444
333.62	1.440
334.09	1.432
334.56	1.411
335.02	1.400
335.49	1.383
335.95	1.361
336.42	1.348
336.88	1.360
337.35	1.324
337.81	1.314
338.28	1.311
338.74	1.297
339.20	1.277
339.67	1.263
340.13	1.268
340.60	1.236
341.06	1.220
341.53	1.194
341.99	1.192
342.46	1.158
342.92	1.151
343.39	1.137
343.85	1.119
344.32	1.107
344.78	1.088
345.25	1.083
345.71	1.065
346.17	1.046
346.64	1.024
347.10	1.018
347.57	0.984
348.03	0.969
348.50	0.954
348.96	0.939
349.43	0.927
349.89	0.912
350.35	0.894
350.82	0.888
351.28	0.873
351.75	0.857
352.21	0.838
352.67	0.829
353.14	0.828
353.60	0.812
354.07	0.792
354.53	0.786
355.00	0.777
355.46	0.767
355.92	0.757
356.39	0.738
356.85	0.729
357.31	0.728
357.78	0.716
358.24	0.710
358.71	0.702
359.17	0.694
359.63	0.690
360.10	0.685
360.56	0.680
361.03	0.673
361.49	0.665
361.95	0.662
362.42	0.657
362.88	0.651
363.34	0.647
363.81	0.645
364.27	0.641
364.73	0.638
365.20	0.638
365.66	0.629
366.12	0.625
366.59	0.622
367.05	0.623
367.51	0.619
367.98	0.612
368.44	0.610
368.90	0.611
369.37	0.608
369.83	0.610
370.29	0.607
370.76	0.600
371.22	0.598
371.68	0.596
372.15	0.592
372.61	0.588
373.07	0.592
373.54	0.586
374.00	0.588
374.46	0.584
374.92	0.584
375.39	0.580
375.85	0.580
376.31	0.579
376.78	0.574
377.24	0.575
377.70	0.572
378.16	0.570
378.63	0.571
379.09	0.568
379.55	0.564
380.01	0.566
380.48	0.566
380.94	0.556
381.40	0.555
381.87	0.557
382.33	0.554
382.79	0.551
383.25	0.553
383.72	0.550
384.18	0.547
384.64	0.547
385.10	0.544
385.56	0.546
386.03	0.538
386.49	0.539
386.95	0.538
387.41	0.536
387.88	0.534
388.34	0.529
388.80	0.529
389.26	0.529
389.72	0.528
390.19	0.529
390.65	0.527
391.11	0.523
391.57	0.522
392.04	0.523
392.50	0.520
392.96	0.515
393.42	0.515
393.88	0.518
394.34	0.512
394.81	0.511
395.27	0.510
395.73	0.511
396.19	0.506
396.65	0.503
397.12	0.500
397.58	0.502
398.04	0.498
398.50	0.503
398.96	0.499
399.42	0.503
399.89	0.495
400.35	0.498
400.81	0.493
401.27	0.493
401.73	0.487
402.19	0.492
402.65	0.485
403.12	0.489
403.58	0.486
404.04	0.485
404.50	0.483
404.96	0.481
405.42	0.481
405.88	0.478
406.34	0.480
406.81	0.476
407.27	0.475
407.73	0.475
408.19	0.472
408.65	0.470
409.11	0.470
409.57	0.470
410.03	0.469
410.49	0.470
410.96	0.467
411.42	0.464
411.88	0.463
412.34	0.460
412.80	0.461
413.26	0.456
413.72	0.456
414.18	0.453
414.64	0.453
415.10	0.454
415.56	0.457
416.02	0.452
416.48	0.453
416.95	0.449
417.41	0.450
417.87	0.445
418.33	0.446
418.79	0.445
419.25	0.445
419.71	0.440
420.17	0.442
420.63	0.442
421.09	0.437
421.55	0.437
422.01	0.439
422.47	0.436
422.93	0.438
423.39	0.435
423.85	0.438
424.31	0.431
424.77	0.430
425.23	0.432
425.69	0.432
426.15	0.428
426.61	0.426
427.07	0.424
427.53	0.422
427.99	0.423
428.45	0.423
428.91	0.425
429.37	0.419
429.83	0.420
430.29	0.416
430.75	0.418
431.21	0.417
431.67	0.418
432.13	0.418
432.59	0.412
433.05	0.413
433.51	0.413
433.97	0.413
434.43	0.412
434.89	0.413
435.35	0.409
435.81	0.407
436.27	0.406
436.73	0.406
437.19	0.404
437.65	0.408
438.11	0.405
438.57	0.402
439.03	0.405
439.48	0.399
439.94	0.399
440.40	0.401
440.86	0.396
441.32	0.395
441.78	0.398
442.24	0.398
442.70	0.392
443.16	0.391
443.62	0.390
444.08	0.396
444.54	0.390
444.99	0.392
445.45	0.389
445.91	0.387
446.37	0.390
446.83	0.384
447.29	0.383
447.75	0.384
448.21	0.382
448.67	0.381
449.12	0.383
449.58	0.382
450.04	0.377
450.50	0.379
450.96	0.380
451.42	0.375
451.88	0.378
452.34	0.377
452.79	0.374
453.25	0.377
453.71	0.372
454.17	0.370
454.63	0.373
455.09	0.373
455.55	0.373
456.00	0.366
456.46	0.368
456.92	0.364
457.38	0.366
457.84	0.364
458.30	0.358
458.75	0.362
459.21	0.358
459.67	0.361
460.13	0.360
460.59	0.361
461.04	0.356
461.50	0.358
461.96	0.357
462.42	0.357
462.88	0.356
463.33	0.356
463.79	0.355
464.25	0.353
464.71	0.355
465.17	0.353
465.62	0.353
466.08	0.351
466.54	0.352
467.00	0.351
467.46	0.351
467.91	0.347
468.37	0.348
468.83	0.348
469.29	0.347
469.74	0.346
470.20	0.343
470.66	0.345
471.12	0.340
471.57	0.344
472.03	0.342
472.49	0.341
472.95	0.342
473.40	0.336
473.86	0.340
474.32	0.336
474.78	0.342
475.23	0.336
475.69	0.336
476.15	0.334
476.60	0.338
477.06	0.335
477.52	0.334
477.98	0.333
478.43	0.332
478.89	0.332
479.35	0.328
479.80	0.330
480.26	0.330
480.72	0.325
481.18	0.327
481.63	0.327
482.09	0.327
482.55	0.324
483.00	0.325
483.46	0.326
483.92	0.323
484.37	0.325
484.83	0.320
485.29	0.322
485.74	0.320
486.20	0.321
486.66	0.320
487.11	0.318
487.57	0.316
488.03	0.319
488.48	0.317
488.94	0.317
489.40	0.318
489.85	0.317
490.31	0.317
490.77	0.315
491.22	0.314
491.68	0.313
492.13	0.312
492.59	0.313
493.05	0.312
493.50	0.312
493.96	0.310
494.42	0.309
494.87	0.307
495.33	0.306
495.78	0.308
496.24	0.306
496.70	0.307
497.15	0.307
497.61	0.305
498.06	0.304
498.52	0.301
498.98	0.304
499.43	0.305
499.89	0.303
500.34	0.301
500.80	0.303
501.25	0.301
501.71	0.301
502.17	0.298
502.62	0.301
503.08	0.297
503.53	0.296
503.99	0.297
504.44	0.296
504.90	0.298
505.36	0.295
505.81	0.296
506.27	0.295
506.72	0.295
507.18	0.295
507.63	0.292
508.09	0.296
508.54	0.292
509.00	0.290
509.45	0.291
509.91	0.290
510.36	0.290
510.82	0.291
511.27	0.285
511.73	0.288
512.19	0.288
512.64	0.285
513.10	0.286
513.55	0.289
514.01	0.282
514.46	0.285
514.92	0.283
515.37	0.284
515.83	0.283
516.28	0.282
516.73	0.280
517.19	0.283
517.64	0.279
518.10	0.281
518.55	0.279
519.01	0.279
519.46	0.276
519.92	0.280
520.37	0.274
520.83	0.277
521.28	0.275
521.74	0.277
522.19	0.275
522.65	0.273
523.10	0.274
523.55	0.276
524.01	0.276
524.46	0.273
524.92	0.272
525.37	0.271
525.83	0.272
526.28	0.271
526.73	0.274
527.19	0.274
527.64	0.274
528.10	0.270
528.55	0.268
529.01	0.271
529.46	0.267
529.91	0.269
530.37	0.267
530.82	0.266
531.28	0.265
531.73	0.264
532.18	0.265
532.64	0.265
533.09	0.265
533.54	0.263
534.00	0.262
534.45	0.265
534.91	0.266
535.36	0.264
535.81	0.264
536.27	0.263
536.72	0.263
537.17	0.261
537.63	0.259
538.08	0.256
538.54	0.262
538.99	0.259
539.44	0.260
539.90	0.257
540.35	0.254
540.80	0.258
541.26	0.256
541.71	0.257
542.16	0.254
542.62	0.253
543.07	0.255
543.52	0.257
543.98	0.257
544.43	0.253
544.88	0.250
545.34	0.254
545.79	0.252
546.24	0.251
546.69	0.252
547.15	0.251
547.60	0.250
548.05	0.251
548.51	0.249
548.96	0.249
549.41	0.251
549.86	0.249
550.32	0.248
550.77	0.249
551.22	0.248
551.68	0.245
552.13	0.246
552.58	0.245
553.03	0.245
553.49	0.245
553.94	0.244
554.39	0.244
554.84	0.245
555.30	0.243
555.75	0.244
556.20	0.242
556.65	0.240
557.11	0.241
557.56	0.242
558.01	0.244
558.46	0.240
558.92	0.239
559.37	0.239
559.82	0.241
560.27	0.241
560.72	0.238
561.18	0.239
561.63	0.238
562.08	0.237
562.53	0.238
562.99	0.236
563.44	0.237
563.89	0.235
564.34	0.236
564.79	0.238
565.25	0.235
565.70	0.232
566.15	0.235
566.60	0.232
567.05	0.235
567.50	0.234
567.96	0.231
568.41	0.232
568.86	0.231
569.31	0.230
569.76	0.231
570.21	0.230
570.67	0.230
571.12	0.229
571.57	0.229
572.02	0.228
572.47	0.228
572.92	0.227
573.37	0.227
573.83	0.224
574.28	0.226
574.73	0.225
575.18	0.227
575.63	0.225
576.08	0.223
576.53	0.224
576.98	0.224
577.44	0.220
577.89	0.224
578.34	0.222
578.79	0.222
579.24	0.222
579.69	0.223
580.14	0.219
580.59	0.218
581.04	0.219
581.49	0.218
581.95	0.218
582.40	0.219
582.85	0.217
583.30	0.217
583.75	0.216
584.20	0.217
584.65	0.217
585.10	0.218
585.55	0.216
586.00	0.216
586.45	0.214
586.90	0.218
587.35	0.216
587.80	0.214
588.25	0.215
588.71	0.215
589.16	0.213
589.61	0.213
590.06	0.212
590.51	0.215
590.96	0.213
591.41	0.212
591.86	0.213
592.31	0.211
592.76	0.211
593.21	0.210
593.66	0.212
594.11	0.210
594.56	0.209
595.01	0.211
595.46	0.210
595.91	0.210
596.36	0.210
596.81	0.210
597.26	0.209
597.71	0.209
598.16	0.207
598.61	0.208
599.06	0.209
599.51	0.208
599.96	0.208
600.41	0.207
600.86	0.206
601.31	0.205
601.76	0.205
602.21	0.206
602.65	0.205
603.10	0.206
603.55	0.206
604.00	0.206
604.45	0.203
604.90	0.203
605.35	0.203
605.80	0.204
606.25	0.203
606.70	0.203
607.15	0.201
607.60	0.201
608.05	0.200
608.50	0.201
608.95	0.200
609.39	0.204
609.84	0.201
610.29	0.199
610.74	0.199
611.19	0.199
611.64	0.198
612.09	0.200
612.54	0.200
612.99	0.198
613.44	0.197
613.88	0.200
614.33	0.199
614.78	0.196
615.23	0.196
615.68	0.195
616.13	0.197
616.58	0.196
617.03	0.196
617.47	0.197
617.92	0.194
618.37	0.192
618.82	0.195
619.27	0.194
619.72	0.194
620.17	0.192
620.61	0.193
621.06	0.193
621.51	0.192
621.96	0.190
622.41	0.191
622.86	0.192
623.30	0.191
623.75	0.191
624.20	0.192
624.65	0.190
625.10	0.189
625.54	0.191
625.99	0.190
626.44	0.190
626.89	0.191
627.34	0.190
627.78	0.189
628.23	0.185
628.68	0.186
629.13	0.188
629.58	0.188
630.02	0.188
630.47	0.186
630.92	0.186
631.37	0.186
631.81	0.188
632.26	0.184
632.71	0.187
633.16	0.186
633.61	0.185
634.05	0.186
634.50	0.185
634.95	0.183
635.40	0.185
635.84	0.186
636.29	0.183
636.74	0.186
637.18	0.185
637.63	0.185
638.08	0.182
638.53	0.184
638.97	0.181
639.42	0.182
639.87	0.182
640.32	0.181
640.76	0.183
641.21	0.181
641.66	0.181
642.10	0.182
642.55	0.180
643.00	0.179
643.44	0.181
643.89	0.181
644.34	0.180
644.79	0.179
645.23	0.178
645.68	0.180
646.13	0.179
646.57	0.179
647.02	0.177
647.47	0.178
647.91	0.177
648.36	0.178
648.81	0.178
649.25	0.179
649.70	0.176
650.15	0.176
650.59	0.176
651.04	0.177
651.48	0.178
651.93	0.176
652.38	0.174
652.82	0.175
653.27	0.175
653.72	0.175
654.16	0.174
654.61	0.176
655.06	0.176
655.50	0.173
655.95	0.172
656.39	0.167
656.84	0.170
657.29	0.176
657.73	0.173
658.18	0.173
658.62	0.172
659.07	0.171
659.52	0.173
659.96	0.172
660.41	0.174
660.85	0.172
661.30	0.172
661.74	0.171
662.19	0.169
662.64	0.171
663.08	0.168
663.53	0.169
663.97	0.167
664.42	0.169
664.86	0.171
665.31	0.170
665.75	0.168
666.20	0.171
666.65	0.169
667.09	0.168
667.54	0.170
667.98	0.168
668.43	0.168
668.87	0.167
669.32	0.169
669.76	0.168
670.21	0.167
670.65	0.167
671.10	0.167
671.54	0.167
671.99	0.165
672.43	0.166
672.88	0.166
673.32	0.168
673.77	0.165
674.21	0.167
674.66	0.165
675.10	0.165
675.55	0.162
675.99	0.165
676.44	0.165
676.88	0.165
677.33	0.163
677.77	0.163
678.22	0.162
678.66	0.162
679.11	0.163
679.55	0.165
679.99	0.163
680.44	0.165
680.88	0.163
681.33	0.161
681.77	0.160
682.22	0.164
682.66	0.162
683.11	0.161
683.55	0.163
683.99	0.162
684.44	0.161
684.88	0.160
685.33	0.162
685.77	0.160
686.21	0.159
686.66	0.161
687.10	0.160
687.55	0.159
687.99	0.161
688.44	0.160
688.88	0.160
689.32	0.160
689.77	0.158
690.21	0.160
690.65	0.160
691.10	0.159
691.54	0.158
691.99	0.159
692.43	0.157
692.87	0.156
693.32	0.159
693.76	0.156
694.20	0.159
694.65	0.158
695.09	0.158
695.53	0.155
695.98	0.156
696.42	0.157
696.86	0.156
697.31	0.155
697.75	0.155
698.19	0.154
698.64	0.154
699.08	0.156
699.52	0.156
699.97	0.155
700.41	0.155
700.85	0.156
701.30	0.155
701.74	0.155
702.18	0.155
702.63	0.154
703.07	0.154
703.51	0.155
703.96	0.153
704.40	0.155
704.84	0.154
705.28	0.153
705.73	0.155
706.17	0.155
706.61	0.153
707.06	0.153
707.50	0.153
707.94	0.152
708.38	0.152
708.83	0.155
709.27	0.151
709.71	0.152
710.15	0.151
710.60	0.152
711.04	0.151
711.48	0.154
711.92	0.152
712.37	0.150
712.81	0.154
713.25	0.152
713.69	0.152
714.13	0.153
714.58	0.152
715.02	0.151
715.46	0.150
715.90	0.149
716.35	0.149
716.79	0.152
717.23	0.153
717.67	0.152
718.11	0.154
718.56	0.150
719.00	0.152
719.44	0.153
719.88	0.150
720.32	0.146
720.76	0.150
721.21	0.151
721.65	0.152
722.09	0.153
722.53	0.152
722.97	0.151
723.41	0.151
723.86	0.154
724.30	0.151
724.74	0.151
725.18	0.149
725.62	0.148
726.06	0.150
726.50	0.149
726.95	0.147
727.39	0.150
727.83	0.150
728.27	0.151
728.71	0.149
729.15	0.151
729.59	0.150
730.03	0.150
730.48	0.148
730.92	0.146
731.36	0.150
731.80	0.149
732.24	0.150
732.68	0.149
733.12	0.146
733.56	0.147
734.00	0.149
734.44	0.148
734.89	0.148
735.33	0.149
735.77	0.151
736.21	0.149
736.65	0.149
737.09	0.150
737.53	0.152
737.97	0.151
738.41	0.150
738.85	0.151
739.29	0.150
739.73	0.150
740.17	0.150
740.61	0.149
741.05	0.150
741.49	0.149
741.93	0.149
742.37	0.148
742.81	0.149
743.26	0.151
743.70	0.150
744.14	0.148
744.58	0.147
745.02	0.150
745.46	0.148
745.90	0.146
746.34	0.149
746.78	0.147
747.22	0.149
747.66	0.148
748.10	0.147
748.54	0.148
748.98	0.146
749.42	0.147
749.86	0.147
750.29	0.145
750.73	0.145
751.17	0.144
751.61	0.143
752.05	0.149
752.49	0.143
752.93	0.142
753.37	0.146
753.81	0.143
754.25	0.142
754.69	0.144
755.13	0.144
755.57	0.145
756.01	0.144
756.45	0.145
756.89	0.145
757.33	0.144
757.77	0.143
758.21	0.142
758.64	0.140
759.08	0.142
759.52	0.144
759.96	0.147
760.40	0.145
760.84	0.141
761.28	0.143
761.72	0.143
762.16	0.144
762.60	0.142
763.03	0.139
763.47	0.141
763.91	0.141
764.35	0.142
764.79	0.140
765.23	0.139
765.67	0.140
766.11	0.138
766.54	0.138
766.98	0.143
767.42	0.139
767.86	0.138
768.30	0.139
768.74	0.145
769.17	0.142
769.61	0.141
770.05	0.139
770.49	0.141
770.93	0.142
771.37	0.136
771.80	0.136
772.24	0.138
772.68	0.137
773.12	0.137
773.56	0.138
774.00	0.136
774.43	0.136
774.87	0.139
775.31	0.140
775.75	0.137
776.19	0.136
776.62	0.136
777.06	0.140
777.50	0.136
777.94	0.139
778.37	0.134
778.81	0.136
779.25	0.137
779.69	0.138
780.13	0.137
780.56	0.137
781.00	0.135
781.44	0.137
781.88	0.140
782.31	0.135
782.75	0.138
783.19	0.140
783.63	0.134
784.06	0.134
784.50	0.138
784.94	0.139
785.37	0.140
785.81	0.138
786.25	0.138
786.69	0.134
787.12	0.134
787.56	0.132
788.00	0.136
788.43	0.139
788.87	0.135
789.31	0.136
789.75	0.138
790.18	0.132
790.62	0.133
791.06	0.134
791.49	0.132
791.93	0.132
792.37	0.135
792.80	0.134
793.24	0.133
793.68	0.135
794.11	0.132
794.55	0.134
794.99	0.137
795.42	0.134
795.86	0.136
796.30	0.132
796.73	0.133
797.17	0.136
797.61	0.134
798.04	0.129
798.48	0.130
798.91	0.135
799.35	0.131
799.79	0.137
800.22	0.131
800.66	0.134
801.10	0.134
801.53	0.132
801.97	0.136
802.40	0.135
802.84	0.134
803.28	0.130
803.71	0.133
804.15	0.129
804.58	0.132
805.02	0.136
805.46	0.130
805.89	0.132
806.33	0.128
806.76	0.129
807.20	0.130
807.63	0.132
808.07	0.135
808.51	0.129
808.94	0.128
809.38	0.128
809.81	0.131
810.25	0.132
810.68	0.132
811.12	0.133
811.55	0.131
811.99	0.133
812.42	0.134
812.86	0.130
813.29	0.127
813.73	0.131
814.17	0.130
814.60	0.130
815.04	0.132
