SpectraSuite Data File
++++++++++++++++++++++++++++++++++++
Date: Sun Apr 24 18:02:23 CEST 2016
User: spectrasuite
Dark Spectrum Present: Yes
Reference Spectrum Present: Yes
Number of Sampled Component Spectra: 1
Spectrometers: HR+C0708
Integration Time (usec): 1000 (HR+C0708)
Spectra Averaged: 10 (HR+C0708)
Boxcar Smoothing: 0 (HR+C0708)
Correct for Electrical Dark: No (HR+C0708)
Strobe/Lamp Enabled: No (HR+C0708)
Correct for Detector Non-linearity: No (HR+C0708)
Correct for Stray Light: No (HR+C0708)
Number of Pixels in Processed Spectrum: 2048
>>>>>Begin Processed Spectral Data<<<<<
188.76	-0.000
189.23	-0.000
189.70	-0.000
190.17	-0.000
190.64	-0.000
191.12	-0.000
191.59	-0.000
192.06	-0.000
192.53	-0.000
193.01	-0.000
193.48	-0.000
193.95	-0.000
194.42	-0.000
194.90	-0.000
195.37	-0.000
195.84	-0.000
196.31	-0.000
196.78	-0.000
197.26	-0.000
197.73	-0.000
198.20	-0.000
198.67	-0.000
199.14	-0.000
199.62	-0.000
200.09	-0.000
200.56	-0.000
201.03	-0.000
201.50	-0.000
201.97	-0.000
202.45	-0.000
202.92	-0.000
203.39	-0.000
203.86	-0.000
204.33	-0.000
204.80	-0.000
205.28	-0.000
205.75	-0.000
206.22	-0.000
206.69	-0.000
207.16	-0.000
207.63	-0.000
208.11	0.774
208.58	-0.000
209.05	-0.000
209.52	-0.000
209.99	-0.000
210.46	-0.000
210.93	-0.000
211.41	-0.000
211.88	-0.000
212.35	-0.000
212.82	-0.000
213.29	0.839
213.76	-0.000
214.23	-0.000
214.70	1.718
215.18	-0.000
215.65	-0.000
216.12	-0.000
216.59	-0.000
217.06	-0.000
217.53	-0.000
218.00	-0.000
218.47	1.001
218.94	-0.000
219.41	-0.000
219.89	-0.000
220.36	-0.000
220.83	-0.000
221.30	-0.000
221.77	-0.000
222.24	-0.000
222.71	-0.000
223.18	-0.000
223.65	-0.000
224.12	-0.000
224.59	-0.000
225.06	-0.000
225.54	1.638
226.01	-0.000
226.48	-0.000
226.95	-0.000
227.42	-0.000
227.89	-0.000
228.36	1.513
228.83	-0.000
229.30	-0.000
229.77	-0.000
230.24	2.141
230.71	-0.000
231.18	-0.000
231.65	-0.000
232.12	2.255
232.59	-0.000
233.06	-0.000
233.53	2.390
234.00	2.490
234.47	-0.000
234.94	-0.000
235.41	3.297
235.88	-0.000
236.35	-0.000
236.82	2.302
237.29	2.886
237.76	-0.000
238.23	-0.000
238.70	-0.000
239.17	2.659
239.64	-0.000
240.11	-0.000
240.58	-0.000
241.05	-0.000
241.52	-0.000
241.99	-0.000
242.46	3.435
242.93	-0.000
243.40	3.541
243.87	2.794
244.34	2.591
244.81	-0.000
245.28	-0.000
245.75	-0.000
246.22	-0.000
246.69	3.774
247.16	-0.000
247.63	3.044
248.10	-0.000
248.57	-0.000
249.04	-0.000
249.51	-0.000
249.98	-0.000
250.45	3.810
250.92	-0.000
251.39	-0.000
251.85	-0.000
252.32	-0.000
252.79	-0.000
253.26	-0.000
253.73	-0.000
254.20	3.041
254.67	2.893
255.14	3.133
255.61	2.938
256.08	2.891
256.55	3.816
257.02	2.697
257.49	3.015
257.95	2.603
258.42	2.724
258.89	2.672
259.36	2.504
259.83	2.687
260.30	2.710
260.77	2.618
261.24	2.490
261.71	2.660
262.17	2.494
262.64	2.349
263.11	2.398
263.58	2.506
264.05	2.350
264.52	2.286
264.99	2.279
265.46	2.318
265.92	2.249
266.39	2.260
266.86	2.257
267.33	2.218
267.80	2.131
268.27	2.179
268.74	2.164
269.20	2.187
269.67	2.140
270.14	2.067
270.61	2.066
271.08	2.071
271.55	2.036
272.01	2.059
272.48	2.044
272.95	1.970
273.42	2.004
273.89	1.984
274.36	1.964
274.82	1.905
275.29	1.912
275.76	1.898
276.23	1.914
276.70	1.886
277.16	1.880
277.63	1.872
278.10	1.848
278.57	1.841
279.04	1.836
279.50	1.813
279.97	1.795
280.44	1.773
280.91	1.755
281.38	1.752
281.84	1.772
282.31	1.754
282.78	1.759
283.25	1.732
283.72	1.713
284.18	1.723
284.65	1.710
285.12	1.698
285.59	1.688
286.05	1.683
286.52	1.657
286.99	1.660
287.46	1.655
287.92	1.629
288.39	1.633
288.86	1.617
289.33	1.608
289.79	1.621
290.26	1.597
290.73	1.599
291.20	1.579
291.66	1.583
292.13	1.567
292.60	1.535
293.07	1.552
293.53	1.528
294.00	1.533
294.47	1.515
294.93	1.523
295.40	1.514
295.87	1.503
296.34	1.482
296.80	1.467
297.27	1.469
297.74	1.459
298.20	1.460
298.67	1.434
299.14	1.442
299.60	1.437
300.07	1.426
300.54	1.418
301.01	1.398
301.47	1.386
301.94	1.381
302.41	1.367
302.87	1.362
303.34	1.363
303.81	1.344
304.27	1.343
304.74	1.331
305.21	1.328
305.67	1.328
306.14	1.309
306.61	1.306
307.07	1.300
307.54	1.295
308.01	1.286
308.47	1.280
308.94	1.279
309.40	1.273
309.87	1.268
310.34	1.254
310.80	1.257
311.27	1.244
311.74	1.234
312.20	1.236
312.67	1.234
313.13	1.226
313.60	1.217
314.07	1.216
314.53	1.203
315.00	1.196
315.47	1.193
315.93	1.188
316.40	1.182
316.86	1.174
317.33	1.171
317.80	1.167
318.26	1.159
318.73	1.158
319.19	1.155
319.66	1.143
320.13	1.142
320.59	1.135
321.06	1.135
321.52	1.129
321.99	1.124
322.45	1.118
322.92	1.117
323.39	1.107
323.85	1.104
324.32	1.104
324.78	1.095
325.25	1.097
325.71	1.083
326.18	1.083
326.64	1.089
327.11	1.081
327.58	1.068
328.04	1.067
328.51	1.065
328.97	1.062
329.44	1.049
329.90	1.046
330.37	1.049
330.83	1.040
331.30	1.042
331.76	1.039
332.23	1.031
332.69	1.031
333.16	1.023
333.62	1.013
334.09	1.014
334.56	1.012
335.02	1.005
335.49	1.003
335.95	0.990
336.42	0.990
336.88	0.984
337.35	0.984
337.81	0.979
338.28	0.973
338.74	0.968
339.20	0.966
339.67	0.960
340.13	0.957
340.60	0.955
341.06	0.947
341.53	0.943
341.99	0.940
342.46	0.936
342.92	0.925
343.39	0.920
343.85	0.913
344.32	0.912
344.78	0.913
345.25	0.910
345.71	0.904
346.17	0.900
346.64	0.898
347.10	0.888
347.57	0.878
348.03	0.870
348.50	0.860
348.96	0.850
349.43	0.855
349.89	0.847
350.35	0.838
350.82	0.840
351.28	0.836
351.75	0.824
352.21	0.827
352.67	0.813
353.14	0.803
353.60	0.794
354.07	0.794
354.53	0.786
355.00	0.771
355.46	0.763
355.92	0.755
356.39	0.752
356.85	0.741
357.31	0.740
357.78	0.732
358.24	0.717
358.71	0.716
359.17	0.707
359.63	0.701
360.10	0.700
360.56	0.691
361.03	0.689
361.49	0.684
361.95	0.676
362.42	0.674
362.88	0.668
363.34	0.660
363.81	0.659
364.27	0.654
364.73	0.652
365.20	0.650
365.66	0.649
366.12	0.643
366.59	0.642
367.05	0.636
367.51	0.635
367.98	0.628
368.44	0.623
368.90	0.626
369.37	0.621
369.83	0.618
370.29	0.617
370.76	0.613
371.22	0.613
371.68	0.608
372.15	0.605
372.61	0.604
373.07	0.607
373.54	0.604
374.00	0.602
374.46	0.594
374.92	0.601
375.39	0.591
375.85	0.590
376.31	0.589
376.78	0.588
377.24	0.589
377.70	0.588
378.16	0.582
378.63	0.578
379.09	0.576
379.55	0.578
380.01	0.576
380.48	0.574
380.94	0.571
381.40	0.567
381.87	0.568
382.33	0.562
382.79	0.564
383.25	0.562
383.72	0.565
384.18	0.560
384.64	0.558
385.10	0.555
385.56	0.554
386.03	0.555
386.49	0.553
386.95	0.550
387.41	0.546
387.88	0.546
388.34	0.545
388.80	0.546
389.26	0.544
389.72	0.544
390.19	0.541
390.65	0.537
391.11	0.537
391.57	0.536
392.04	0.529
392.50	0.529
392.96	0.529
393.42	0.526
393.88	0.528
394.34	0.526
394.81	0.523
395.27	0.522
395.73	0.520
396.19	0.520
396.65	0.514
397.12	0.513
397.58	0.514
398.04	0.513
398.50	0.512
398.96	0.510
399.42	0.513
399.89	0.510
400.35	0.509
400.81	0.506
401.27	0.506
401.73	0.506
402.19	0.496
402.65	0.500
403.12	0.495
403.58	0.495
404.04	0.494
404.50	0.498
404.96	0.491
405.42	0.492
405.88	0.490
406.34	0.490
406.81	0.487
407.27	0.487
407.73	0.484
408.19	0.482
408.65	0.479
409.11	0.475
409.57	0.481
410.03	0.476
410.49	0.475
410.96	0.475
411.42	0.477
411.88	0.470
412.34	0.470
412.80	0.470
413.26	0.467
413.72	0.465
414.18	0.466
414.64	0.464
415.10	0.467
415.56	0.465
416.02	0.465
416.48	0.462
416.95	0.457
417.41	0.458
417.87	0.454
418.33	0.458
418.79	0.452
419.25	0.453
419.71	0.451
420.17	0.450
420.63	0.448
421.09	0.447
421.55	0.448
422.01	0.445
422.47	0.448
422.93	0.445
423.39	0.447
423.85	0.445
424.31	0.440
424.77	0.442
425.23	0.442
425.69	0.439
426.15	0.438
426.61	0.437
427.07	0.432
427.53	0.433
427.99	0.434
428.45	0.430
428.91	0.430
429.37	0.427
429.83	0.432
430.29	0.428
430.75	0.429
431.21	0.429
431.67	0.429
432.13	0.423
432.59	0.419
433.05	0.423
433.51	0.418
433.97	0.418
434.43	0.422
434.89	0.422
435.35	0.420
435.81	0.418
436.27	0.415
436.73	0.414
437.19	0.412
437.65	0.416
438.11	0.414
438.57	0.404
439.03	0.409
439.48	0.410
439.94	0.406
440.40	0.404
440.86	0.410
441.32	0.402
441.78	0.405
442.24	0.400
442.70	0.402
443.16	0.399
443.62	0.399
444.08	0.404
444.54	0.398
444.99	0.398
445.45	0.396
445.91	0.395
446.37	0.396
446.83	0.394
447.29	0.394
447.75	0.392
448.21	0.394
448.67	0.389
449.12	0.385
449.58	0.388
450.04	0.391
450.50	0.386
450.96	0.387
451.42	0.384
451.88	0.381
452.34	0.383
452.79	0.383
453.25	0.385
453.71	0.378
454.17	0.381
454.63	0.383
455.09	0.380
455.55	0.381
456.00	0.379
456.46	0.376
456.92	0.372
457.38	0.378
457.84	0.373
458.30	0.369
458.75	0.372
459.21	0.369
459.67	0.371
460.13	0.367
460.59	0.368
461.04	0.365
461.50	0.368
461.96	0.364
462.42	0.363
462.88	0.362
463.33	0.362
463.79	0.361
464.25	0.363
464.71	0.362
465.17	0.361
465.62	0.359
466.08	0.359
466.54	0.359
467.00	0.358
467.46	0.362
467.91	0.357
468.37	0.356
468.83	0.357
469.29	0.356
469.74	0.354
470.20	0.352
470.66	0.353
471.12	0.351
471.57	0.353
472.03	0.350
472.49	0.351
472.95	0.352
473.40	0.346
473.86	0.346
474.32	0.345
474.78	0.346
475.23	0.344
475.69	0.347
476.15	0.343
476.60	0.346
477.06	0.340
477.52	0.340
477.98	0.337
478.43	0.341
478.89	0.341
479.35	0.340
479.80	0.340
480.26	0.337
480.72	0.335
481.18	0.338
481.63	0.336
482.09	0.337
482.55	0.336
483.00	0.335
483.46	0.332
483.92	0.331
484.37	0.332
484.83	0.329
485.29	0.327
485.74	0.329
486.20	0.329
486.66	0.327
487.11	0.328
487.57	0.324
488.03	0.328
488.48	0.326
488.94	0.325
489.40	0.324
489.85	0.325
490.31	0.325
490.77	0.324
491.22	0.323
491.68	0.321
492.13	0.320
492.59	0.319
493.05	0.320
493.50	0.320
493.96	0.320
494.42	0.320
494.87	0.318
495.33	0.315
495.78	0.317
496.24	0.318
496.70	0.316
497.15	0.313
497.61	0.314
498.06	0.314
498.52	0.309
498.98	0.312
499.43	0.311
499.89	0.310
500.34	0.310
500.80	0.311
501.25	0.308
501.71	0.309
502.17	0.307
502.62	0.310
503.08	0.307
503.53	0.305
503.99	0.305
504.44	0.305
504.90	0.303
505.36	0.302
505.81	0.304
506.27	0.304
506.72	0.304
507.18	0.304
507.63	0.303
508.09	0.303
508.54	0.299
509.00	0.303
509.45	0.302
509.91	0.299
510.36	0.300
510.82	0.299
511.27	0.298
511.73	0.296
512.19	0.296
512.64	0.297
513.10	0.297
513.55	0.297
514.01	0.296
514.46	0.294
514.92	0.293
515.37	0.292
515.83	0.294
516.28	0.291
516.73	0.290
517.19	0.290
517.64	0.288
518.10	0.288
518.55	0.288
519.01	0.288
519.46	0.287
519.92	0.287
520.37	0.284
520.83	0.286
521.28	0.286
521.74	0.284
522.19	0.287
522.65	0.284
523.10	0.285
523.55	0.284
524.01	0.287
524.46	0.282
524.92	0.281
525.37	0.284
525.83	0.279
526.28	0.281
526.73	0.281
527.19	0.284
527.64	0.282
528.10	0.281
528.55	0.280
529.01	0.282
529.46	0.280
529.91	0.278
530.37	0.279
530.82	0.278
531.28	0.276
531.73	0.277
532.18	0.277
532.64	0.275
533.09	0.273
533.54	0.271
534.00	0.273
534.45	0.277
534.91	0.274
535.36	0.277
535.81	0.274
536.27	0.272
536.72	0.273
537.17	0.271
537.63	0.270
538.08	0.269
538.54	0.271
538.99	0.272
539.44	0.273
539.90	0.270
540.35	0.271
540.80	0.271
541.26	0.266
541.71	0.268
542.16	0.270
542.62	0.269
543.07	0.269
543.52	0.269
543.98	0.267
544.43	0.267
544.88	0.266
545.34	0.268
545.79	0.267
546.24	0.264
546.69	0.267
547.15	0.265
547.60	0.263
548.05	0.266
548.51	0.263
548.96	0.264
549.41	0.265
549.86	0.263
550.32	0.265
550.77	0.265
551.22	0.263
551.68	0.261
552.13	0.261
552.58	0.261
553.03	0.262
553.49	0.261
553.94	0.263
554.39	0.262
554.84	0.261
555.30	0.263
555.75	0.262
556.20	0.261
556.65	0.262
557.11	0.260
557.56	0.257
558.01	0.261
558.46	0.262
558.92	0.258
559.37	0.258
559.82	0.259
560.27	0.259
560.72	0.258
561.18	0.257
561.63	0.257
562.08	0.256
562.53	0.258
562.99	0.258
563.44	0.257
563.89	0.256
564.34	0.256
564.79	0.257
565.25	0.256
565.70	0.255
566.15	0.255
566.60	0.255
567.05	0.256
567.50	0.256
567.96	0.254
568.41	0.255
568.86	0.254
569.31	0.253
569.76	0.254
570.21	0.254
570.67	0.253
571.12	0.258
571.57	0.254
572.02	0.254
572.47	0.253
572.92	0.253
573.37	0.253
573.83	0.254
574.28	0.255
574.73	0.253
575.18	0.252
575.63	0.253
576.08	0.252
576.53	0.250
576.98	0.253
577.44	0.251
577.89	0.252
578.34	0.251
578.79	0.251
579.24	0.250
579.69	0.252
580.14	0.250
580.59	0.249
581.04	0.249
581.49	0.250
581.95	0.251
582.40	0.249
582.85	0.252
583.30	0.251
583.75	0.249
584.20	0.249
584.65	0.250
585.10	0.251
585.55	0.251
586.00	0.251
586.45	0.252
586.90	0.250
587.35	0.251
587.80	0.251
588.25	0.251
588.71	0.252
589.16	0.250
589.61	0.251
590.06	0.250
590.51	0.253
590.96	0.252
591.41	0.248
591.86	0.252
592.31	0.252
592.76	0.254
593.21	0.254
593.66	0.253
594.11	0.252
594.56	0.252
595.01	0.253
595.46	0.255
595.91	0.255
596.36	0.253
596.81	0.254
597.26	0.253
597.71	0.253
598.16	0.252
598.61	0.253
599.06	0.255
599.51	0.257
599.96	0.254
600.41	0.255
600.86	0.256
601.31	0.256
601.76	0.254
602.21	0.255
602.65	0.258
603.10	0.255
603.55	0.254
604.00	0.257
604.45	0.257
604.90	0.255
605.35	0.254
605.80	0.257
606.25	0.258
606.70	0.257
607.15	0.255
607.60	0.256
608.05	0.255
608.50	0.257
608.95	0.253
609.39	0.257
609.84	0.259
610.29	0.255
610.74	0.255
611.19	0.254
611.64	0.255
612.09	0.257
612.54	0.257
612.99	0.257
613.44	0.255
613.88	0.257
614.33	0.257
614.78	0.254
615.23	0.256
615.68	0.256
616.13	0.256
616.58	0.255
617.03	0.255
617.47	0.256
617.92	0.254
618.37	0.254
618.82	0.255
619.27	0.256
619.72	0.254
620.17	0.253
620.61	0.254
621.06	0.254
621.51	0.253
621.96	0.254
622.41	0.257
622.86	0.255
623.30	0.253
623.75	0.256
624.20	0.254
624.65	0.253
625.10	0.256
625.54	0.255
625.99	0.253
626.44	0.254
626.89	0.255
627.34	0.256
627.78	0.256
628.23	0.255
628.68	0.255
629.13	0.256
629.58	0.253
630.02	0.255
630.47	0.255
630.92	0.255
631.37	0.254
631.81	0.255
632.26	0.253
632.71	0.257
633.16	0.256
633.61	0.257
634.05	0.254
634.50	0.256
634.95	0.257
635.40	0.259
635.84	0.257
636.29	0.257
636.74	0.259
637.18	0.259
637.63	0.260
638.08	0.259
638.53	0.260
638.97	0.255
639.42	0.260
639.87	0.262
640.32	0.261
640.76	0.261
641.21	0.261
641.66	0.262
642.10	0.262
642.55	0.260
643.00	0.262
643.44	0.261
643.89	0.263
644.34	0.262
644.79	0.264
645.23	0.264
645.68	0.264
646.13	0.263
646.57	0.265
647.02	0.264
647.47	0.267
647.91	0.264
648.36	0.264
648.81	0.268
649.25	0.266
649.70	0.267
650.15	0.267
650.59	0.264
651.04	0.266
651.48	0.268
651.93	0.269
652.38	0.267
652.82	0.268
653.27	0.265
653.72	0.268
654.16	0.266
654.61	0.270
655.06	0.268
655.50	0.265
655.95	0.265
656.39	0.259
656.84	0.264
657.29	0.272
657.73	0.267
658.18	0.268
658.62	0.268
659.07	0.267
659.52	0.267
659.96	0.267
660.41	0.268
660.85	0.265
661.30	0.263
661.74	0.265
662.19	0.264
662.64	0.263
663.08	0.262
663.53	0.262
663.97	0.262
664.42	0.261
664.86	0.261
665.31	0.260
665.75	0.259
666.20	0.258
666.65	0.258
667.09	0.256
667.54	0.259
667.98	0.257
668.43	0.254
668.87	0.255
669.32	0.252
669.76	0.248
670.21	0.251
670.65	0.247
671.10	0.247
671.54	0.247
671.99	0.245
672.43	0.242
672.88	0.241
673.32	0.243
673.77	0.238
674.21	0.236
674.66	0.237
675.10	0.235
675.55	0.230
675.99	0.233
676.44	0.229
676.88	0.228
677.33	0.226
677.77	0.224
678.22	0.222
678.66	0.220
679.11	0.218
679.55	0.217
679.99	0.215
680.44	0.217
680.88	0.211
681.33	0.210
681.77	0.209
682.22	0.209
682.66	0.207
683.11	0.205
683.55	0.201
683.99	0.200
684.44	0.197
684.88	0.198
685.33	0.195
685.77	0.195
686.21	0.192
686.66	0.190
687.10	0.191
687.55	0.187
687.99	0.190
688.44	0.186
688.88	0.184
689.32	0.185
689.77	0.183
690.21	0.181
690.65	0.180
691.10	0.178
691.54	0.179
691.99	0.177
692.43	0.174
692.87	0.175
693.32	0.175
693.76	0.174
694.20	0.173
694.65	0.172
695.09	0.173
695.53	0.170
695.98	0.170
696.42	0.171
696.86	0.167
697.31	0.165
697.75	0.166
698.19	0.166
698.64	0.164
699.08	0.164
699.52	0.165
699.97	0.164
700.41	0.164
700.85	0.163
701.30	0.161
701.74	0.163
702.18	0.164
702.63	0.162
703.07	0.162
703.51	0.161
703.96	0.161
704.40	0.160
704.84	0.160
705.28	0.159
705.73	0.159
706.17	0.158
706.61	0.158
707.06	0.157
707.50	0.158
707.94	0.157
708.38	0.156
708.83	0.157
709.27	0.158
709.71	0.156
710.15	0.157
710.60	0.155
711.04	0.154
711.48	0.156
711.92	0.155
712.37	0.154
712.81	0.156
713.25	0.154
713.69	0.154
714.13	0.156
714.58	0.154
715.02	0.155
715.46	0.155
715.90	0.153
716.35	0.151
716.79	0.154
717.23	0.154
717.67	0.153
718.11	0.154
718.56	0.152
719.00	0.154
719.44	0.152
719.88	0.151
720.32	0.152
720.76	0.152
721.21	0.151
721.65	0.150
722.09	0.149
722.53	0.151
722.97	0.152
723.41	0.151
723.86	0.152
724.30	0.150
724.74	0.154
725.18	0.151
725.62	0.150
726.06	0.152
726.50	0.148
726.95	0.149
727.39	0.149
727.83	0.148
728.27	0.151
728.71	0.152
729.15	0.148
729.59	0.152
730.03	0.150
730.48	0.150
730.92	0.151
731.36	0.151
731.80	0.151
732.24	0.151
732.68	0.151
733.12	0.150
733.56	0.150
734.00	0.149
734.44	0.150
734.89	0.152
735.33	0.151
735.77	0.152
736.21	0.152
736.65	0.148
737.09	0.150
737.53	0.151
737.97	0.149
738.41	0.150
738.85	0.153
739.29	0.150
739.73	0.147
740.17	0.149
740.61	0.151
741.05	0.150
741.49	0.150
741.93	0.148
742.37	0.145
742.81	0.148
743.26	0.149
743.70	0.148
744.14	0.150
744.58	0.146
745.02	0.148
745.46	0.150
745.90	0.148
746.34	0.150
746.78	0.147
747.22	0.150
747.66	0.147
748.10	0.149
748.54	0.148
748.98	0.147
749.42	0.147
749.86	0.149
750.29	0.145
750.73	0.145
751.17	0.145
751.61	0.144
752.05	0.146
752.49	0.145
752.93	0.144
753.37	0.143
753.81	0.143
754.25	0.142
754.69	0.142
755.13	0.143
755.57	0.144
756.01	0.145
756.45	0.146
756.89	0.145
757.33	0.145
757.77	0.144
758.21	0.142
758.64	0.144
759.08	0.141
759.52	0.144
759.96	0.143
760.40	0.142
760.84	0.141
761.28	0.141
761.72	0.142
762.16	0.144
762.60	0.142
763.03	0.142
763.47	0.142
763.91	0.143
764.35	0.140
764.79	0.141
765.23	0.139
765.67	0.141
766.11	0.136
766.54	0.137
766.98	0.141
767.42	0.141
767.86	0.138
768.30	0.139
768.74	0.142
769.17	0.139
769.61	0.139
770.05	0.140
770.49	0.142
770.93	0.143
771.37	0.137
771.80	0.138
772.24	0.136
772.68	0.138
773.12	0.138
773.56	0.139
774.00	0.136
774.43	0.140
774.87	0.138
775.31	0.139
775.75	0.136
776.19	0.136
776.62	0.135
777.06	0.136
777.50	0.135
777.94	0.137
778.37	0.134
778.81	0.139
779.25	0.140
779.69	0.137
780.13	0.139
780.56	0.137
781.00	0.136
781.44	0.138
781.88	0.136
782.31	0.135
782.75	0.133
783.19	0.136
783.63	0.133
784.06	0.131
784.50	0.138
784.94	0.133
785.37	0.135
785.81	0.137
786.25	0.135
786.69	0.133
787.12	0.135
787.56	0.133
788.00	0.137
788.43	0.138
788.87	0.136
789.31	0.132
789.75	0.133
790.18	0.135
790.62	0.132
791.06	0.131
791.49	0.131
791.93	0.131
792.37	0.137
792.80	0.134
793.24	0.132
793.68	0.136
794.11	0.132
794.55	0.134
794.99	0.135
795.42	0.134
795.86	0.138
796.30	0.133
796.73	0.134
797.17	0.132
797.61	0.129
798.04	0.133
798.48	0.133
798.91	0.132
799.35	0.134
799.79	0.136
800.22	0.133
800.66	0.127
801.10	0.133
801.53	0.131
801.97	0.135
802.40	0.134
802.84	0.134
803.28	0.132
803.71	0.132
804.15	0.131
804.58	0.133
805.02	0.132
805.46	0.131
805.89	0.133
806.33	0.131
806.76	0.129
807.20	0.131
807.63	0.133
808.07	0.134
808.51	0.130
808.94	0.127
809.38	0.131
809.81	0.129
810.25	0.132
810.68	0.131
811.12	0.128
811.55	0.133
811.99	0.132
812.42	0.131
812.86	0.127
813.29	0.128
813.73	0.129
814.17	0.129
