SpectraSuite Data File
++++++++++++++++++++++++++++++++++++
Date: Sun Apr 24 18:17:28 CEST 2016
User: spectrasuite
Dark Spectrum Present: Yes
Reference Spectrum Present: Yes
Number of Sampled Component Spectra: 1
Spectrometers: HR+C0708
Integration Time (usec): 1000 (HR+C0708)
Spectra Averaged: 10 (HR+C0708)
Boxcar Smoothing: 0 (HR+C0708)
Correct for Electrical Dark: No (HR+C0708)
Strobe/Lamp Enabled: No (HR+C0708)
Correct for Detector Non-linearity: No (HR+C0708)
Correct for Stray Light: No (HR+C0708)
Number of Pixels in Processed Spectrum: 2048
>>>>>Begin Processed Spectral Data<<<<<
188.76	-0.000
189.23	-0.000
189.70	-0.000
190.17	-0.000
190.64	-0.000
191.12	-0.000
191.59	-0.000
192.06	-0.000
192.53	-0.000
193.01	-0.000
193.48	-0.000
193.95	-0.000
194.42	-0.000
194.90	-0.000
195.37	-0.000
195.84	-0.000
196.31	-0.000
196.78	-0.000
197.26	-0.000
197.73	-0.000
198.20	-0.000
198.67	-0.000
199.14	-0.000
199.62	-0.000
200.09	-0.000
200.56	-0.000
201.03	-0.000
201.50	-0.000
201.97	-0.000
202.45	-0.000
202.92	-0.000
203.39	-0.000
203.86	-0.000
204.33	-0.000
204.80	-0.000
205.28	1.140
205.75	-0.000
206.22	-0.000
206.69	-0.000
207.16	-0.000
207.63	-0.000
208.11	-0.000
208.58	-0.000
209.05	-0.000
209.52	-0.000
209.99	-0.000
210.46	-0.000
210.93	-0.000
211.41	-0.000
211.88	-0.000
212.35	-0.000
212.82	-0.000
213.29	-0.000
213.76	-0.000
214.23	-0.000
214.70	1.186
215.18	-0.000
215.65	-0.000
216.12	-0.000
216.59	-0.000
217.06	-0.000
217.53	2.739
218.00	-0.000
218.47	-0.000
218.94	-0.000
219.41	-0.000
219.89	-0.000
220.36	-0.000
220.83	-0.000
221.30	-0.000
221.77	-0.000
222.24	-0.000
222.71	-0.000
223.18	-0.000
223.65	-0.000
224.12	-0.000
224.59	-0.000
225.06	-0.000
225.54	-0.000
226.01	1.782
226.48	-0.000
226.95	-0.000
227.42	-0.000
227.89	-0.000
228.36	-0.000
228.83	-0.000
229.30	-0.000
229.77	-0.000
230.24	2.211
230.71	-0.000
231.18	-0.000
231.65	2.604
232.12	-0.000
232.59	-0.000
233.06	-0.000
233.53	-0.000
234.00	2.538
234.47	-0.000
234.94	-0.000
235.41	2.678
235.88	-0.000
236.35	-0.000
236.82	-0.000
237.29	-0.000
237.76	-0.000
238.23	2.994
238.70	-0.000
239.17	-0.000
239.64	-0.000
240.11	-0.000
240.58	3.043
241.05	-0.000
241.52	-0.000
241.99	-0.000
242.46	4.072
242.93	-0.000
243.40	-0.000
243.87	3.646
244.34	2.799
244.81	3.628
245.28	-0.000
245.75	-0.000
246.22	-0.000
246.69	-0.000
247.16	-0.000
247.63	3.733
248.10	-0.000
248.57	3.745
249.04	-0.000
249.51	-0.000
249.98	-0.000
250.45	-0.000
250.92	-0.000
251.39	-0.000
251.85	-0.000
252.32	-0.000
252.79	-0.000
253.26	-0.000
253.73	-0.000
254.20	-0.000
254.67	2.949
255.14	3.062
255.61	3.534
256.08	2.972
256.55	-0.000
257.02	3.031
257.49	2.889
257.95	2.793
258.42	2.635
258.89	2.547
259.36	2.699
259.83	2.551
260.30	2.568
260.77	2.751
261.24	2.397
261.71	2.508
262.17	2.622
262.64	2.333
263.11	2.383
263.58	2.477
264.05	2.274
264.52	2.259
264.99	2.269
265.46	2.219
265.92	2.243
266.39	2.157
266.86	2.185
267.33	2.215
267.80	2.087
268.27	2.132
268.74	2.091
269.20	2.057
269.67	2.086
270.14	2.026
270.61	2.001
271.08	2.017
271.55	1.980
272.01	1.970
272.48	1.972
272.95	1.931
273.42	1.927
273.89	1.962
274.36	1.887
274.82	1.884
275.29	1.870
275.76	1.886
276.23	1.855
276.70	1.855
277.16	1.814
277.63	1.825
278.10	1.796
278.57	1.797
279.04	1.770
279.50	1.784
279.97	1.769
280.44	1.718
280.91	1.729
281.38	1.738
281.84	1.721
282.31	1.706
282.78	1.724
283.25	1.681
283.72	1.670
284.18	1.664
284.65	1.659
285.12	1.636
285.59	1.634
286.05	1.637
286.52	1.614
286.99	1.613
287.46	1.613
287.92	1.603
288.39	1.576
288.86	1.573
289.33	1.572
289.79	1.550
290.26	1.554
290.73	1.545
291.20	1.533
291.66	1.526
292.13	1.520
292.60	1.493
293.07	1.488
293.53	1.481
294.00	1.488
294.47	1.482
294.93	1.473
295.40	1.465
295.87	1.449
296.34	1.443
296.80	1.421
297.27	1.438
297.74	1.404
298.20	1.414
298.67	1.394
299.14	1.397
299.60	1.384
300.07	1.373
300.54	1.362
301.01	1.366
301.47	1.346
301.94	1.333
302.41	1.332
302.87	1.320
303.34	1.330
303.81	1.306
304.27	1.308
304.74	1.293
305.21	1.283
305.67	1.271
306.14	1.264
306.61	1.268
307.07	1.253
307.54	1.252
308.01	1.239
308.47	1.237
308.94	1.241
309.40	1.226
309.87	1.225
310.34	1.210
310.80	1.208
311.27	1.208
311.74	1.193
312.20	1.194
312.67	1.182
313.13	1.175
313.60	1.176
314.07	1.168
314.53	1.160
315.00	1.149
315.47	1.145
315.93	1.140
316.40	1.137
316.86	1.132
317.33	1.137
317.80	1.124
318.26	1.119
318.73	1.119
319.19	1.113
319.66	1.103
320.13	1.100
320.59	1.100
321.06	1.097
321.52	1.093
321.99	1.079
322.45	1.070
322.92	1.072
323.39	1.068
323.85	1.073
324.32	1.061
324.78	1.056
325.25	1.054
325.71	1.047
326.18	1.045
326.64	1.046
327.11	1.038
327.58	1.032
328.04	1.030
328.51	1.024
328.97	1.023
329.44	1.012
329.90	1.005
330.37	1.008
330.83	0.997
331.30	0.999
331.76	0.997
332.23	0.988
332.69	0.987
333.16	0.975
333.62	0.979
334.09	0.973
334.56	0.963
335.02	0.965
335.49	0.964
335.95	0.953
336.42	0.946
336.88	0.947
337.35	0.942
337.81	0.938
338.28	0.929
338.74	0.935
339.20	0.930
339.67	0.929
340.13	0.923
340.60	0.920
341.06	0.912
341.53	0.901
341.99	0.905
342.46	0.893
342.92	0.890
343.39	0.889
343.85	0.889
344.32	0.884
344.78	0.874
345.25	0.875
345.71	0.875
346.17	0.866
346.64	0.860
347.10	0.856
347.57	0.849
348.03	0.841
348.50	0.842
348.96	0.830
349.43	0.837
349.89	0.820
350.35	0.821
350.82	0.813
351.28	0.812
351.75	0.802
352.21	0.805
352.67	0.788
353.14	0.773
353.60	0.776
354.07	0.764
354.53	0.752
355.00	0.750
355.46	0.746
355.92	0.746
356.39	0.736
356.85	0.734
357.31	0.722
357.78	0.718
358.24	0.706
358.71	0.703
359.17	0.696
359.63	0.697
360.10	0.692
360.56	0.683
361.03	0.678
361.49	0.672
361.95	0.670
362.42	0.669
362.88	0.660
363.34	0.655
363.81	0.654
364.27	0.651
364.73	0.643
365.20	0.652
365.66	0.639
366.12	0.634
366.59	0.634
367.05	0.627
367.51	0.631
367.98	0.625
368.44	0.620
368.90	0.619
369.37	0.615
369.83	0.613
370.29	0.616
370.76	0.609
371.22	0.610
371.68	0.610
372.15	0.601
372.61	0.602
373.07	0.600
373.54	0.600
374.00	0.595
374.46	0.589
374.92	0.592
375.39	0.589
375.85	0.589
376.31	0.588
376.78	0.586
377.24	0.585
377.70	0.584
378.16	0.575
378.63	0.574
379.09	0.577
379.55	0.575
380.01	0.572
380.48	0.571
380.94	0.568
381.40	0.564
381.87	0.562
382.33	0.561
382.79	0.558
383.25	0.557
383.72	0.563
384.18	0.555
384.64	0.552
385.10	0.553
385.56	0.551
386.03	0.546
386.49	0.543
386.95	0.544
387.41	0.547
387.88	0.542
388.34	0.540
388.80	0.539
389.26	0.539
389.72	0.539
390.19	0.534
390.65	0.539
391.11	0.529
391.57	0.529
392.04	0.528
392.50	0.525
392.96	0.524
393.42	0.523
393.88	0.525
394.34	0.521
394.81	0.518
395.27	0.516
395.73	0.519
396.19	0.513
396.65	0.515
397.12	0.514
397.58	0.511
398.04	0.507
398.50	0.508
398.96	0.507
399.42	0.507
399.89	0.504
400.35	0.504
400.81	0.501
401.27	0.501
401.73	0.498
402.19	0.496
402.65	0.494
403.12	0.493
403.58	0.490
404.04	0.490
404.50	0.493
404.96	0.488
405.42	0.490
405.88	0.487
406.34	0.483
406.81	0.483
407.27	0.481
407.73	0.480
408.19	0.478
408.65	0.477
409.11	0.475
409.57	0.474
410.03	0.474
410.49	0.473
410.96	0.472
411.42	0.471
411.88	0.465
412.34	0.465
412.80	0.465
413.26	0.461
413.72	0.464
414.18	0.461
414.64	0.460
415.10	0.462
415.56	0.457
416.02	0.460
416.48	0.457
416.95	0.456
417.41	0.454
417.87	0.454
418.33	0.452
418.79	0.447
419.25	0.447
419.71	0.446
420.17	0.448
420.63	0.444
421.09	0.442
421.55	0.441
422.01	0.443
422.47	0.444
422.93	0.443
423.39	0.437
423.85	0.442
424.31	0.437
424.77	0.439
425.23	0.437
425.69	0.436
426.15	0.436
426.61	0.431
427.07	0.429
427.53	0.430
427.99	0.427
428.45	0.430
428.91	0.427
429.37	0.424
429.83	0.426
430.29	0.424
430.75	0.427
431.21	0.425
431.67	0.423
432.13	0.422
432.59	0.417
433.05	0.417
433.51	0.413
433.97	0.414
434.43	0.416
434.89	0.419
435.35	0.414
435.81	0.413
436.27	0.411
436.73	0.410
437.19	0.409
437.65	0.410
438.11	0.410
438.57	0.405
439.03	0.407
439.48	0.400
439.94	0.400
440.40	0.403
440.86	0.405
441.32	0.400
441.78	0.405
442.24	0.401
442.70	0.397
443.16	0.396
443.62	0.391
444.08	0.392
444.54	0.393
444.99	0.394
445.45	0.393
445.91	0.390
446.37	0.394
446.83	0.391
447.29	0.388
447.75	0.391
448.21	0.387
448.67	0.388
449.12	0.388
449.58	0.387
450.04	0.382
450.50	0.385
450.96	0.384
451.42	0.378
451.88	0.381
452.34	0.379
452.79	0.381
453.25	0.380
453.71	0.376
454.17	0.378
454.63	0.380
455.09	0.377
455.55	0.377
456.00	0.371
456.46	0.373
456.92	0.369
457.38	0.372
457.84	0.367
458.30	0.367
458.75	0.367
459.21	0.365
459.67	0.369
460.13	0.368
460.59	0.363
461.04	0.360
461.50	0.365
461.96	0.362
462.42	0.361
462.88	0.360
463.33	0.360
463.79	0.358
464.25	0.359
464.71	0.358
465.17	0.357
465.62	0.355
466.08	0.357
466.54	0.355
467.00	0.357
467.46	0.355
467.91	0.354
468.37	0.353
468.83	0.352
469.29	0.351
469.74	0.349
470.20	0.349
470.66	0.348
471.12	0.345
471.57	0.348
472.03	0.346
472.49	0.346
472.95	0.347
473.40	0.347
473.86	0.343
474.32	0.342
474.78	0.344
475.23	0.341
475.69	0.343
476.15	0.341
476.60	0.341
477.06	0.338
477.52	0.336
477.98	0.338
478.43	0.336
478.89	0.336
479.35	0.338
479.80	0.337
480.26	0.334
480.72	0.336
481.18	0.336
481.63	0.334
482.09	0.331
482.55	0.334
483.00	0.330
483.46	0.330
483.92	0.326
484.37	0.330
484.83	0.327
485.29	0.323
485.74	0.327
486.20	0.327
486.66	0.324
487.11	0.324
487.57	0.324
488.03	0.323
488.48	0.323
488.94	0.319
489.40	0.323
489.85	0.321
490.31	0.323
490.77	0.319
491.22	0.321
491.68	0.316
492.13	0.319
492.59	0.318
493.05	0.317
493.50	0.316
493.96	0.314
494.42	0.315
494.87	0.314
495.33	0.311
495.78	0.317
496.24	0.312
496.70	0.315
497.15	0.313
497.61	0.312
498.06	0.310
498.52	0.311
498.98	0.306
499.43	0.309
499.89	0.310
500.34	0.307
500.80	0.307
501.25	0.308
501.71	0.307
502.17	0.305
502.62	0.305
503.08	0.305
503.53	0.302
503.99	0.303
504.44	0.304
504.90	0.302
505.36	0.301
505.81	0.302
506.27	0.303
506.72	0.302
507.18	0.300
507.63	0.299
508.09	0.301
508.54	0.299
509.00	0.296
509.45	0.297
509.91	0.297
510.36	0.296
510.82	0.297
511.27	0.294
511.73	0.294
512.19	0.293
512.64	0.293
513.10	0.291
513.55	0.293
514.01	0.291
514.46	0.293
514.92	0.290
515.37	0.291
515.83	0.290
516.28	0.287
516.73	0.288
517.19	0.290
517.64	0.285
518.10	0.286
518.55	0.286
519.01	0.285
519.46	0.283
519.92	0.287
520.37	0.283
520.83	0.284
521.28	0.283
521.74	0.283
522.19	0.283
522.65	0.280
523.10	0.281
523.55	0.282
524.01	0.281
524.46	0.280
524.92	0.279
525.37	0.278
525.83	0.277
526.28	0.280
526.73	0.279
527.19	0.282
527.64	0.281
528.10	0.278
528.55	0.278
529.01	0.276
529.46	0.274
529.91	0.276
530.37	0.277
530.82	0.276
531.28	0.276
531.73	0.273
532.18	0.272
532.64	0.276
533.09	0.273
533.54	0.273
534.00	0.272
534.45	0.274
534.91	0.273
535.36	0.270
535.81	0.273
536.27	0.269
536.72	0.271
537.17	0.272
537.63	0.269
538.08	0.267
538.54	0.269
538.99	0.268
539.44	0.271
539.90	0.268
540.35	0.267
540.80	0.266
541.26	0.266
541.71	0.267
542.16	0.268
542.62	0.264
543.07	0.265
543.52	0.267
543.98	0.266
544.43	0.263
544.88	0.263
545.34	0.264
545.79	0.263
546.24	0.263
546.69	0.265
547.15	0.264
547.60	0.261
548.05	0.264
548.51	0.261
548.96	0.262
549.41	0.263
549.86	0.262
550.32	0.263
550.77	0.262
551.22	0.262
551.68	0.261
552.13	0.259
552.58	0.258
553.03	0.260
553.49	0.262
553.94	0.258
554.39	0.259
554.84	0.261
555.30	0.259
555.75	0.261
556.20	0.259
556.65	0.259
557.11	0.259
557.56	0.259
558.01	0.259
558.46	0.259
558.92	0.256
559.37	0.255
559.82	0.256
560.27	0.257
560.72	0.255
561.18	0.257
561.63	0.256
562.08	0.253
562.53	0.259
562.99	0.257
563.44	0.258
563.89	0.255
564.34	0.254
564.79	0.257
565.25	0.256
565.70	0.254
566.15	0.253
566.60	0.253
567.05	0.254
567.50	0.253
567.96	0.252
568.41	0.251
568.86	0.253
569.31	0.251
569.76	0.252
570.21	0.252
570.67	0.253
571.12	0.253
571.57	0.252
572.02	0.251
572.47	0.253
572.92	0.253
573.37	0.251
573.83	0.250
574.28	0.251
574.73	0.250
575.18	0.253
575.63	0.252
576.08	0.248
576.53	0.249
576.98	0.251
577.44	0.250
577.89	0.250
578.34	0.250
578.79	0.251
579.24	0.250
579.69	0.251
580.14	0.248
580.59	0.248
581.04	0.249
581.49	0.249
581.95	0.248
582.40	0.251
582.85	0.250
583.30	0.248
583.75	0.246
584.20	0.250
584.65	0.250
585.10	0.249
585.55	0.250
586.00	0.250
586.45	0.250
586.90	0.251
587.35	0.249
587.80	0.250
588.25	0.250
588.71	0.251
589.16	0.248
589.61	0.249
590.06	0.250
590.51	0.249
590.96	0.250
591.41	0.249
591.86	0.251
592.31	0.251
592.76	0.252
593.21	0.250
593.66	0.252
594.11	0.253
594.56	0.252
595.01	0.255
595.46	0.251
595.91	0.253
596.36	0.252
596.81	0.252
597.26	0.254
597.71	0.255
598.16	0.252
598.61	0.252
599.06	0.253
599.51	0.254
599.96	0.256
600.41	0.254
600.86	0.254
601.31	0.255
601.76	0.255
602.21	0.257
602.65	0.256
603.10	0.255
603.55	0.253
604.00	0.254
604.45	0.255
604.90	0.254
605.35	0.253
605.80	0.255
606.25	0.258
606.70	0.254
607.15	0.254
607.60	0.253
608.05	0.254
608.50	0.256
608.95	0.253
609.39	0.259
609.84	0.256
610.29	0.255
610.74	0.254
611.19	0.256
611.64	0.255
612.09	0.255
612.54	0.256
612.99	0.256
613.44	0.255
613.88	0.256
614.33	0.256
614.78	0.254
615.23	0.254
615.68	0.254
616.13	0.255
616.58	0.255
617.03	0.255
617.47	0.255
617.92	0.255
618.37	0.254
618.82	0.256
619.27	0.255
619.72	0.253
620.17	0.252
620.61	0.252
621.06	0.252
621.51	0.256
621.96	0.252
622.41	0.255
622.86	0.253
623.30	0.251
623.75	0.255
624.20	0.254
624.65	0.252
625.10	0.252
625.54	0.253
625.99	0.255
626.44	0.252
626.89	0.253
627.34	0.255
627.78	0.255
628.23	0.253
628.68	0.254
629.13	0.254
629.58	0.254
630.02	0.255
630.47	0.255
630.92	0.254
631.37	0.253
631.81	0.255
632.26	0.255
632.71	0.257
633.16	0.255
633.61	0.256
634.05	0.253
634.50	0.255
634.95	0.257
635.40	0.258
635.84	0.258
636.29	0.259
636.74	0.259
637.18	0.259
637.63	0.257
638.08	0.256
638.53	0.259
638.97	0.257
639.42	0.260
639.87	0.261
640.32	0.258
640.76	0.259
641.21	0.259
641.66	0.262
642.10	0.263
642.55	0.260
643.00	0.261
643.44	0.261
643.89	0.262
644.34	0.261
644.79	0.263
645.23	0.262
645.68	0.264
646.13	0.263
646.57	0.265
647.02	0.264
647.47	0.266
647.91	0.266
648.36	0.265
648.81	0.265
649.25	0.265
649.70	0.265
650.15	0.265
650.59	0.266
651.04	0.265
651.48	0.269
651.93	0.268
652.38	0.265
652.82	0.267
653.27	0.268
653.72	0.266
654.16	0.264
654.61	0.268
655.06	0.266
655.50	0.265
655.95	0.265
656.39	0.260
656.84	0.264
657.29	0.270
657.73	0.266
658.18	0.268
658.62	0.268
659.07	0.267
659.52	0.266
659.96	0.265
660.41	0.266
660.85	0.262
661.30	0.263
661.74	0.265
662.19	0.262
662.64	0.261
663.08	0.263
663.53	0.261
663.97	0.259
664.42	0.257
664.86	0.260
665.31	0.260
665.75	0.257
666.20	0.257
666.65	0.256
667.09	0.255
667.54	0.257
667.98	0.255
668.43	0.253
668.87	0.252
669.32	0.251
669.76	0.250
670.21	0.250
670.65	0.245
671.10	0.246
671.54	0.244
671.99	0.242
672.43	0.242
672.88	0.241
673.32	0.241
673.77	0.236
674.21	0.233
674.66	0.233
675.10	0.233
675.55	0.228
675.99	0.231
676.44	0.228
676.88	0.227
677.33	0.225
677.77	0.222
678.22	0.221
678.66	0.219
679.11	0.218
679.55	0.217
679.99	0.213
680.44	0.215
680.88	0.212
681.33	0.210
681.77	0.207
682.22	0.206
682.66	0.203
683.11	0.201
683.55	0.201
683.99	0.198
684.44	0.195
684.88	0.194
685.33	0.196
685.77	0.192
686.21	0.188
686.66	0.189
687.10	0.187
687.55	0.186
687.99	0.186
688.44	0.186
688.88	0.184
689.32	0.183
689.77	0.180
690.21	0.180
690.65	0.178
691.10	0.178
691.54	0.176
691.99	0.175
692.43	0.174
692.87	0.172
693.32	0.175
693.76	0.175
694.20	0.172
694.65	0.169
695.09	0.170
695.53	0.167
695.98	0.170
696.42	0.168
696.86	0.168
697.31	0.164
697.75	0.165
698.19	0.163
698.64	0.165
699.08	0.164
699.52	0.162
699.97	0.161
700.41	0.162
700.85	0.162
701.30	0.160
701.74	0.162
702.18	0.161
702.63	0.159
703.07	0.158
703.51	0.163
703.96	0.158
704.40	0.158
704.84	0.160
705.28	0.158
705.73	0.157
706.17	0.159
706.61	0.156
707.06	0.155
707.50	0.156
707.94	0.155
708.38	0.155
708.83	0.157
709.27	0.155
709.71	0.155
710.15	0.156
710.60	0.154
711.04	0.152
711.48	0.156
711.92	0.155
712.37	0.153
712.81	0.156
713.25	0.152
713.69	0.153
714.13	0.154
714.58	0.153
715.02	0.154
715.46	0.151
715.90	0.150
716.35	0.150
716.79	0.155
717.23	0.152
717.67	0.151
718.11	0.153
718.56	0.151
719.00	0.154
719.44	0.152
719.88	0.150
720.32	0.149
720.76	0.151
721.21	0.151
721.65	0.149
722.09	0.150
722.53	0.149
722.97	0.150
723.41	0.147
723.86	0.150
724.30	0.150
724.74	0.150
725.18	0.150
725.62	0.150
726.06	0.151
726.50	0.149
726.95	0.148
727.39	0.150
727.83	0.148
728.27	0.150
728.71	0.148
729.15	0.151
729.59	0.150
730.03	0.145
730.48	0.147
730.92	0.147
731.36	0.149
731.80	0.148
732.24	0.149
732.68	0.148
733.12	0.146
733.56	0.148
734.00	0.149
734.44	0.148
734.89	0.148
735.33	0.149
735.77	0.150
736.21	0.149
736.65	0.146
737.09	0.150
737.53	0.151
737.97	0.148
738.41	0.151
738.85	0.152
739.29	0.151
739.73	0.149
740.17	0.149
740.61	0.150
741.05	0.151
741.49	0.148
741.93	0.147
742.37	0.145
742.81	0.147
743.26	0.146
743.70	0.145
744.14	0.148
744.58	0.146
745.02	0.147
745.46	0.148
745.90	0.145
746.34	0.150
746.78	0.146
747.22	0.148
747.66	0.147
748.10	0.147
748.54	0.146
748.98	0.145
749.42	0.144
749.86	0.147
750.29	0.145
750.73	0.143
751.17	0.144
751.61	0.144
752.05	0.146
752.49	0.141
752.93	0.142
753.37	0.143
753.81	0.140
754.25	0.143
754.69	0.141
755.13	0.141
755.57	0.144
756.01	0.142
756.45	0.141
756.89	0.140
757.33	0.139
757.77	0.142
758.21	0.140
758.64	0.141
759.08	0.139
759.52	0.143
759.96	0.142
760.40	0.140
760.84	0.143
761.28	0.141
761.72	0.143
762.16	0.143
762.60	0.140
763.03	0.141
763.47	0.138
763.91	0.143
764.35	0.141
764.79	0.137
765.23	0.138
765.67	0.140
766.11	0.138
766.54	0.139
766.98	0.140
767.42	0.138
767.86	0.140
768.30	0.140
768.74	0.139
769.17	0.141
769.61	0.140
770.05	0.138
770.49	0.140
770.93	0.138
771.37	0.140
771.80	0.136
772.24	0.137
772.68	0.136
773.12	0.136
773.56	0.136
774.00	0.136
774.43	0.137
774.87	0.135
775.31	0.136
775.75	0.137
776.19	0.137
776.62	0.135
777.06	0.138
777.50	0.138
777.94	0.137
778.37	0.133
778.81	0.137
779.25	0.136
779.69	0.136
780.13	0.139
780.56	0.133
781.00	0.135
781.44	0.138
781.88	0.134
782.31	0.133
782.75	0.135
783.19	0.138
783.63	0.133
784.06	0.132
784.50	0.138
784.94	0.134
785.37	0.132
785.81	0.134
786.25	0.136
786.69	0.132
787.12	0.132
787.56	0.131
788.00	0.134
788.43	0.136
788.87	0.132
789.31	0.132
789.75	0.134
790.18	0.130
790.62	0.130
791.06	0.135
791.49	0.133
791.93	0.132
792.37	0.134
792.80	0.129
793.24	0.132
793.68	0.133
794.11	0.130
794.55	0.134
794.99	0.135
795.42	0.130
795.86	0.133
796.30	0.132
796.73	0.131
797.17	0.130
797.61	0.130
798.04	0.131
798.48	0.133
798.91	0.130
799.35	0.132
799.79	0.133
800.22	0.130
800.66	0.128
801.10	0.131
801.53	0.129
801.97	0.137
802.40	0.133
802.84	0.129
803.28	0.129
803.71	0.128
804.15	0.125
804.58	0.126
805.02	0.129
805.46	0.132
805.89	0.128
806.33	0.128
806.76	0.128
807.20	0.130
807.63	0.125
808.07	0.131
808.51	0.126
808.94	0.127
809.38	0.124
809.81	0.126
810.25	0.132
810.68	0.129
811.12	0.133
811.55	0.131
811.99	0.130
812.42	0.126
812.86	0.126
813.29	0.129
813.73	0.129
814.17	0.128
