SpectraSuite Data File
++++++++++++++++++++++++++++++++++++
Date: Sun Apr 24 13:53:14 CEST 2016
User: spectrasuite
Dark Spectrum Present: Yes
Reference Spectrum Present: Yes
Number of Sampled Component Spectra: 1
Spectrometers: HR+C0708
Integration Time (usec): 1000 (HR+C0708)
Spectra Averaged: 10 (HR+C0708)
Boxcar Smoothing: 0 (HR+C0708)
Correct for Electrical Dark: No (HR+C0708)
Strobe/Lamp Enabled: No (HR+C0708)
Correct for Detector Non-linearity: No (HR+C0708)
Correct for Stray Light: No (HR+C0708)
Number of Pixels in Processed Spectrum: 2048
>>>>>Begin Processed Spectral Data<<<<<
188.76	-0.000
189.23	1.235
189.70	-0.000
190.17	-0.000
190.64	-0.000
191.12	-0.000
191.59	1.288
192.06	0.673
192.53	-0.000
193.01	-0.000
193.48	1.015
193.95	-0.000
194.42	-0.000
194.90	0.746
195.37	-0.000
195.84	-0.000
196.31	-0.000
196.78	-0.000
197.26	-0.000
197.73	-0.000
198.20	-0.000
198.67	-0.000
199.14	-0.000
199.62	-0.000
200.09	1.396
200.56	-0.000
201.03	-0.000
201.50	0.958
201.97	0.627
202.45	0.872
202.92	0.791
203.39	1.232
203.86	1.282
204.33	2.668
204.80	1.218
205.28	0.674
205.75	-0.000
206.22	1.609
206.69	0.680
207.16	0.931
207.63	1.407
208.11	0.727
208.58	0.937
209.05	0.934
209.52	0.848
209.99	1.175
210.46	0.833
210.93	1.004
211.41	0.957
211.88	1.445
212.35	0.940
212.82	0.964
213.29	-0.000
213.76	0.648
214.23	1.299
214.70	1.873
215.18	1.248
215.65	0.905
216.12	0.721
216.59	1.130
217.06	1.213
217.53	0.961
218.00	0.895
218.47	-0.000
218.94	0.930
219.41	1.038
219.89	-0.000
220.36	1.166
220.83	0.883
221.30	0.920
221.77	1.246
222.24	0.814
222.71	2.846
223.18	1.298
223.65	-0.000
224.12	1.603
224.59	-0.000
225.06	-0.000
225.54	1.157
226.01	0.915
226.48	1.170
226.95	1.502
227.42	1.252
227.89	2.798
228.36	1.420
228.83	1.664
229.30	1.399
229.77	1.869
230.24	1.523
230.71	2.072
231.18	1.655
231.65	1.718
232.12	1.615
232.59	1.666
233.06	2.117
233.53	1.833
234.00	1.819
234.47	2.110
234.94	2.592
235.41	2.598
235.88	2.220
236.35	2.594
236.82	2.157
237.29	2.299
237.76	2.317
238.23	2.863
238.70	2.928
239.17	2.294
239.64	2.556
240.11	-0.000
240.58	2.936
241.05	2.314
241.52	2.353
241.99	3.057
242.46	3.117
242.93	2.536
243.40	2.529
243.87	2.419
244.34	2.469
244.81	2.850
245.28	3.167
245.75	3.001
246.22	3.190
246.69	2.748
247.16	2.593
247.63	2.497
248.10	2.460
248.57	2.736
249.04	-0.000
249.51	3.072
249.98	3.181
250.45	3.111
250.92	2.675
251.39	2.877
251.85	2.815
252.32	-0.000
252.79	2.916
253.26	2.680
253.73	3.470
254.20	2.664
254.67	2.648
255.14	2.765
255.61	3.200
256.08	3.119
256.55	3.176
257.02	3.071
257.49	3.194
257.95	3.030
258.42	2.943
258.89	3.134
259.36	2.949
259.83	3.090
260.30	3.734
260.77	3.181
261.24	2.904
261.71	3.542
262.17	-0.000
262.64	2.878
263.11	3.216
263.58	-0.000
264.05	3.017
264.52	2.791
264.99	2.817
265.46	3.013
265.92	3.392
266.39	2.783
266.86	3.709
267.33	3.312
267.80	2.878
268.27	2.978
268.74	3.170
269.20	3.419
269.67	3.216
270.14	2.818
270.61	2.908
271.08	2.962
271.55	2.749
272.01	2.883
272.48	2.808
272.95	2.822
273.42	2.832
273.89	3.088
274.36	3.074
274.82	2.700
275.29	2.733
275.76	2.738
276.23	2.776
276.70	2.859
277.16	2.583
277.63	2.713
278.10	2.907
278.57	2.786
279.04	3.211
279.50	2.953
279.97	2.780
280.44	2.541
280.91	2.814
281.38	2.648
281.84	2.643
282.31	2.760
282.78	2.983
283.25	2.631
283.72	2.496
284.18	2.702
284.65	2.747
285.12	2.539
285.59	2.617
286.05	2.716
286.52	2.631
286.99	2.530
287.46	2.598
287.92	2.607
288.39	2.520
288.86	2.575
289.33	2.469
289.79	2.587
290.26	2.523
290.73	2.468
291.20	2.647
291.66	2.612
292.13	2.477
292.60	2.391
293.07	2.440
293.53	2.363
294.00	2.416
294.47	2.428
294.93	2.518
295.40	2.393
295.87	2.406
296.34	2.526
296.80	2.415
297.27	2.444
297.74	2.392
298.20	2.403
298.67	2.330
299.14	2.381
299.60	2.380
300.07	2.370
300.54	2.327
301.01	2.345
301.47	2.261
301.94	2.239
302.41	2.220
302.87	2.330
303.34	2.366
303.81	2.232
304.27	2.268
304.74	2.247
305.21	2.318
305.67	2.217
306.14	2.220
306.61	2.311
307.07	2.231
307.54	2.189
308.01	2.167
308.47	2.207
308.94	2.239
309.40	2.225
309.87	2.192
310.34	2.184
310.80	2.190
311.27	2.214
311.74	2.202
312.20	2.183
312.67	2.168
313.13	2.131
313.60	2.189
314.07	2.189
314.53	2.158
315.00	2.111
315.47	2.192
315.93	2.116
316.40	2.072
316.86	2.124
317.33	2.086
317.80	2.109
318.26	2.113
318.73	2.122
319.19	2.106
319.66	2.120
320.13	2.079
320.59	2.122
321.06	2.080
321.52	2.093
321.99	2.075
322.45	2.072
322.92	2.020
323.39	2.051
323.85	2.032
324.32	2.080
324.78	2.060
325.25	2.070
325.71	1.993
326.18	1.981
326.64	2.063
327.11	2.055
327.58	1.978
328.04	1.940
328.51	2.015
328.97	1.959
329.44	1.923
329.90	1.914
330.37	1.939
330.83	1.854
331.30	1.935
331.76	1.873
332.23	1.857
332.69	1.823
333.16	1.779
333.62	1.780
334.09	1.760
334.56	1.716
335.02	1.692
335.49	1.686
335.95	1.635
336.42	1.609
336.88	1.583
337.35	1.559
337.81	1.516
338.28	1.489
338.74	1.453
339.20	1.411
339.67	1.385
340.13	1.345
340.60	1.315
341.06	1.270
341.53	1.238
341.99	1.214
342.46	1.174
342.92	1.135
343.39	1.099
343.85	1.080
344.32	1.041
344.78	1.026
345.25	0.998
345.71	0.973
346.17	0.944
346.64	0.915
347.10	0.880
347.57	0.844
348.03	0.816
348.50	0.790
348.96	0.766
349.43	0.747
349.89	0.719
350.35	0.697
350.82	0.684
351.28	0.667
351.75	0.643
352.21	0.623
352.67	0.602
353.14	0.590
353.60	0.575
354.07	0.563
354.53	0.543
355.00	0.538
355.46	0.522
355.92	0.510
356.39	0.502
356.85	0.493
357.31	0.485
357.78	0.473
358.24	0.465
358.71	0.456
359.17	0.456
359.63	0.443
360.10	0.433
360.56	0.434
361.03	0.431
361.49	0.425
361.95	0.421
362.42	0.419
362.88	0.412
363.34	0.409
363.81	0.405
364.27	0.403
364.73	0.400
365.20	0.400
365.66	0.395
366.12	0.394
366.59	0.391
367.05	0.389
367.51	0.388
367.98	0.382
368.44	0.384
368.90	0.382
369.37	0.382
369.83	0.376
370.29	0.376
370.76	0.374
371.22	0.373
371.68	0.368
372.15	0.367
372.61	0.363
373.07	0.364
373.54	0.365
374.00	0.363
374.46	0.362
374.92	0.360
375.39	0.356
375.85	0.358
376.31	0.357
376.78	0.352
377.24	0.351
377.70	0.354
378.16	0.349
378.63	0.352
379.09	0.348
379.55	0.346
380.01	0.347
380.48	0.345
380.94	0.343
381.40	0.341
381.87	0.339
382.33	0.340
382.79	0.342
383.25	0.337
383.72	0.338
384.18	0.335
384.64	0.334
385.10	0.334
385.56	0.332
386.03	0.331
386.49	0.329
386.95	0.327
387.41	0.329
387.88	0.326
388.34	0.326
388.80	0.325
389.26	0.323
389.72	0.322
390.19	0.321
390.65	0.323
391.11	0.320
391.57	0.320
392.04	0.316
392.50	0.315
392.96	0.315
393.42	0.313
393.88	0.315
394.34	0.312
394.81	0.312
395.27	0.312
395.73	0.312
396.19	0.310
396.65	0.307
397.12	0.308
397.58	0.308
398.04	0.304
398.50	0.305
398.96	0.304
399.42	0.305
399.89	0.301
400.35	0.302
400.81	0.301
401.27	0.300
401.73	0.299
402.19	0.297
402.65	0.296
403.12	0.295
403.58	0.293
404.04	0.294
404.50	0.294
404.96	0.291
405.42	0.293
405.88	0.292
406.34	0.291
406.81	0.289
407.27	0.290
407.73	0.290
408.19	0.283
408.65	0.285
409.11	0.285
409.57	0.286
410.03	0.282
410.49	0.284
410.96	0.282
411.42	0.284
411.88	0.281
412.34	0.280
412.80	0.282
413.26	0.276
413.72	0.277
414.18	0.277
414.64	0.274
415.10	0.275
415.56	0.276
416.02	0.275
416.48	0.275
416.95	0.271
417.41	0.273
417.87	0.270
418.33	0.270
418.79	0.267
419.25	0.270
419.71	0.266
420.17	0.268
420.63	0.267
421.09	0.262
421.55	0.261
422.01	0.268
422.47	0.265
422.93	0.264
423.39	0.263
423.85	0.264
424.31	0.261
424.77	0.262
425.23	0.261
425.69	0.263
426.15	0.260
426.61	0.260
427.07	0.257
427.53	0.259
427.99	0.254
428.45	0.256
428.91	0.258
429.37	0.254
429.83	0.253
430.29	0.252
430.75	0.255
431.21	0.255
431.67	0.254
432.13	0.252
432.59	0.248
433.05	0.253
433.51	0.251
433.97	0.249
434.43	0.250
434.89	0.251
435.35	0.248
435.81	0.246
436.27	0.245
436.73	0.245
437.19	0.245
437.65	0.247
438.11	0.243
438.57	0.245
439.03	0.238
439.48	0.243
439.94	0.242
440.40	0.242
440.86	0.244
441.32	0.239
441.78	0.241
442.24	0.239
442.70	0.242
443.16	0.238
443.62	0.237
444.08	0.236
444.54	0.238
444.99	0.236
445.45	0.233
445.91	0.235
446.37	0.236
446.83	0.232
447.29	0.233
447.75	0.232
448.21	0.233
448.67	0.232
449.12	0.228
449.58	0.233
450.04	0.229
450.50	0.230
450.96	0.232
451.42	0.228
451.88	0.229
452.34	0.228
452.79	0.224
453.25	0.226
453.71	0.227
454.17	0.225
454.63	0.226
455.09	0.224
455.55	0.226
456.00	0.226
456.46	0.221
456.92	0.221
457.38	0.224
457.84	0.221
458.30	0.217
458.75	0.224
459.21	0.216
459.67	0.221
460.13	0.220
460.59	0.218
461.04	0.219
461.50	0.219
461.96	0.219
462.42	0.220
462.88	0.220
463.33	0.216
463.79	0.217
464.25	0.216
464.71	0.216
465.17	0.215
465.62	0.216
466.08	0.216
466.54	0.215
467.00	0.214
467.46	0.214
467.91	0.212
468.37	0.213
468.83	0.214
469.29	0.212
469.74	0.212
470.20	0.211
470.66	0.209
471.12	0.207
471.57	0.210
472.03	0.209
472.49	0.208
472.95	0.210
473.40	0.209
473.86	0.207
474.32	0.205
474.78	0.206
475.23	0.206
475.69	0.208
476.15	0.206
476.60	0.206
477.06	0.206
477.52	0.202
477.98	0.201
478.43	0.201
478.89	0.203
479.35	0.203
479.80	0.204
480.26	0.202
480.72	0.201
481.18	0.203
481.63	0.202
482.09	0.202
482.55	0.200
483.00	0.199
483.46	0.200
483.92	0.199
484.37	0.200
484.83	0.200
485.29	0.197
485.74	0.198
486.20	0.199
486.66	0.197
487.11	0.194
487.57	0.196
488.03	0.194
488.48	0.195
488.94	0.192
489.40	0.193
489.85	0.194
490.31	0.195
490.77	0.192
491.22	0.194
491.68	0.192
492.13	0.190
492.59	0.193
493.05	0.189
493.50	0.192
493.96	0.191
494.42	0.190
494.87	0.188
495.33	0.189
495.78	0.191
496.24	0.190
496.70	0.187
497.15	0.189
497.61	0.189
498.06	0.189
498.52	0.187
498.98	0.186
499.43	0.187
499.89	0.190
500.34	0.187
500.80	0.188
501.25	0.185
501.71	0.184
502.17	0.184
502.62	0.187
503.08	0.182
503.53	0.180
503.99	0.180
504.44	0.181
504.90	0.182
505.36	0.179
505.81	0.182
506.27	0.180
506.72	0.182
507.18	0.179
507.63	0.179
508.09	0.181
508.54	0.177
509.00	0.178
509.45	0.179
509.91	0.177
510.36	0.179
510.82	0.178
511.27	0.176
511.73	0.180
512.19	0.177
512.64	0.176
513.10	0.176
513.55	0.177
514.01	0.176
514.46	0.176
514.92	0.174
515.37	0.176
515.83	0.177
516.28	0.174
516.73	0.176
517.19	0.175
517.64	0.173
518.10	0.173
518.55	0.172
519.01	0.171
519.46	0.172
519.92	0.174
520.37	0.170
520.83	0.171
521.28	0.171
521.74	0.169
522.19	0.172
522.65	0.169
523.10	0.172
523.55	0.169
524.01	0.171
524.46	0.168
524.92	0.168
525.37	0.169
525.83	0.166
526.28	0.167
526.73	0.167
527.19	0.170
527.64	0.169
528.10	0.166
528.55	0.165
529.01	0.168
529.46	0.167
529.91	0.166
530.37	0.165
530.82	0.165
531.28	0.165
531.73	0.163
532.18	0.165
532.64	0.164
533.09	0.163
533.54	0.162
534.00	0.164
534.45	0.163
534.91	0.164
535.36	0.164
535.81	0.162
536.27	0.162
536.72	0.165
537.17	0.162
537.63	0.162
538.08	0.162
538.54	0.163
538.99	0.162
539.44	0.161
539.90	0.160
540.35	0.160
540.80	0.160
541.26	0.162
541.71	0.156
542.16	0.161
542.62	0.159
543.07	0.160
543.52	0.159
543.98	0.160
544.43	0.158
544.88	0.158
545.34	0.160
545.79	0.158
546.24	0.155
546.69	0.158
547.15	0.156
547.60	0.157
548.05	0.157
548.51	0.155
548.96	0.156
549.41	0.156
549.86	0.157
550.32	0.156
550.77	0.158
551.22	0.155
551.68	0.154
552.13	0.154
552.58	0.153
553.03	0.155
553.49	0.152
553.94	0.155
554.39	0.155
554.84	0.154
555.30	0.155
555.75	0.153
556.20	0.152
556.65	0.153
557.11	0.154
557.56	0.153
558.01	0.155
558.46	0.155
558.92	0.152
559.37	0.151
559.82	0.152
560.27	0.151
560.72	0.152
561.18	0.152
561.63	0.153
562.08	0.150
562.53	0.152
562.99	0.153
563.44	0.151
563.89	0.151
564.34	0.151
564.79	0.152
565.25	0.151
565.70	0.149
566.15	0.151
566.60	0.150
567.05	0.150
567.50	0.151
567.96	0.150
568.41	0.149
568.86	0.148
569.31	0.148
569.76	0.147
570.21	0.149
570.67	0.148
571.12	0.150
571.57	0.148
572.02	0.147
572.47	0.147
572.92	0.148
573.37	0.148
573.83	0.146
574.28	0.148
574.73	0.148
575.18	0.150
575.63	0.147
576.08	0.145
576.53	0.146
576.98	0.146
577.44	0.146
577.89	0.145
578.34	0.146
578.79	0.146
579.24	0.148
579.69	0.147
580.14	0.143
580.59	0.145
581.04	0.145
581.49	0.145
581.95	0.145
582.40	0.144
582.85	0.146
583.30	0.142
583.75	0.144
584.20	0.144
584.65	0.144
585.10	0.145
585.55	0.146
586.00	0.145
586.45	0.146
586.90	0.146
587.35	0.146
587.80	0.145
588.25	0.145
588.71	0.147
589.16	0.146
589.61	0.146
590.06	0.145
590.51	0.148
590.96	0.147
591.41	0.145
591.86	0.147
592.31	0.146
592.76	0.147
593.21	0.147
593.66	0.147
594.11	0.148
594.56	0.146
595.01	0.147
595.46	0.146
595.91	0.146
596.36	0.148
596.81	0.147
597.26	0.147
597.71	0.149
598.16	0.148
598.61	0.147
599.06	0.148
599.51	0.150
599.96	0.148
600.41	0.150
600.86	0.149
601.31	0.149
601.76	0.151
602.21	0.152
602.65	0.150
603.10	0.150
603.55	0.150
604.00	0.149
604.45	0.150
604.90	0.149
605.35	0.149
605.80	0.151
606.25	0.152
606.70	0.152
607.15	0.152
607.60	0.150
608.05	0.149
608.50	0.150
608.95	0.149
609.39	0.152
609.84	0.152
610.29	0.151
610.74	0.151
611.19	0.150
611.64	0.150
612.09	0.150
612.54	0.150
612.99	0.150
613.44	0.149
613.88	0.152
614.33	0.149
614.78	0.149
615.23	0.149
615.68	0.150
616.13	0.150
616.58	0.148
617.03	0.149
617.47	0.150
617.92	0.148
618.37	0.148
618.82	0.147
619.27	0.149
619.72	0.148
620.17	0.147
620.61	0.149
621.06	0.148
621.51	0.149
621.96	0.147
622.41	0.150
622.86	0.149
623.30	0.147
623.75	0.148
624.20	0.147
624.65	0.147
625.10	0.146
625.54	0.149
625.99	0.148
626.44	0.148
626.89	0.148
627.34	0.150
627.78	0.149
628.23	0.146
628.68	0.148
629.13	0.147
629.58	0.148
630.02	0.148
630.47	0.147
630.92	0.148
631.37	0.148
631.81	0.148
632.26	0.148
632.71	0.150
633.16	0.149
633.61	0.148
634.05	0.149
634.50	0.148
634.95	0.149
635.40	0.150
635.84	0.151
636.29	0.151
636.74	0.151
637.18	0.151
637.63	0.151
638.08	0.149
638.53	0.152
638.97	0.150
639.42	0.151
639.87	0.151
640.32	0.152
640.76	0.153
641.21	0.152
641.66	0.152
642.10	0.156
642.55	0.152
643.00	0.153
643.44	0.155
643.89	0.153
644.34	0.155
644.79	0.154
645.23	0.155
645.68	0.156
646.13	0.156
646.57	0.156
647.02	0.155
647.47	0.158
647.91	0.159
648.36	0.158
648.81	0.158
649.25	0.157
649.70	0.159
650.15	0.159
650.59	0.159
651.04	0.161
651.48	0.163
651.93	0.161
652.38	0.160
652.82	0.161
653.27	0.162
653.72	0.163
654.16	0.161
654.61	0.162
655.06	0.161
655.50	0.161
655.95	0.159
656.39	0.157
656.84	0.160
657.29	0.165
657.73	0.163
658.18	0.165
658.62	0.164
659.07	0.163
659.52	0.165
659.96	0.167
660.41	0.168
660.85	0.163
661.30	0.165
661.74	0.164
662.19	0.165
662.64	0.167
663.08	0.166
663.53	0.165
663.97	0.164
664.42	0.165
664.86	0.166
665.31	0.166
665.75	0.164
666.20	0.166
666.65	0.164
667.09	0.164
667.54	0.166
667.98	0.166
668.43	0.161
668.87	0.163
669.32	0.163
669.76	0.161
670.21	0.162
670.65	0.160
671.10	0.161
671.54	0.160
671.99	0.160
672.43	0.157
672.88	0.157
673.32	0.157
673.77	0.154
674.21	0.155
674.66	0.154
675.10	0.152
675.55	0.150
675.99	0.152
676.44	0.148
676.88	0.148
677.33	0.146
677.77	0.145
678.22	0.143
678.66	0.142
679.11	0.140
679.55	0.142
679.99	0.139
680.44	0.140
680.88	0.136
681.33	0.134
681.77	0.132
682.22	0.133
682.66	0.132
683.11	0.128
683.55	0.127
683.99	0.128
684.44	0.126
684.88	0.125
685.33	0.124
685.77	0.124
686.21	0.121
686.66	0.122
687.10	0.119
687.55	0.117
687.99	0.118
688.44	0.117
688.88	0.116
689.32	0.118
689.77	0.114
690.21	0.114
690.65	0.112
691.10	0.112
691.54	0.110
691.99	0.112
692.43	0.108
692.87	0.107
693.32	0.108
693.76	0.109
694.20	0.110
694.65	0.107
695.09	0.108
695.53	0.105
695.98	0.105
696.42	0.106
696.86	0.103
697.31	0.100
697.75	0.102
698.19	0.102
698.64	0.103
699.08	0.102
699.52	0.101
699.97	0.102
700.41	0.101
700.85	0.101
701.30	0.099
701.74	0.101
702.18	0.100
702.63	0.098
703.07	0.099
703.51	0.101
703.96	0.098
704.40	0.098
704.84	0.100
705.28	0.097
705.73	0.098
706.17	0.098
706.61	0.097
707.06	0.098
707.50	0.099
707.94	0.097
708.38	0.096
708.83	0.099
709.27	0.098
709.71	0.097
710.15	0.096
710.60	0.097
711.04	0.094
711.48	0.097
711.92	0.097
712.37	0.094
712.81	0.098
713.25	0.095
713.69	0.096
714.13	0.096
714.58	0.097
715.02	0.097
715.46	0.094
715.90	0.093
716.35	0.094
716.79	0.096
717.23	0.097
717.67	0.096
718.11	0.096
718.56	0.094
719.00	0.096
719.44	0.097
719.88	0.096
720.32	0.095
720.76	0.096
721.21	0.094
721.65	0.093
722.09	0.096
722.53	0.096
722.97	0.096
723.41	0.093
723.86	0.095
724.30	0.094
724.74	0.095
725.18	0.096
725.62	0.094
726.06	0.096
726.50	0.093
726.95	0.093
727.39	0.095
727.83	0.096
728.27	0.097
728.71	0.097
729.15	0.097
729.59	0.098
730.03	0.095
730.48	0.095
730.92	0.096
731.36	0.095
731.80	0.095
732.24	0.096
732.68	0.094
733.12	0.094
733.56	0.094
734.00	0.095
734.44	0.097
734.89	0.095
735.33	0.098
735.77	0.099
736.21	0.096
736.65	0.096
737.09	0.100
737.53	0.097
737.97	0.097
738.41	0.097
738.85	0.102
739.29	0.100
739.73	0.096
740.17	0.096
740.61	0.100
741.05	0.099
741.49	0.098
741.93	0.098
742.37	0.094
742.81	0.095
743.26	0.098
743.70	0.096
744.14	0.096
744.58	0.096
745.02	0.097
745.46	0.097
745.90	0.098
746.34	0.097
746.78	0.097
747.22	0.098
747.66	0.098
748.10	0.096
748.54	0.095
748.98	0.095
749.42	0.098
749.86	0.098
750.29	0.097
750.73	0.095
751.17	0.096
751.61	0.094
752.05	0.097
752.49	0.094
752.93	0.093
753.37	0.093
753.81	0.094
754.25	0.093
754.69	0.094
755.13	0.095
755.57	0.098
756.01	0.095
756.45	0.096
756.89	0.095
757.33	0.096
757.77	0.095
758.21	0.095
758.64	0.091
759.08	0.089
759.52	0.094
759.96	0.096
760.40	0.094
760.84	0.092
761.28	0.092
761.72	0.094
762.16	0.095
762.60	0.091
763.03	0.092
763.47	0.093
763.91	0.094
764.35	0.091
764.79	0.093
765.23	0.092
765.67	0.093
766.11	0.089
766.54	0.089
766.98	0.093
767.42	0.091
767.86	0.089
768.30	0.094
768.74	0.095
769.17	0.095
769.61	0.095
770.05	0.090
770.49	0.094
770.93	0.093
771.37	0.089
771.80	0.090
772.24	0.089
772.68	0.091
773.12	0.090
773.56	0.090
774.00	0.089
774.43	0.089
774.87	0.090
775.31	0.091
775.75	0.089
776.19	0.090
776.62	0.090
777.06	0.092
777.50	0.089
777.94	0.089
778.37	0.091
778.81	0.089
779.25	0.090
779.69	0.091
780.13	0.092
780.56	0.090
781.00	0.089
781.44	0.092
781.88	0.091
782.31	0.085
782.75	0.087
783.19	0.090
783.63	0.086
784.06	0.087
784.50	0.090
784.94	0.087
785.37	0.090
785.81	0.091
786.25	0.091
786.69	0.086
787.12	0.088
787.56	0.088
788.00	0.089
788.43	0.092
788.87	0.088
789.31	0.089
789.75	0.090
790.18	0.088
790.62	0.087
791.06	0.087
791.49	0.083
791.93	0.083
792.37	0.092
792.80	0.087
793.24	0.086
793.68	0.093
794.11	0.090
794.55	0.089
794.99	0.090
795.42	0.086
795.86	0.090
796.30	0.087
796.73	0.089
797.17	0.088
797.61	0.086
798.04	0.089
798.48	0.087
798.91	0.087
799.35	0.086
799.79	0.089
800.22	0.088
800.66	0.087
801.10	0.088
801.53	0.086
801.97	0.090
802.40	0.088
802.84	0.087
803.28	0.084
803.71	0.087
804.15	0.084
804.58	0.086
805.02	0.087
805.46	0.086
805.89	0.087
806.33	0.088
806.76	0.085
807.20	0.086
807.63	0.087
808.07	0.089
808.51	0.083
808.94	0.083
809.38	0.087
809.81	0.084
810.25	0.091
810.68	0.089
811.12	0.089
811.55	0.087
811.99	0.087
812.42	0.090
812.86	0.086
813.29	0.084
813.73	0.088
814.17	0.085
814.60	0.083
815.04	0.085
815.47	0.084
815.91	0.087
816.34	0.088
816.78	0.085
