SpectraSuite Data File
++++++++++++++++++++++++++++++++++++
Date: Sun Apr 24 15:55:47 CEST 2016
User: spectrasuite
Dark Spectrum Present: Yes
Reference Spectrum Present: Yes
Number of Sampled Component Spectra: 1
Spectrometers: HR+C0708
Integration Time (usec): 1000 (HR+C0708)
Spectra Averaged: 10 (HR+C0708)
Boxcar Smoothing: 0 (HR+C0708)
Correct for Electrical Dark: No (HR+C0708)
Strobe/Lamp Enabled: No (HR+C0708)
Correct for Detector Non-linearity: No (HR+C0708)
Correct for Stray Light: No (HR+C0708)
Number of Pixels in Processed Spectrum: 2048
>>>>>Begin Processed Spectral Data<<<<<
188.76	-0.000
189.23	-0.000
189.70	-0.000
190.17	-0.000
190.64	-0.000
191.12	-0.000
191.59	-0.000
192.06	-0.000
192.53	-0.000
193.01	-0.000
193.48	-0.000
193.95	-0.000
194.42	-0.000
194.90	-0.000
195.37	-0.000
195.84	-0.000
196.31	-0.000
196.78	-0.000
197.26	-0.000
197.73	-0.000
198.20	-0.000
198.67	-0.000
199.14	-0.000
199.62	-0.000
200.09	-0.000
200.56	-0.000
201.03	-0.000
201.50	1.352
201.97	-0.000
202.45	-0.000
202.92	1.195
203.39	-0.000
203.86	1.435
204.33	1.969
204.80	-0.000
205.28	1.573
205.75	-0.000
206.22	-0.000
206.69	1.972
207.16	-0.000
207.63	-0.000
208.11	0.774
208.58	-0.000
209.05	-0.000
209.52	1.867
209.99	1.175
210.46	1.195
210.93	0.978
211.41	-0.000
211.88	-0.000
212.35	-0.000
212.82	-0.000
213.29	1.288
213.76	-0.000
214.23	1.317
214.70	-0.000
215.18	1.850
215.65	-0.000
216.12	1.090
216.59	1.341
217.06	-0.000
217.53	0.900
218.00	-0.000
218.47	1.556
218.94	-0.000
219.41	-0.000
219.89	-0.000
220.36	1.518
220.83	-0.000
221.30	-0.000
221.77	-0.000
222.24	-0.000
222.71	-0.000
223.18	-0.000
223.65	1.231
224.12	-0.000
224.59	-0.000
225.06	2.332
225.54	1.277
226.01	1.112
226.48	3.147
226.95	-0.000
227.42	-0.000
227.89	-0.000
228.36	2.109
228.83	-0.000
229.30	1.764
229.77	2.091
230.24	1.848
230.71	2.661
231.18	-0.000
231.65	3.718
232.12	1.929
232.59	2.371
233.06	-0.000
233.53	2.306
234.00	3.652
234.47	2.766
234.94	-0.000
235.41	-0.000
235.88	-0.000
236.35	-0.000
236.82	2.603
237.29	2.383
237.76	-0.000
238.23	2.952
238.70	2.821
239.17	2.686
239.64	-0.000
240.11	-0.000
240.58	2.742
241.05	-0.000
241.52	3.084
241.99	3.405
242.46	2.896
242.93	3.565
243.40	2.570
243.87	2.852
244.34	2.512
244.81	3.587
245.28	-0.000
245.75	3.450
246.22	-0.000
246.69	3.086
247.16	-0.000
247.63	2.980
248.10	2.922
248.57	3.194
249.04	-0.000
249.51	-0.000
249.98	-0.000
250.45	-0.000
250.92	3.177
251.39	3.540
251.85	-0.000
252.32	-0.000
252.79	-0.000
253.26	3.638
253.73	-0.000
254.20	2.865
254.67	2.717
255.14	3.096
255.61	-0.000
256.08	2.954
256.55	-0.000
257.02	3.217
257.49	3.629
257.95	3.144
258.42	2.874
258.89	3.266
259.36	3.331
259.83	4.156
260.30	-0.000
260.77	-0.000
261.24	2.849
261.71	3.366
262.17	3.417
262.64	2.744
263.11	3.038
263.58	4.134
264.05	3.196
264.52	2.949
264.99	2.875
265.46	2.831
265.92	3.212
266.39	2.788
266.86	3.457
267.33	3.146
267.80	2.627
268.27	2.863
268.74	3.069
269.20	3.149
269.67	2.911
270.14	2.620
270.61	2.687
271.08	2.647
271.55	2.632
272.01	2.666
272.48	2.684
272.95	2.609
273.42	2.702
273.89	2.650
274.36	2.551
274.82	2.420
275.29	2.527
275.76	2.511
276.23	2.500
276.70	2.635
277.16	2.471
277.63	2.386
278.10	2.382
278.57	2.422
279.04	2.468
279.50	2.435
279.97	2.400
280.44	2.313
280.91	2.264
281.38	2.218
281.84	2.365
282.31	2.329
282.78	2.436
283.25	2.329
283.72	2.210
284.18	2.297
284.65	2.315
285.12	2.231
285.59	2.233
286.05	2.236
286.52	2.183
286.99	2.252
287.46	2.236
287.92	2.240
288.39	2.200
288.86	2.159
289.33	2.155
289.79	2.176
290.26	2.187
290.73	2.120
291.20	2.116
291.66	2.143
292.13	2.090
292.60	2.080
293.07	2.090
293.53	2.037
294.00	2.085
294.47	2.078
294.93	2.079
295.40	2.088
295.87	2.067
296.34	2.048
296.80	2.017
297.27	2.040
297.74	2.012
298.20	2.013
298.67	1.956
299.14	2.014
299.60	1.972
300.07	1.957
300.54	1.984
301.01	1.962
301.47	1.974
301.94	1.924
302.41	1.952
302.87	1.950
303.34	1.959
303.81	1.916
304.27	1.900
304.74	1.910
305.21	1.874
305.67	1.899
306.14	1.873
306.61	1.872
307.07	1.845
307.54	1.871
308.01	1.845
308.47	1.841
308.94	1.832
309.40	1.838
309.87	1.824
310.34	1.817
310.80	1.827
311.27	1.821
311.74	1.792
312.20	1.807
312.67	1.784
313.13	1.758
313.60	1.786
314.07	1.776
314.53	1.749
315.00	1.730
315.47	1.774
315.93	1.757
316.40	1.727
316.86	1.748
317.33	1.726
317.80	1.714
318.26	1.711
318.73	1.731
319.19	1.725
319.66	1.689
320.13	1.694
320.59	1.701
321.06	1.697
321.52	1.680
321.99	1.670
322.45	1.669
322.92	1.650
323.39	1.644
323.85	1.644
324.32	1.646
324.78	1.634
325.25	1.636
325.71	1.622
326.18	1.600
326.64	1.629
327.11	1.587
327.58	1.586
328.04	1.559
328.51	1.572
328.97	1.570
329.44	1.548
329.90	1.544
330.37	1.548
330.83	1.526
331.30	1.533
331.76	1.527
332.23	1.502
332.69	1.489
333.16	1.468
333.62	1.461
334.09	1.457
334.56	1.432
335.02	1.429
335.49	1.407
335.95	1.397
336.42	1.371
336.88	1.382
337.35	1.348
337.81	1.356
338.28	1.332
338.74	1.321
339.20	1.317
339.67	1.293
340.13	1.282
340.60	1.265
341.06	1.231
341.53	1.214
341.99	1.214
342.46	1.192
342.92	1.173
343.39	1.149
343.85	1.127
344.32	1.118
344.78	1.111
345.25	1.090
345.71	1.079
346.17	1.066
346.64	1.043
347.10	1.022
347.57	1.002
348.03	0.981
348.50	0.968
348.96	0.948
349.43	0.936
349.89	0.915
350.35	0.906
350.82	0.890
351.28	0.874
351.75	0.858
352.21	0.853
352.67	0.833
353.14	0.832
353.60	0.818
354.07	0.803
354.53	0.791
355.00	0.778
355.46	0.772
355.92	0.756
356.39	0.748
356.85	0.741
357.31	0.737
357.78	0.719
358.24	0.707
358.71	0.708
359.17	0.698
359.63	0.692
360.10	0.688
360.56	0.680
361.03	0.675
361.49	0.670
361.95	0.666
362.42	0.660
362.88	0.656
363.34	0.650
363.81	0.644
364.27	0.643
364.73	0.640
365.20	0.639
365.66	0.633
366.12	0.631
366.59	0.630
367.05	0.627
367.51	0.620
367.98	0.617
368.44	0.615
368.90	0.616
369.37	0.615
369.83	0.609
370.29	0.606
370.76	0.602
371.22	0.601
371.68	0.598
372.15	0.594
372.61	0.592
373.07	0.595
373.54	0.594
374.00	0.589
374.46	0.589
374.92	0.583
375.39	0.587
375.85	0.583
376.31	0.579
376.78	0.576
377.24	0.575
377.70	0.577
378.16	0.571
378.63	0.574
379.09	0.570
379.55	0.569
380.01	0.564
380.48	0.568
380.94	0.562
381.40	0.557
381.87	0.557
382.33	0.556
382.79	0.554
383.25	0.552
383.72	0.554
384.18	0.549
384.64	0.549
385.10	0.550
385.56	0.545
386.03	0.542
386.49	0.540
386.95	0.538
387.41	0.535
387.88	0.539
388.34	0.534
388.80	0.533
389.26	0.532
389.72	0.532
390.19	0.529
390.65	0.527
391.11	0.524
391.57	0.524
392.04	0.521
392.50	0.520
392.96	0.517
393.42	0.514
393.88	0.518
394.34	0.516
394.81	0.514
395.27	0.517
395.73	0.513
396.19	0.509
396.65	0.507
397.12	0.506
397.58	0.505
398.04	0.504
398.50	0.504
398.96	0.502
399.42	0.503
399.89	0.501
400.35	0.496
400.81	0.495
401.27	0.496
401.73	0.497
402.19	0.492
402.65	0.489
403.12	0.488
403.58	0.487
404.04	0.487
404.50	0.488
404.96	0.481
405.42	0.484
405.88	0.482
406.34	0.483
406.81	0.477
407.27	0.478
407.73	0.479
408.19	0.470
408.65	0.474
409.11	0.470
409.57	0.472
410.03	0.467
410.49	0.470
410.96	0.471
411.42	0.470
411.88	0.466
412.34	0.460
412.80	0.464
413.26	0.461
413.72	0.460
414.18	0.458
414.64	0.455
415.10	0.454
415.56	0.457
416.02	0.454
416.48	0.455
416.95	0.452
417.41	0.453
417.87	0.448
418.33	0.450
418.79	0.446
419.25	0.447
419.71	0.444
420.17	0.442
420.63	0.442
421.09	0.438
421.55	0.437
422.01	0.439
422.47	0.440
422.93	0.435
423.39	0.440
423.85	0.437
424.31	0.433
424.77	0.435
425.23	0.432
425.69	0.433
426.15	0.430
426.61	0.429
427.07	0.426
427.53	0.427
427.99	0.427
428.45	0.424
428.91	0.424
429.37	0.421
429.83	0.421
430.29	0.421
430.75	0.421
431.21	0.421
431.67	0.418
432.13	0.422
432.59	0.416
433.05	0.417
433.51	0.414
433.97	0.412
434.43	0.413
434.89	0.413
435.35	0.410
435.81	0.410
436.27	0.407
436.73	0.406
437.19	0.406
437.65	0.410
438.11	0.406
438.57	0.404
439.03	0.405
439.48	0.403
439.94	0.399
440.40	0.400
440.86	0.402
441.32	0.394
441.78	0.396
442.24	0.398
442.70	0.396
443.16	0.394
443.62	0.391
444.08	0.391
444.54	0.392
444.99	0.393
445.45	0.389
445.91	0.388
446.37	0.391
446.83	0.389
447.29	0.386
447.75	0.382
448.21	0.388
448.67	0.383
449.12	0.381
449.58	0.382
450.04	0.379
450.50	0.380
450.96	0.381
451.42	0.376
451.88	0.372
452.34	0.375
452.79	0.374
453.25	0.378
453.71	0.374
454.17	0.372
454.63	0.375
455.09	0.373
455.55	0.373
456.00	0.369
456.46	0.370
456.92	0.369
457.38	0.372
457.84	0.364
458.30	0.361
458.75	0.362
459.21	0.360
459.67	0.366
460.13	0.361
460.59	0.362
461.04	0.358
461.50	0.360
461.96	0.359
462.42	0.360
462.88	0.356
463.33	0.358
463.79	0.357
464.25	0.357
464.71	0.355
465.17	0.354
465.62	0.351
466.08	0.353
466.54	0.353
467.00	0.352
467.46	0.352
467.91	0.349
468.37	0.349
468.83	0.351
469.29	0.346
469.74	0.350
470.20	0.343
470.66	0.344
471.12	0.343
471.57	0.344
472.03	0.345
472.49	0.343
472.95	0.345
473.40	0.340
473.86	0.339
474.32	0.339
474.78	0.341
475.23	0.336
475.69	0.339
476.15	0.335
476.60	0.337
477.06	0.336
477.52	0.334
477.98	0.336
478.43	0.333
478.89	0.332
479.35	0.332
479.80	0.333
480.26	0.331
480.72	0.329
481.18	0.328
481.63	0.327
482.09	0.329
482.55	0.327
483.00	0.326
483.46	0.326
483.92	0.325
484.37	0.328
484.83	0.322
485.29	0.322
485.74	0.323
486.20	0.324
486.66	0.322
487.11	0.322
487.57	0.319
488.03	0.319
488.48	0.318
488.94	0.318
489.40	0.317
489.85	0.316
490.31	0.319
490.77	0.315
491.22	0.315
491.68	0.315
492.13	0.313
492.59	0.312
493.05	0.312
493.50	0.313
493.96	0.311
494.42	0.309
494.87	0.310
495.33	0.308
495.78	0.310
496.24	0.311
496.70	0.309
497.15	0.304
497.61	0.306
498.06	0.306
498.52	0.305
498.98	0.302
499.43	0.305
499.89	0.303
500.34	0.303
500.80	0.304
501.25	0.303
501.71	0.301
502.17	0.301
502.62	0.302
503.08	0.299
503.53	0.297
503.99	0.298
504.44	0.298
504.90	0.297
505.36	0.295
505.81	0.296
506.27	0.297
506.72	0.296
507.18	0.294
507.63	0.294
508.09	0.295
508.54	0.292
509.00	0.293
509.45	0.291
509.91	0.292
510.36	0.290
510.82	0.294
511.27	0.291
511.73	0.291
512.19	0.285
512.64	0.289
513.10	0.289
513.55	0.291
514.01	0.285
514.46	0.286
514.92	0.286
515.37	0.283
515.83	0.285
516.28	0.283
516.73	0.282
517.19	0.282
517.64	0.279
518.10	0.281
518.55	0.279
519.01	0.280
519.46	0.277
519.92	0.281
520.37	0.276
520.83	0.277
521.28	0.278
521.74	0.281
522.19	0.277
522.65	0.276
523.10	0.276
523.55	0.274
524.01	0.277
524.46	0.274
524.92	0.273
525.37	0.274
525.83	0.273
526.28	0.271
526.73	0.275
527.19	0.274
527.64	0.272
528.10	0.270
528.55	0.270
529.01	0.271
529.46	0.270
529.91	0.270
530.37	0.267
530.82	0.268
531.28	0.265
531.73	0.267
532.18	0.266
532.64	0.267
533.09	0.265
533.54	0.265
534.00	0.263
534.45	0.268
534.91	0.265
535.36	0.263
535.81	0.264
536.27	0.262
536.72	0.262
537.17	0.261
537.63	0.260
538.08	0.261
538.54	0.262
538.99	0.259
539.44	0.260
539.90	0.257
540.35	0.258
540.80	0.258
541.26	0.258
541.71	0.258
542.16	0.256
542.62	0.255
543.07	0.255
543.52	0.257
543.98	0.258
544.43	0.256
544.88	0.253
545.34	0.253
545.79	0.254
546.24	0.251
546.69	0.253
547.15	0.251
547.60	0.252
548.05	0.253
548.51	0.250
548.96	0.249
549.41	0.252
549.86	0.249
550.32	0.254
550.77	0.252
551.22	0.248
551.68	0.248
552.13	0.245
552.58	0.248
553.03	0.247
553.49	0.247
553.94	0.244
554.39	0.244
554.84	0.247
555.30	0.246
555.75	0.243
556.20	0.242
556.65	0.244
557.11	0.243
557.56	0.244
558.01	0.244
558.46	0.244
558.92	0.240
559.37	0.243
559.82	0.241
560.27	0.241
560.72	0.239
561.18	0.239
561.63	0.240
562.08	0.236
562.53	0.237
562.99	0.239
563.44	0.239
563.89	0.234
564.34	0.236
564.79	0.235
565.25	0.235
565.70	0.233
566.15	0.234
566.60	0.235
567.05	0.234
567.50	0.234
567.96	0.236
568.41	0.233
568.86	0.234
569.31	0.230
569.76	0.230
570.21	0.231
570.67	0.231
571.12	0.231
571.57	0.231
572.02	0.230
572.47	0.227
572.92	0.229
573.37	0.226
573.83	0.226
574.28	0.228
574.73	0.227
575.18	0.227
575.63	0.226
576.08	0.222
576.53	0.225
576.98	0.226
577.44	0.222
577.89	0.224
578.34	0.223
578.79	0.223
579.24	0.221
579.69	0.222
580.14	0.220
580.59	0.219
581.04	0.221
581.49	0.220
581.95	0.220
582.40	0.220
582.85	0.218
583.30	0.219
583.75	0.216
584.20	0.219
584.65	0.216
585.10	0.216
585.55	0.217
586.00	0.218
586.45	0.217
586.90	0.218
587.35	0.217
587.80	0.215
588.25	0.216
588.71	0.215
589.16	0.215
589.61	0.214
590.06	0.215
590.51	0.215
590.96	0.213
591.41	0.215
591.86	0.212
592.31	0.212
592.76	0.212
593.21	0.212
593.66	0.213
594.11	0.212
594.56	0.211
595.01	0.211
595.46	0.209
595.91	0.211
596.36	0.210
596.81	0.209
597.26	0.208
597.71	0.209
598.16	0.208
598.61	0.210
599.06	0.209
599.51	0.210
599.96	0.209
600.41	0.209
600.86	0.209
601.31	0.208
601.76	0.208
602.21	0.206
602.65	0.207
603.10	0.207
603.55	0.207
604.00	0.204
604.45	0.205
604.90	0.206
605.35	0.205
605.80	0.204
606.25	0.206
606.70	0.205
607.15	0.203
607.60	0.202
608.05	0.202
608.50	0.203
608.95	0.199
609.39	0.203
609.84	0.200
610.29	0.202
610.74	0.199
611.19	0.200
611.64	0.200
612.09	0.200
612.54	0.200
612.99	0.199
613.44	0.198
613.88	0.200
614.33	0.198
614.78	0.197
615.23	0.197
615.68	0.198
616.13	0.198
616.58	0.195
617.03	0.196
617.47	0.199
617.92	0.195
618.37	0.196
618.82	0.196
619.27	0.195
619.72	0.195
620.17	0.193
620.61	0.192
621.06	0.193
621.51	0.194
621.96	0.194
622.41	0.193
622.86	0.192
623.30	0.191
623.75	0.192
624.20	0.192
624.65	0.191
625.10	0.191
625.54	0.191
625.99	0.191
626.44	0.190
626.89	0.191
627.34	0.192
627.78	0.189
628.23	0.188
628.68	0.188
629.13	0.187
629.58	0.189
630.02	0.188
630.47	0.186
630.92	0.188
631.37	0.187
631.81	0.188
632.26	0.186
632.71	0.187
633.16	0.187
633.61	0.186
634.05	0.183
634.50	0.185
634.95	0.184
635.40	0.184
635.84	0.185
636.29	0.184
636.74	0.185
637.18	0.185
637.63	0.186
638.08	0.183
638.53	0.184
638.97	0.182
639.42	0.183
639.87	0.183
640.32	0.181
640.76	0.182
641.21	0.183
641.66	0.182
642.10	0.182
642.55	0.182
643.00	0.180
643.44	0.181
643.89	0.182
644.34	0.180
644.79	0.180
645.23	0.179
645.68	0.180
646.13	0.180
646.57	0.179
647.02	0.179
647.47	0.181
647.91	0.181
648.36	0.179
648.81	0.179
649.25	0.177
649.70	0.179
650.15	0.178
650.59	0.177
651.04	0.177
651.48	0.180
651.93	0.176
652.38	0.175
652.82	0.176
653.27	0.175
653.72	0.177
654.16	0.175
654.61	0.177
655.06	0.173
655.50	0.174
655.95	0.172
656.39	0.167
656.84	0.171
657.29	0.177
657.73	0.174
658.18	0.173
658.62	0.175
659.07	0.173
659.52	0.174
659.96	0.174
660.41	0.175
660.85	0.172
661.30	0.171
661.74	0.173
662.19	0.170
662.64	0.171
663.08	0.170
663.53	0.170
663.97	0.170
664.42	0.171
664.86	0.172
665.31	0.170
665.75	0.170
666.20	0.170
666.65	0.171
667.09	0.169
667.54	0.169
667.98	0.168
668.43	0.169
668.87	0.167
669.32	0.168
669.76	0.168
670.21	0.168
670.65	0.166
671.10	0.167
671.54	0.167
671.99	0.167
672.43	0.167
672.88	0.167
673.32	0.167
673.77	0.164
674.21	0.166
674.66	0.166
675.10	0.165
675.55	0.163
675.99	0.165
676.44	0.165
676.88	0.163
677.33	0.165
677.77	0.164
678.22	0.164
678.66	0.162
679.11	0.163
679.55	0.165
679.99	0.163
680.44	0.166
680.88	0.165
681.33	0.162
681.77	0.163
682.22	0.163
682.66	0.162
683.11	0.162
683.55	0.161
683.99	0.163
684.44	0.160
684.88	0.159
685.33	0.161
685.77	0.162
686.21	0.161
686.66	0.162
687.10	0.161
687.55	0.159
687.99	0.161
688.44	0.161
688.88	0.161
689.32	0.162
689.77	0.159
690.21	0.159
690.65	0.159
691.10	0.160
691.54	0.158
691.99	0.157
692.43	0.155
692.87	0.157
693.32	0.158
693.76	0.158
694.20	0.160
694.65	0.158
695.09	0.158
695.53	0.158
695.98	0.156
696.42	0.159
696.86	0.157
697.31	0.154
697.75	0.155
698.19	0.156
698.64	0.156
699.08	0.156
699.52	0.155
699.97	0.156
700.41	0.157
700.85	0.158
701.30	0.154
701.74	0.156
702.18	0.155
702.63	0.155
703.07	0.154
703.51	0.156
703.96	0.156
704.40	0.154
704.84	0.154
705.28	0.154
705.73	0.154
706.17	0.154
706.61	0.155
707.06	0.153
707.50	0.153
707.94	0.152
708.38	0.149
708.83	0.156
709.27	0.154
709.71	0.154
710.15	0.153
710.60	0.153
711.04	0.151
711.48	0.155
711.92	0.153
712.37	0.152
712.81	0.154
713.25	0.153
713.69	0.150
714.13	0.153
714.58	0.153
715.02	0.151
715.46	0.151
715.90	0.150
716.35	0.149
716.79	0.153
717.23	0.153
717.67	0.153
718.11	0.153
718.56	0.151
719.00	0.153
719.44	0.152
719.88	0.150
720.32	0.150
720.76	0.152
721.21	0.149
721.65	0.150
722.09	0.151
722.53	0.151
722.97	0.152
723.41	0.148
723.86	0.152
724.30	0.150
724.74	0.152
725.18	0.152
725.62	0.151
726.06	0.153
726.50	0.150
726.95	0.147
727.39	0.148
727.83	0.150
728.27	0.152
728.71	0.150
729.15	0.150
729.59	0.152
730.03	0.146
730.48	0.150
730.92	0.147
731.36	0.150
731.80	0.151
732.24	0.150
732.68	0.147
733.12	0.147
733.56	0.151
734.00	0.150
734.44	0.151
734.89	0.151
735.33	0.150
735.77	0.151
736.21	0.150
736.65	0.148
737.09	0.152
737.53	0.152
737.97	0.150
738.41	0.150
738.85	0.154
739.29	0.151
739.73	0.148
740.17	0.150
740.61	0.151
741.05	0.152
741.49	0.150
741.93	0.150
742.37	0.146
742.81	0.148
743.26	0.149
743.70	0.149
744.14	0.149
744.58	0.149
745.02	0.149
745.46	0.150
745.90	0.148
746.34	0.147
746.78	0.149
747.22	0.150
747.66	0.147
748.10	0.148
748.54	0.145
748.98	0.145
749.42	0.148
749.86	0.148
750.29	0.147
750.73	0.147
751.17	0.145
751.61	0.145
752.05	0.149
752.49	0.146
752.93	0.144
753.37	0.144
753.81	0.144
754.25	0.144
754.69	0.142
755.13	0.141
755.57	0.144
756.01	0.146
756.45	0.145
756.89	0.145
757.33	0.145
757.77	0.142
758.21	0.143
758.64	0.144
759.08	0.138
759.52	0.144
759.96	0.147
760.40	0.144
760.84	0.141
761.28	0.144
761.72	0.145
762.16	0.145
762.60	0.141
763.03	0.138
763.47	0.141
763.91	0.141
764.35	0.142
764.79	0.140
765.23	0.141
765.67	0.142
766.11	0.138
766.54	0.138
766.98	0.143
767.42	0.141
767.86	0.138
768.30	0.140
768.74	0.144
769.17	0.143
769.61	0.141
770.05	0.140
770.49	0.141
770.93	0.142
771.37	0.139
771.80	0.138
772.24	0.140
772.68	0.139
773.12	0.138
773.56	0.139
774.00	0.137
774.43	0.136
774.87	0.140
775.31	0.138
775.75	0.138
776.19	0.140
776.62	0.137
777.06	0.138
777.50	0.136
777.94	0.138
778.37	0.138
778.81	0.136
779.25	0.138
779.69	0.140
780.13	0.137
780.56	0.136
781.00	0.138
781.44	0.139
781.88	0.137
782.31	0.135
782.75	0.136
783.19	0.140
783.63	0.137
784.06	0.136
784.50	0.142
784.94	0.137
785.37	0.137
785.81	0.138
786.25	0.135
786.69	0.133
787.12	0.135
787.56	0.134
788.00	0.139
788.43	0.137
788.87	0.133
789.31	0.136
789.75	0.140
790.18	0.133
790.62	0.134
791.06	0.134
791.49	0.134
791.93	0.132
792.37	0.139
792.80	0.136
793.24	0.135
793.68	0.136
794.11	0.133
794.55	0.134
794.99	0.135
795.42	0.133
795.86	0.135
796.30	0.134
796.73	0.132
797.17	0.132
797.61	0.133
798.04	0.132
798.48	0.133
798.91	0.132
799.35	0.130
799.79	0.134
800.22	0.132
800.66	0.133
801.10	0.133
801.53	0.133
801.97	0.135
802.40	0.134
802.84	0.132
803.28	0.132
803.71	0.132
804.15	0.128
804.58	0.132
805.02	0.133
805.46	0.130
805.89	0.130
806.33	0.133
806.76	0.129
807.20	0.133
807.63	0.132
808.07	0.135
808.51	0.131
808.94	0.129
809.38	0.130
809.81	0.128
810.25	0.134
810.68	0.134
811.12	0.131
811.55	0.135
811.99	0.132
812.42	0.135
812.86	0.130
813.29	0.127
813.73	0.132
814.17	0.130
814.60	0.131
815.04	0.130
