SpectraSuite Data File
++++++++++++++++++++++++++++++++++++
Date: Sun Apr 24 16:35:59 CEST 2016
User: spectrasuite
Dark Spectrum Present: Yes
Reference Spectrum Present: Yes
Number of Sampled Component Spectra: 1
Spectrometers: HR+C0708
Integration Time (usec): 1000 (HR+C0708)
Spectra Averaged: 10 (HR+C0708)
Boxcar Smoothing: 0 (HR+C0708)
Correct for Electrical Dark: No (HR+C0708)
Strobe/Lamp Enabled: No (HR+C0708)
Correct for Detector Non-linearity: No (HR+C0708)
Correct for Stray Light: No (HR+C0708)
Number of Pixels in Processed Spectrum: 2048
>>>>>Begin Processed Spectral Data<<<<<
188.76	1.374
189.23	-0.000
189.70	-0.000
190.17	-0.000
190.64	-0.000
191.12	-0.000
191.59	-0.000
192.06	-0.000
192.53	-0.000
193.01	-0.000
193.48	-0.000
193.95	-0.000
194.42	-0.000
194.90	-0.000
195.37	-0.000
195.84	-0.000
196.31	-0.000
196.78	-0.000
197.26	-0.000
197.73	-0.000
198.20	-0.000
198.67	-0.000
199.14	-0.000
199.62	-0.000
200.09	-0.000
200.56	-0.000
201.03	-0.000
201.50	-0.000
201.97	-0.000
202.45	-0.000
202.92	0.831
203.39	-0.000
203.86	-0.000
204.33	1.191
204.80	-0.000
205.28	-0.000
205.75	-0.000
206.22	-0.000
206.69	-0.000
207.16	-0.000
207.63	0.930
208.11	1.155
208.58	-0.000
209.05	-0.000
209.52	-0.000
209.99	-0.000
210.46	-0.000
210.93	-0.000
211.41	-0.000
211.88	-0.000
212.35	-0.000
212.82	-0.000
213.29	0.874
213.76	1.436
214.23	-0.000
214.70	1.873
215.18	-0.000
215.65	-0.000
216.12	0.908
216.59	1.420
217.06	-0.000
217.53	1.417
218.00	-0.000
218.47	-0.000
218.94	-0.000
219.41	-0.000
219.89	2.022
220.36	-0.000
220.83	-0.000
221.30	-0.000
221.77	2.859
222.24	-0.000
222.71	-0.000
223.18	-0.000
223.65	-0.000
224.12	-0.000
224.59	-0.000
225.06	-0.000
225.54	-0.000
226.01	1.763
226.48	1.284
226.95	-0.000
227.42	-0.000
227.89	-0.000
228.36	1.859
228.83	-0.000
229.30	1.686
229.77	2.200
230.24	1.824
230.71	-0.000
231.18	-0.000
231.65	2.638
232.12	2.230
232.59	2.476
233.06	-0.000
233.53	-0.000
234.00	2.434
234.47	2.428
234.94	2.697
235.41	2.775
235.88	-0.000
236.35	-0.000
236.82	3.592
237.29	2.336
237.76	-0.000
238.23	2.623
238.70	3.285
239.17	2.501
239.64	2.857
240.11	3.138
240.58	3.400
241.05	-0.000
241.52	3.800
241.99	3.820
242.46	3.134
242.93	-0.000
243.40	3.026
243.87	2.737
244.34	2.482
244.81	3.587
245.28	-0.000
245.75	-0.000
246.22	-0.000
246.69	-0.000
247.16	3.043
247.63	-0.000
248.10	3.278
248.57	2.830
249.04	-0.000
249.51	-0.000
249.98	-0.000
250.45	3.599
250.92	3.386
251.39	-0.000
251.85	-0.000
252.32	-0.000
252.79	-0.000
253.26	-0.000
253.73	-0.000
254.20	2.907
254.67	3.683
255.14	2.900
255.61	-0.000
256.08	3.003
256.55	-0.000
257.02	2.936
257.49	-0.000
257.95	3.356
258.42	3.393
258.89	2.809
259.36	2.931
259.83	3.855
260.30	3.595
260.77	3.622
261.24	3.193
261.71	3.576
262.17	2.843
262.64	2.957
263.11	2.972
263.58	3.050
264.05	2.835
264.52	2.691
264.99	3.029
265.46	2.828
265.92	2.987
266.39	2.729
266.86	2.795
267.33	2.734
267.80	2.505
268.27	2.701
268.74	2.650
269.20	2.737
269.67	2.709
270.14	2.578
270.61	2.421
271.08	2.484
271.55	2.588
272.01	2.475
272.48	2.446
272.95	2.484
273.42	2.548
273.89	2.476
274.36	2.412
274.82	2.332
275.29	2.382
275.76	2.337
276.23	2.331
276.70	2.318
277.16	2.313
277.63	2.244
278.10	2.294
278.57	2.273
279.04	2.230
279.50	2.246
279.97	2.225
280.44	2.166
280.91	2.196
281.38	2.144
281.84	2.159
282.31	2.129
282.78	2.150
283.25	2.143
283.72	2.112
284.18	2.093
284.65	2.078
285.12	2.086
285.59	2.065
286.05	2.078
286.52	2.032
286.99	2.064
287.46	2.038
287.92	2.034
288.39	1.953
288.86	2.037
289.33	1.969
289.79	1.959
290.26	1.964
290.73	1.958
291.20	1.957
291.66	1.945
292.13	1.972
292.60	1.889
293.07	1.909
293.53	1.889
294.00	1.870
294.47	1.900
294.93	1.853
295.40	1.898
295.87	1.859
296.34	1.860
296.80	1.857
297.27	1.852
297.74	1.815
298.20	1.830
298.67	1.814
299.14	1.799
299.60	1.784
300.07	1.796
300.54	1.782
301.01	1.763
301.47	1.747
301.94	1.757
302.41	1.752
302.87	1.739
303.34	1.768
303.81	1.718
304.27	1.738
304.74	1.715
305.21	1.710
305.67	1.712
306.14	1.675
306.61	1.701
307.07	1.696
307.54	1.659
308.01	1.666
308.47	1.653
308.94	1.687
309.40	1.663
309.87	1.636
310.34	1.640
310.80	1.634
311.27	1.648
311.74	1.635
312.20	1.635
312.67	1.605
313.13	1.590
313.60	1.608
314.07	1.602
314.53	1.587
315.00	1.573
315.47	1.594
315.93	1.575
316.40	1.573
316.86	1.555
317.33	1.554
317.80	1.531
318.26	1.545
318.73	1.538
319.19	1.536
319.66	1.519
320.13	1.517
320.59	1.526
321.06	1.512
321.52	1.507
321.99	1.501
322.45	1.500
322.92	1.482
323.39	1.488
323.85	1.472
324.32	1.479
324.78	1.465
325.25	1.460
325.71	1.464
326.18	1.450
326.64	1.457
327.11	1.436
327.58	1.416
328.04	1.416
328.51	1.432
328.97	1.420
329.44	1.408
329.90	1.387
330.37	1.402
330.83	1.382
331.30	1.383
331.76	1.384
332.23	1.361
332.69	1.366
333.16	1.347
333.62	1.334
334.09	1.322
334.56	1.317
335.02	1.306
335.49	1.297
335.95	1.285
336.42	1.273
336.88	1.269
337.35	1.254
337.81	1.252
338.28	1.234
338.74	1.242
339.20	1.224
339.67	1.206
340.13	1.200
340.60	1.190
341.06	1.173
341.53	1.152
341.99	1.149
342.46	1.134
342.92	1.120
343.39	1.106
343.85	1.100
344.32	1.085
344.78	1.063
345.25	1.069
345.71	1.054
346.17	1.042
346.64	1.024
347.10	1.007
347.57	0.991
348.03	0.976
348.50	0.958
348.96	0.945
349.43	0.934
349.89	0.921
350.35	0.915
350.82	0.900
351.28	0.888
351.75	0.872
352.21	0.866
352.67	0.849
353.14	0.838
353.60	0.824
354.07	0.807
354.53	0.799
355.00	0.790
355.46	0.781
355.92	0.775
356.39	0.752
356.85	0.747
357.31	0.747
357.78	0.734
358.24	0.721
358.71	0.710
359.17	0.711
359.63	0.702
360.10	0.700
360.56	0.694
361.03	0.686
361.49	0.685
361.95	0.676
362.42	0.675
362.88	0.667
363.34	0.659
363.81	0.654
364.27	0.655
364.73	0.647
365.20	0.651
365.66	0.642
366.12	0.644
366.59	0.636
367.05	0.634
367.51	0.629
367.98	0.632
368.44	0.626
368.90	0.624
369.37	0.619
369.83	0.615
370.29	0.616
370.76	0.611
371.22	0.617
371.68	0.607
372.15	0.602
372.61	0.602
373.07	0.604
373.54	0.601
374.00	0.599
374.46	0.599
374.92	0.595
375.39	0.586
375.85	0.590
376.31	0.589
376.78	0.583
377.24	0.586
377.70	0.580
378.16	0.580
378.63	0.577
379.09	0.578
379.55	0.575
380.01	0.577
380.48	0.571
380.94	0.572
381.40	0.571
381.87	0.564
382.33	0.569
382.79	0.564
383.25	0.558
383.72	0.564
384.18	0.559
384.64	0.555
385.10	0.556
385.56	0.553
386.03	0.551
386.49	0.550
386.95	0.547
387.41	0.549
387.88	0.546
388.34	0.546
388.80	0.542
389.26	0.542
389.72	0.539
390.19	0.540
390.65	0.535
391.11	0.534
391.57	0.530
392.04	0.531
392.50	0.524
392.96	0.526
393.42	0.526
393.88	0.526
394.34	0.523
394.81	0.519
395.27	0.520
395.73	0.521
396.19	0.519
396.65	0.514
397.12	0.513
397.58	0.513
398.04	0.509
398.50	0.510
398.96	0.511
399.42	0.511
399.89	0.508
400.35	0.502
400.81	0.505
401.27	0.505
401.73	0.501
402.19	0.495
402.65	0.496
403.12	0.495
403.58	0.495
404.04	0.493
404.50	0.496
404.96	0.490
405.42	0.490
405.88	0.491
406.34	0.491
406.81	0.485
407.27	0.485
407.73	0.481
408.19	0.483
408.65	0.479
409.11	0.478
409.57	0.480
410.03	0.479
410.49	0.476
410.96	0.476
411.42	0.473
411.88	0.471
412.34	0.472
412.80	0.471
413.26	0.463
413.72	0.465
414.18	0.465
414.64	0.461
415.10	0.468
415.56	0.462
416.02	0.463
416.48	0.460
416.95	0.458
417.41	0.460
417.87	0.454
418.33	0.457
418.79	0.450
419.25	0.453
419.71	0.451
420.17	0.451
420.63	0.448
421.09	0.448
421.55	0.446
422.01	0.447
422.47	0.449
422.93	0.447
423.39	0.445
423.85	0.444
424.31	0.443
424.77	0.441
425.23	0.440
425.69	0.441
426.15	0.434
426.61	0.432
427.07	0.433
427.53	0.435
427.99	0.431
428.45	0.428
428.91	0.432
429.37	0.428
429.83	0.427
430.29	0.425
430.75	0.430
431.21	0.428
431.67	0.428
432.13	0.429
432.59	0.420
433.05	0.421
433.51	0.418
433.97	0.421
434.43	0.419
434.89	0.420
435.35	0.414
435.81	0.417
436.27	0.415
436.73	0.414
437.19	0.412
437.65	0.414
438.11	0.414
438.57	0.410
439.03	0.407
439.48	0.409
439.94	0.409
440.40	0.407
440.86	0.411
441.32	0.398
441.78	0.404
442.24	0.399
442.70	0.404
443.16	0.398
443.62	0.393
444.08	0.399
444.54	0.399
444.99	0.394
445.45	0.395
445.91	0.392
446.37	0.394
446.83	0.394
447.29	0.391
447.75	0.391
448.21	0.393
448.67	0.385
449.12	0.389
449.58	0.389
450.04	0.384
450.50	0.387
450.96	0.389
451.42	0.383
451.88	0.381
452.34	0.383
452.79	0.382
453.25	0.384
453.71	0.379
454.17	0.378
454.63	0.381
455.09	0.376
455.55	0.380
456.00	0.376
456.46	0.373
456.92	0.372
457.38	0.371
457.84	0.370
458.30	0.367
458.75	0.370
459.21	0.365
459.67	0.370
460.13	0.368
460.59	0.367
461.04	0.365
461.50	0.364
461.96	0.362
462.42	0.364
462.88	0.361
463.33	0.361
463.79	0.361
464.25	0.361
464.71	0.360
465.17	0.358
465.62	0.357
466.08	0.358
466.54	0.359
467.00	0.357
467.46	0.356
467.91	0.353
468.37	0.353
468.83	0.353
469.29	0.354
469.74	0.354
470.20	0.351
470.66	0.350
471.12	0.347
471.57	0.349
472.03	0.347
472.49	0.349
472.95	0.347
473.40	0.346
473.86	0.343
474.32	0.344
474.78	0.344
475.23	0.343
475.69	0.343
476.15	0.341
476.60	0.342
477.06	0.339
477.52	0.339
477.98	0.339
478.43	0.336
478.89	0.336
479.35	0.335
479.80	0.337
480.26	0.336
480.72	0.336
481.18	0.339
481.63	0.334
482.09	0.333
482.55	0.332
483.00	0.330
483.46	0.328
483.92	0.329
484.37	0.332
484.83	0.327
485.29	0.325
485.74	0.325
486.20	0.326
486.66	0.327
487.11	0.326
487.57	0.322
488.03	0.323
488.48	0.321
488.94	0.320
489.40	0.322
489.85	0.323
490.31	0.321
490.77	0.319
491.22	0.321
491.68	0.318
492.13	0.317
492.59	0.320
493.05	0.317
493.50	0.317
493.96	0.316
494.42	0.314
494.87	0.312
495.33	0.311
495.78	0.317
496.24	0.314
496.70	0.310
497.15	0.313
497.61	0.311
498.06	0.309
498.52	0.309
498.98	0.309
499.43	0.311
499.89	0.309
500.34	0.306
500.80	0.308
501.25	0.307
501.71	0.303
502.17	0.306
502.62	0.306
503.08	0.303
503.53	0.303
503.99	0.304
504.44	0.300
504.90	0.303
505.36	0.299
505.81	0.300
506.27	0.301
506.72	0.299
507.18	0.298
507.63	0.297
508.09	0.298
508.54	0.296
509.00	0.295
509.45	0.296
509.91	0.295
510.36	0.294
510.82	0.295
511.27	0.291
511.73	0.293
512.19	0.292
512.64	0.290
513.10	0.292
513.55	0.289
514.01	0.289
514.46	0.287
514.92	0.286
515.37	0.291
515.83	0.289
516.28	0.287
516.73	0.287
517.19	0.288
517.64	0.285
518.10	0.286
518.55	0.284
519.01	0.283
519.46	0.283
519.92	0.283
520.37	0.280
520.83	0.281
521.28	0.281
521.74	0.281
522.19	0.282
522.65	0.279
523.10	0.280
523.55	0.280
524.01	0.280
524.46	0.278
524.92	0.277
525.37	0.274
525.83	0.276
526.28	0.276
526.73	0.279
527.19	0.276
527.64	0.277
528.10	0.274
528.55	0.273
529.01	0.274
529.46	0.272
529.91	0.274
530.37	0.270
530.82	0.270
531.28	0.270
531.73	0.267
532.18	0.270
532.64	0.270
533.09	0.267
533.54	0.269
534.00	0.265
534.45	0.270
534.91	0.268
535.36	0.268
535.81	0.267
536.27	0.263
536.72	0.264
537.17	0.264
537.63	0.265
538.08	0.262
538.54	0.265
538.99	0.264
539.44	0.262
539.90	0.264
540.35	0.262
540.80	0.261
541.26	0.261
541.71	0.260
542.16	0.261
542.62	0.258
543.07	0.260
543.52	0.258
543.98	0.260
544.43	0.257
544.88	0.259
545.34	0.257
545.79	0.256
546.24	0.255
546.69	0.259
547.15	0.254
547.60	0.254
548.05	0.255
548.51	0.252
548.96	0.252
549.41	0.254
549.86	0.252
550.32	0.254
550.77	0.256
551.22	0.252
551.68	0.250
552.13	0.249
552.58	0.248
553.03	0.247
553.49	0.250
553.94	0.250
554.39	0.248
554.84	0.248
555.30	0.247
555.75	0.247
556.20	0.246
556.65	0.245
557.11	0.246
557.56	0.245
558.01	0.246
558.46	0.247
558.92	0.244
559.37	0.244
559.82	0.244
560.27	0.242
560.72	0.241
561.18	0.240
561.63	0.242
562.08	0.240
562.53	0.240
562.99	0.241
563.44	0.241
563.89	0.238
564.34	0.240
564.79	0.241
565.25	0.239
565.70	0.236
566.15	0.239
566.60	0.238
567.05	0.236
567.50	0.235
567.96	0.238
568.41	0.235
568.86	0.237
569.31	0.235
569.76	0.233
570.21	0.232
570.67	0.232
571.12	0.232
571.57	0.233
572.02	0.232
572.47	0.231
572.92	0.232
573.37	0.229
573.83	0.230
574.28	0.230
574.73	0.229
575.18	0.230
575.63	0.230
576.08	0.226
576.53	0.228
576.98	0.229
577.44	0.224
577.89	0.228
578.34	0.227
578.79	0.225
579.24	0.227
579.69	0.226
580.14	0.223
580.59	0.225
581.04	0.224
581.49	0.224
581.95	0.224
582.40	0.221
582.85	0.222
583.30	0.220
583.75	0.221
584.20	0.221
584.65	0.220
585.10	0.218
585.55	0.222
586.00	0.220
586.45	0.219
586.90	0.219
587.35	0.220
587.80	0.219
588.25	0.218
588.71	0.217
589.16	0.217
589.61	0.218
590.06	0.218
590.51	0.217
590.96	0.218
591.41	0.217
591.86	0.216
592.31	0.214
592.76	0.215
593.21	0.215
593.66	0.214
594.11	0.217
594.56	0.214
595.01	0.215
595.46	0.213
595.91	0.215
596.36	0.213
596.81	0.213
597.26	0.212
597.71	0.212
598.16	0.212
598.61	0.209
599.06	0.209
599.51	0.212
599.96	0.213
600.41	0.210
600.86	0.210
601.31	0.210
601.76	0.209
602.21	0.211
602.65	0.212
603.10	0.209
603.55	0.207
604.00	0.208
604.45	0.208
604.90	0.208
605.35	0.206
605.80	0.206
606.25	0.208
606.70	0.205
607.15	0.204
607.60	0.204
608.05	0.205
608.50	0.205
608.95	0.202
609.39	0.208
609.84	0.204
610.29	0.202
610.74	0.202
611.19	0.202
611.64	0.201
612.09	0.201
612.54	0.203
612.99	0.203
613.44	0.200
613.88	0.201
614.33	0.200
614.78	0.199
615.23	0.200
615.68	0.200
616.13	0.200
616.58	0.198
617.03	0.198
617.47	0.200
617.92	0.197
618.37	0.196
618.82	0.197
619.27	0.197
619.72	0.196
620.17	0.196
620.61	0.196
621.06	0.195
621.51	0.195
621.96	0.196
622.41	0.196
622.86	0.194
623.30	0.195
623.75	0.196
624.20	0.194
624.65	0.193
625.10	0.193
625.54	0.192
625.99	0.192
626.44	0.192
626.89	0.194
627.34	0.194
627.78	0.191
628.23	0.192
628.68	0.192
629.13	0.189
629.58	0.190
630.02	0.190
630.47	0.189
630.92	0.191
631.37	0.188
631.81	0.190
632.26	0.189
632.71	0.190
633.16	0.189
633.61	0.188
634.05	0.186
634.50	0.187
634.95	0.189
635.40	0.189
635.84	0.188
636.29	0.188
636.74	0.187
637.18	0.189
637.63	0.187
638.08	0.186
638.53	0.186
638.97	0.185
639.42	0.187
639.87	0.185
640.32	0.182
640.76	0.185
641.21	0.184
641.66	0.186
642.10	0.185
642.55	0.184
643.00	0.183
643.44	0.185
643.89	0.184
644.34	0.181
644.79	0.183
645.23	0.182
645.68	0.184
646.13	0.183
646.57	0.181
647.02	0.181
647.47	0.183
647.91	0.181
648.36	0.182
648.81	0.182
649.25	0.181
649.70	0.181
650.15	0.179
650.59	0.180
651.04	0.180
651.48	0.180
651.93	0.179
652.38	0.176
652.82	0.178
653.27	0.178
653.72	0.177
654.16	0.176
654.61	0.178
655.06	0.175
655.50	0.176
655.95	0.174
656.39	0.170
656.84	0.172
657.29	0.179
657.73	0.173
658.18	0.177
658.62	0.176
659.07	0.175
659.52	0.175
659.96	0.176
660.41	0.175
660.85	0.173
661.30	0.174
661.74	0.176
662.19	0.176
662.64	0.172
663.08	0.172
663.53	0.174
663.97	0.173
664.42	0.172
664.86	0.175
665.31	0.172
665.75	0.172
666.20	0.173
666.65	0.172
667.09	0.173
667.54	0.174
667.98	0.172
668.43	0.170
668.87	0.170
669.32	0.170
669.76	0.170
670.21	0.172
670.65	0.168
671.10	0.171
671.54	0.170
671.99	0.170
672.43	0.170
672.88	0.169
673.32	0.169
673.77	0.168
674.21	0.166
674.66	0.167
675.10	0.167
675.55	0.164
675.99	0.169
676.44	0.166
676.88	0.168
677.33	0.168
677.77	0.167
678.22	0.166
678.66	0.163
679.11	0.165
679.55	0.166
679.99	0.163
680.44	0.167
680.88	0.165
681.33	0.164
681.77	0.164
682.22	0.166
682.66	0.166
683.11	0.163
683.55	0.163
683.99	0.165
684.44	0.163
684.88	0.161
685.33	0.162
685.77	0.165
686.21	0.162
686.66	0.163
687.10	0.161
687.55	0.162
687.99	0.164
688.44	0.164
688.88	0.162
689.32	0.163
689.77	0.160
690.21	0.160
690.65	0.160
691.10	0.161
691.54	0.159
691.99	0.160
692.43	0.158
692.87	0.159
693.32	0.161
693.76	0.160
694.20	0.159
694.65	0.160
695.09	0.161
695.53	0.159
695.98	0.160
696.42	0.161
696.86	0.158
697.31	0.157
697.75	0.156
698.19	0.156
698.64	0.158
699.08	0.157
699.52	0.156
699.97	0.158
700.41	0.158
700.85	0.156
701.30	0.156
701.74	0.156
702.18	0.158
702.63	0.156
703.07	0.155
703.51	0.159
703.96	0.156
704.40	0.156
704.84	0.157
705.28	0.155
705.73	0.155
706.17	0.157
706.61	0.155
707.06	0.154
707.50	0.156
707.94	0.153
708.38	0.154
708.83	0.157
709.27	0.155
709.71	0.157
710.15	0.155
710.60	0.154
711.04	0.155
711.48	0.156
711.92	0.155
712.37	0.155
712.81	0.157
713.25	0.153
713.69	0.155
714.13	0.155
714.58	0.153
715.02	0.151
715.46	0.154
715.90	0.153
716.35	0.152
716.79	0.154
717.23	0.154
717.67	0.151
718.11	0.153
718.56	0.152
719.00	0.156
719.44	0.154
719.88	0.151
720.32	0.151
720.76	0.152
721.21	0.151
721.65	0.152
722.09	0.154
722.53	0.153
722.97	0.153
723.41	0.151
723.86	0.153
724.30	0.151
724.74	0.154
725.18	0.152
725.62	0.152
726.06	0.151
726.50	0.151
726.95	0.152
727.39	0.150
727.83	0.149
728.27	0.148
728.71	0.148
729.15	0.151
729.59	0.153
730.03	0.149
730.48	0.149
730.92	0.147
731.36	0.150
731.80	0.150
732.24	0.152
732.68	0.150
733.12	0.149
733.56	0.150
734.00	0.153
734.44	0.152
734.89	0.151
735.33	0.153
735.77	0.153
736.21	0.152
736.65	0.151
737.09	0.152
737.53	0.151
737.97	0.152
738.41	0.152
738.85	0.152
739.29	0.152
739.73	0.149
740.17	0.150
740.61	0.152
741.05	0.152
741.49	0.152
741.93	0.150
742.37	0.148
742.81	0.150
743.26	0.152
743.70	0.149
744.14	0.150
744.58	0.149
745.02	0.150
745.46	0.149
745.90	0.149
746.34	0.150
746.78	0.149
747.22	0.151
747.66	0.151
748.10	0.148
748.54	0.149
748.98	0.148
749.42	0.148
749.86	0.147
750.29	0.147
750.73	0.146
751.17	0.146
751.61	0.147
752.05	0.151
752.49	0.146
752.93	0.144
753.37	0.147
753.81	0.145
754.25	0.145
754.69	0.144
755.13	0.145
755.57	0.148
756.01	0.148
756.45	0.146
756.89	0.146
757.33	0.146
757.77	0.145
758.21	0.146
758.64	0.143
759.08	0.139
759.52	0.145
759.96	0.146
760.40	0.145
760.84	0.141
761.28	0.144
761.72	0.148
762.16	0.145
762.60	0.141
763.03	0.141
763.47	0.143
763.91	0.145
764.35	0.144
764.79	0.141
765.23	0.140
765.67	0.143
766.11	0.139
766.54	0.138
766.98	0.142
767.42	0.140
767.86	0.140
768.30	0.142
768.74	0.142
769.17	0.143
769.61	0.142
770.05	0.141
770.49	0.141
770.93	0.140
771.37	0.140
771.80	0.140
772.24	0.140
772.68	0.139
773.12	0.140
773.56	0.140
774.00	0.138
774.43	0.137
774.87	0.139
775.31	0.140
775.75	0.141
776.19	0.138
776.62	0.138
777.06	0.140
777.50	0.139
777.94	0.138
778.37	0.137
778.81	0.135
779.25	0.140
779.69	0.140
780.13	0.138
780.56	0.137
781.00	0.140
781.44	0.141
781.88	0.137
782.31	0.137
782.75	0.137
783.19	0.140
783.63	0.138
784.06	0.137
784.50	0.138
784.94	0.136
785.37	0.138
785.81	0.140
786.25	0.138
786.69	0.136
787.12	0.135
787.56	0.134
788.00	0.138
788.43	0.135
788.87	0.136
789.31	0.137
789.75	0.137
790.18	0.131
790.62	0.136
791.06	0.137
791.49	0.135
791.93	0.132
792.37	0.137
792.80	0.132
793.24	0.132
793.68	0.136
794.11	0.134
794.55	0.139
794.99	0.136
795.42	0.135
795.86	0.138
796.30	0.134
796.73	0.135
797.17	0.135
797.61	0.131
798.04	0.132
798.48	0.135
798.91	0.130
799.35	0.134
799.79	0.132
800.22	0.134
800.66	0.132
801.10	0.132
801.53	0.133
801.97	0.139
802.40	0.135
802.84	0.130
803.28	0.131
803.71	0.131
804.15	0.136
804.58	0.134
805.02	0.131
805.46	0.130
805.89	0.133
806.33	0.132
806.76	0.128
807.20	0.132
807.63	0.133
808.07	0.134
808.51	0.130
808.94	0.129
809.38	0.130
809.81	0.132
810.25	0.133
810.68	0.135
811.12	0.131
811.55	0.135
811.99	0.134
812.42	0.134
812.86	0.131
813.29	0.130
813.73	0.131
814.17	0.128
814.60	0.132
815.04	0.131
