SpectraSuite Data File
++++++++++++++++++++++++++++++++++++
Date: Sun Apr 24 17:12:09 CEST 2016
User: spectrasuite
Dark Spectrum Present: Yes
Reference Spectrum Present: Yes
Number of Sampled Component Spectra: 1
Spectrometers: HR+C0708
Integration Time (usec): 1000 (HR+C0708)
Spectra Averaged: 10 (HR+C0708)
Boxcar Smoothing: 0 (HR+C0708)
Correct for Electrical Dark: No (HR+C0708)
Strobe/Lamp Enabled: No (HR+C0708)
Correct for Detector Non-linearity: No (HR+C0708)
Correct for Stray Light: No (HR+C0708)
Number of Pixels in Processed Spectrum: 2048
>>>>>Begin Processed Spectral Data<<<<<
188.76	-0.000
189.23	-0.000
189.70	-0.000
190.17	-0.000
190.64	-0.000
191.12	-0.000
191.59	-0.000
192.06	-0.000
192.53	-0.000
193.01	-0.000
193.48	-0.000
193.95	-0.000
194.42	-0.000
194.90	-0.000
195.37	-0.000
195.84	-0.000
196.31	-0.000
196.78	-0.000
197.26	-0.000
197.73	-0.000
198.20	-0.000
198.67	-0.000
199.14	-0.000
199.62	-0.000
200.09	-0.000
200.56	-0.000
201.03	-0.000
201.50	-0.000
201.97	1.170
202.45	-0.000
202.92	1.047
203.39	-0.000
203.86	-0.000
204.33	-0.000
204.80	-0.000
205.28	1.719
205.75	-0.000
206.22	-0.000
206.69	-0.000
207.16	-0.000
207.63	-0.000
208.11	0.893
208.58	-0.000
209.05	-0.000
209.52	-0.000
209.99	-0.000
210.46	-0.000
210.93	-0.000
211.41	-0.000
211.88	-0.000
212.35	-0.000
212.82	-0.000
213.29	1.640
213.76	1.528
214.23	-0.000
214.70	-0.000
215.18	-0.000
215.65	1.597
216.12	0.844
216.59	-0.000
217.06	-0.000
217.53	1.785
218.00	1.662
218.47	-0.000
218.94	1.681
219.41	-0.000
219.89	-0.000
220.36	-0.000
220.83	-0.000
221.30	2.382
221.77	-0.000
222.24	-0.000
222.71	-0.000
223.18	-0.000
223.65	-0.000
224.12	-0.000
224.59	-0.000
225.06	-0.000
225.54	-0.000
226.01	1.417
226.48	2.033
226.95	-0.000
227.42	2.951
227.89	-0.000
228.36	-0.000
228.83	-0.000
229.30	-0.000
229.77	-0.000
230.24	2.426
230.71	-0.000
231.18	-0.000
231.65	2.174
232.12	-0.000
232.59	2.438
233.06	-0.000
233.53	2.265
234.00	2.281
234.47	2.674
234.94	-0.000
235.41	2.557
235.88	-0.000
236.35	-0.000
236.82	-0.000
237.29	3.383
237.76	2.799
238.23	-0.000
238.70	2.795
239.17	2.450
239.64	-0.000
240.11	-0.000
240.58	-0.000
241.05	3.057
241.52	-0.000
241.99	-0.000
242.46	2.850
242.93	4.565
243.40	2.790
243.87	3.454
244.34	2.726
244.81	3.628
245.28	-0.000
245.75	-0.000
246.22	-0.000
246.69	3.054
247.16	3.842
247.63	3.457
248.10	-0.000
248.57	-0.000
249.04	-0.000
249.51	-0.000
249.98	-0.000
250.45	3.090
250.92	-0.000
251.39	-0.000
251.85	-0.000
252.32	-0.000
252.79	-0.000
253.26	-0.000
253.73	-0.000
254.20	2.969
254.67	2.676
255.14	3.281
255.61	-0.000
256.08	3.358
256.55	-0.000
257.02	3.171
257.49	3.304
257.95	2.975
258.42	2.948
258.89	2.747
259.36	2.684
259.83	2.848
260.30	2.988
260.77	3.106
261.24	2.835
261.71	2.807
262.17	2.743
262.64	2.548
263.11	2.765
263.58	2.751
264.05	2.581
264.52	2.563
264.99	2.510
265.46	2.522
265.92	2.528
266.39	2.467
266.86	2.533
267.33	2.550
267.80	2.351
268.27	2.492
268.74	2.429
269.20	2.397
269.67	2.334
270.14	2.335
270.61	2.345
271.08	2.303
271.55	2.243
272.01	2.240
272.48	2.252
272.95	2.222
273.42	2.229
273.89	2.237
274.36	2.198
274.82	2.098
275.29	2.132
275.76	2.110
276.23	2.136
276.70	2.111
277.16	2.051
277.63	2.068
278.10	2.056
278.57	2.036
279.04	2.007
279.50	1.967
279.97	1.988
280.44	1.956
280.91	1.975
281.38	1.959
281.84	1.951
282.31	1.959
282.78	1.963
283.25	1.907
283.72	1.918
284.18	1.921
284.65	1.924
285.12	1.868
285.59	1.854
286.05	1.856
286.52	1.835
286.99	1.823
287.46	1.830
287.92	1.815
288.39	1.799
288.86	1.814
289.33	1.788
289.79	1.782
290.26	1.780
290.73	1.756
291.20	1.794
291.66	1.759
292.13	1.744
292.60	1.715
293.07	1.717
293.53	1.686
294.00	1.701
294.47	1.690
294.93	1.705
295.40	1.683
295.87	1.655
296.34	1.669
296.80	1.650
297.27	1.661
297.74	1.626
298.20	1.663
298.67	1.604
299.14	1.622
299.60	1.603
300.07	1.608
300.54	1.593
301.01	1.575
301.47	1.571
301.94	1.571
302.41	1.574
302.87	1.560
303.34	1.561
303.81	1.537
304.27	1.546
304.74	1.522
305.21	1.517
305.67	1.517
306.14	1.498
306.61	1.510
307.07	1.490
307.54	1.470
308.01	1.490
308.47	1.478
308.94	1.471
309.40	1.458
309.87	1.447
310.34	1.445
310.80	1.442
311.27	1.448
311.74	1.431
312.20	1.431
312.67	1.419
313.13	1.404
313.60	1.410
314.07	1.410
314.53	1.376
315.00	1.377
315.47	1.389
315.93	1.375
316.40	1.362
316.86	1.357
317.33	1.360
317.80	1.349
318.26	1.351
318.73	1.356
319.19	1.344
319.66	1.328
320.13	1.331
320.59	1.325
321.06	1.321
321.52	1.322
321.99	1.304
322.45	1.297
322.92	1.293
323.39	1.305
323.85	1.296
324.32	1.285
324.78	1.279
325.25	1.283
325.71	1.270
326.18	1.265
326.64	1.272
327.11	1.262
327.58	1.256
328.04	1.237
328.51	1.242
328.97	1.242
329.44	1.227
329.90	1.222
330.37	1.224
330.83	1.209
331.30	1.215
331.76	1.203
332.23	1.200
332.69	1.193
333.16	1.192
333.62	1.192
334.09	1.179
334.56	1.175
335.02	1.163
335.49	1.163
335.95	1.150
336.42	1.147
336.88	1.148
337.35	1.133
337.81	1.136
338.28	1.132
338.74	1.120
339.20	1.113
339.67	1.105
340.13	1.102
340.60	1.091
341.06	1.082
341.53	1.073
341.99	1.075
342.46	1.065
342.92	1.048
343.39	1.043
343.85	1.041
344.32	1.027
344.78	1.023
345.25	1.015
345.71	1.008
346.17	0.993
346.64	0.981
347.10	0.978
347.57	0.963
348.03	0.949
348.50	0.936
348.96	0.933
349.43	0.914
349.89	0.913
350.35	0.906
350.82	0.889
351.28	0.882
351.75	0.871
352.21	0.867
352.67	0.855
353.14	0.841
353.60	0.833
354.07	0.820
354.53	0.807
355.00	0.799
355.46	0.789
355.92	0.778
356.39	0.767
356.85	0.762
357.31	0.759
357.78	0.747
358.24	0.734
358.71	0.731
359.17	0.723
359.63	0.717
360.10	0.712
360.56	0.705
361.03	0.703
361.49	0.691
361.95	0.689
362.42	0.685
362.88	0.678
363.34	0.668
363.81	0.669
364.27	0.666
364.73	0.661
365.20	0.657
365.66	0.655
366.12	0.652
366.59	0.645
367.05	0.645
367.51	0.641
367.98	0.641
368.44	0.636
368.90	0.634
369.37	0.632
369.83	0.628
370.29	0.627
370.76	0.623
371.22	0.622
371.68	0.620
372.15	0.613
372.61	0.613
373.07	0.610
373.54	0.612
374.00	0.608
374.46	0.607
374.92	0.603
375.39	0.603
375.85	0.595
376.31	0.599
376.78	0.596
377.24	0.597
377.70	0.592
378.16	0.589
378.63	0.589
379.09	0.592
379.55	0.586
380.01	0.584
380.48	0.581
380.94	0.580
381.40	0.576
381.87	0.571
382.33	0.572
382.79	0.573
383.25	0.569
383.72	0.567
384.18	0.566
384.64	0.563
385.10	0.562
385.56	0.562
386.03	0.560
386.49	0.559
386.95	0.554
387.41	0.557
387.88	0.553
388.34	0.550
388.80	0.549
389.26	0.549
389.72	0.548
390.19	0.549
390.65	0.547
391.11	0.541
391.57	0.541
392.04	0.539
392.50	0.536
392.96	0.535
393.42	0.531
393.88	0.536
394.34	0.532
394.81	0.533
395.27	0.527
395.73	0.530
396.19	0.528
396.65	0.524
397.12	0.518
397.58	0.520
398.04	0.522
398.50	0.520
398.96	0.515
399.42	0.521
399.89	0.516
400.35	0.513
400.81	0.511
401.27	0.513
401.73	0.509
402.19	0.507
402.65	0.505
403.12	0.498
403.58	0.501
404.04	0.499
404.50	0.501
404.96	0.496
405.42	0.500
405.88	0.495
406.34	0.494
406.81	0.495
407.27	0.493
407.73	0.491
408.19	0.488
408.65	0.490
409.11	0.485
409.57	0.487
410.03	0.487
410.49	0.482
410.96	0.489
411.42	0.482
411.88	0.479
412.34	0.474
412.80	0.478
413.26	0.473
413.72	0.472
414.18	0.476
414.64	0.473
415.10	0.474
415.56	0.471
416.02	0.470
416.48	0.465
416.95	0.463
417.41	0.463
417.87	0.461
418.33	0.460
418.79	0.458
419.25	0.460
419.71	0.456
420.17	0.458
420.63	0.454
421.09	0.453
421.55	0.454
422.01	0.452
422.47	0.456
422.93	0.451
423.39	0.450
423.85	0.451
424.31	0.447
424.77	0.448
425.23	0.446
425.69	0.450
426.15	0.443
426.61	0.443
427.07	0.439
427.53	0.440
427.99	0.438
428.45	0.437
428.91	0.439
429.37	0.435
429.83	0.436
430.29	0.434
430.75	0.435
431.21	0.432
431.67	0.436
432.13	0.431
432.59	0.426
433.05	0.427
433.51	0.422
433.97	0.426
434.43	0.424
434.89	0.426
435.35	0.423
435.81	0.421
436.27	0.420
436.73	0.418
437.19	0.417
437.65	0.423
438.11	0.417
438.57	0.418
439.03	0.416
439.48	0.414
439.94	0.413
440.40	0.407
440.86	0.411
441.32	0.410
441.78	0.411
442.24	0.408
442.70	0.402
443.16	0.403
443.62	0.400
444.08	0.406
444.54	0.406
444.99	0.401
445.45	0.400
445.91	0.398
446.37	0.404
446.83	0.398
447.29	0.397
447.75	0.397
448.21	0.399
448.67	0.393
449.12	0.392
449.58	0.394
450.04	0.389
450.50	0.390
450.96	0.393
451.42	0.390
451.88	0.387
452.34	0.387
452.79	0.389
453.25	0.383
453.71	0.387
454.17	0.385
454.63	0.387
455.09	0.384
455.55	0.382
456.00	0.382
456.46	0.382
456.92	0.378
457.38	0.378
457.84	0.372
458.30	0.371
458.75	0.376
459.21	0.374
459.67	0.373
460.13	0.374
460.59	0.373
461.04	0.369
461.50	0.370
461.96	0.367
462.42	0.368
462.88	0.367
463.33	0.366
463.79	0.366
464.25	0.368
464.71	0.365
465.17	0.363
465.62	0.363
466.08	0.363
466.54	0.363
467.00	0.364
467.46	0.361
467.91	0.361
468.37	0.359
468.83	0.359
469.29	0.359
469.74	0.357
470.20	0.357
470.66	0.356
471.12	0.351
471.57	0.356
472.03	0.352
472.49	0.352
472.95	0.352
473.40	0.350
473.86	0.349
474.32	0.350
474.78	0.351
475.23	0.347
475.69	0.349
476.15	0.347
476.60	0.350
477.06	0.346
477.52	0.344
477.98	0.343
478.43	0.342
478.89	0.344
479.35	0.342
479.80	0.341
480.26	0.340
480.72	0.339
481.18	0.337
481.63	0.337
482.09	0.337
482.55	0.337
483.00	0.335
483.46	0.335
483.92	0.337
484.37	0.334
484.83	0.332
485.29	0.329
485.74	0.330
486.20	0.330
486.66	0.332
487.11	0.330
487.57	0.328
488.03	0.326
488.48	0.327
488.94	0.328
489.40	0.324
489.85	0.325
490.31	0.326
490.77	0.325
491.22	0.323
491.68	0.324
492.13	0.323
492.59	0.322
493.05	0.320
493.50	0.322
493.96	0.318
494.42	0.319
494.87	0.316
495.33	0.318
495.78	0.320
496.24	0.317
496.70	0.314
497.15	0.316
497.61	0.317
498.06	0.315
498.52	0.314
498.98	0.311
499.43	0.312
499.89	0.312
500.34	0.309
500.80	0.312
501.25	0.312
501.71	0.308
502.17	0.309
502.62	0.310
503.08	0.306
503.53	0.306
503.99	0.306
504.44	0.306
504.90	0.305
505.36	0.303
505.81	0.305
506.27	0.305
506.72	0.304
507.18	0.304
507.63	0.303
508.09	0.302
508.54	0.300
509.00	0.301
509.45	0.304
509.91	0.300
510.36	0.301
510.82	0.297
511.27	0.296
511.73	0.297
512.19	0.295
512.64	0.296
513.10	0.295
513.55	0.296
514.01	0.293
514.46	0.294
514.92	0.290
515.37	0.291
515.83	0.293
516.28	0.291
516.73	0.290
517.19	0.289
517.64	0.290
518.10	0.289
518.55	0.289
519.01	0.286
519.46	0.288
519.92	0.287
520.37	0.283
520.83	0.286
521.28	0.286
521.74	0.288
522.19	0.284
522.65	0.282
523.10	0.283
523.55	0.284
524.01	0.286
524.46	0.281
524.92	0.281
525.37	0.278
525.83	0.279
526.28	0.280
526.73	0.280
527.19	0.281
527.64	0.284
528.10	0.279
528.55	0.278
529.01	0.280
529.46	0.277
529.91	0.276
530.37	0.276
530.82	0.277
531.28	0.271
531.73	0.274
532.18	0.274
532.64	0.274
533.09	0.272
533.54	0.273
534.00	0.271
534.45	0.274
534.91	0.271
535.36	0.271
535.81	0.271
536.27	0.270
536.72	0.268
537.17	0.270
537.63	0.266
538.08	0.268
538.54	0.270
538.99	0.267
539.44	0.270
539.90	0.266
540.35	0.267
540.80	0.264
541.26	0.267
541.71	0.265
542.16	0.264
542.62	0.263
543.07	0.263
543.52	0.266
543.98	0.264
544.43	0.263
544.88	0.261
545.34	0.262
545.79	0.259
546.24	0.261
546.69	0.263
547.15	0.259
547.60	0.260
548.05	0.260
548.51	0.259
548.96	0.259
549.41	0.260
549.86	0.259
550.32	0.258
550.77	0.256
551.22	0.258
551.68	0.255
552.13	0.254
552.58	0.256
553.03	0.255
553.49	0.257
553.94	0.256
554.39	0.253
554.84	0.254
555.30	0.256
555.75	0.252
556.20	0.250
556.65	0.253
557.11	0.254
557.56	0.251
558.01	0.253
558.46	0.252
558.92	0.250
559.37	0.250
559.82	0.251
560.27	0.250
560.72	0.249
561.18	0.247
561.63	0.250
562.08	0.245
562.53	0.246
562.99	0.248
563.44	0.246
563.89	0.244
564.34	0.247
564.79	0.246
565.25	0.245
565.70	0.244
566.15	0.246
566.60	0.243
567.05	0.243
567.50	0.243
567.96	0.241
568.41	0.241
568.86	0.243
569.31	0.241
569.76	0.242
570.21	0.241
570.67	0.240
571.12	0.242
571.57	0.240
572.02	0.239
572.47	0.240
572.92	0.238
573.37	0.238
573.83	0.237
574.28	0.239
574.73	0.235
575.18	0.239
575.63	0.240
576.08	0.235
576.53	0.236
576.98	0.236
577.44	0.233
577.89	0.235
578.34	0.233
578.79	0.234
579.24	0.235
579.69	0.234
580.14	0.231
580.59	0.231
581.04	0.231
581.49	0.231
581.95	0.231
582.40	0.230
582.85	0.231
583.30	0.231
583.75	0.232
584.20	0.231
584.65	0.230
585.10	0.229
585.55	0.231
586.00	0.231
586.45	0.229
586.90	0.230
587.35	0.230
587.80	0.229
588.25	0.229
588.71	0.229
589.16	0.226
589.61	0.227
590.06	0.227
590.51	0.229
590.96	0.228
591.41	0.227
591.86	0.227
592.31	0.226
592.76	0.226
593.21	0.225
593.66	0.227
594.11	0.226
594.56	0.225
595.01	0.226
595.46	0.224
595.91	0.226
596.36	0.224
596.81	0.224
597.26	0.224
597.71	0.224
598.16	0.224
598.61	0.224
599.06	0.225
599.51	0.225
599.96	0.224
600.41	0.223
600.86	0.225
601.31	0.225
601.76	0.223
602.21	0.223
602.65	0.223
603.10	0.221
603.55	0.221
604.00	0.221
604.45	0.223
604.90	0.224
605.35	0.219
605.80	0.222
606.25	0.224
606.70	0.222
607.15	0.219
607.60	0.219
608.05	0.216
608.50	0.218
608.95	0.216
609.39	0.220
609.84	0.218
610.29	0.217
610.74	0.218
611.19	0.216
611.64	0.218
612.09	0.217
612.54	0.218
612.99	0.216
613.44	0.216
613.88	0.219
614.33	0.216
614.78	0.215
615.23	0.214
615.68	0.214
616.13	0.216
616.58	0.213
617.03	0.213
617.47	0.215
617.92	0.215
618.37	0.213
618.82	0.214
619.27	0.213
619.72	0.211
620.17	0.211
620.61	0.212
621.06	0.211
621.51	0.213
621.96	0.209
622.41	0.213
622.86	0.209
623.30	0.211
623.75	0.212
624.20	0.210
624.65	0.209
625.10	0.211
625.54	0.209
625.99	0.208
626.44	0.210
626.89	0.208
627.34	0.211
627.78	0.208
628.23	0.207
628.68	0.207
629.13	0.207
629.58	0.207
630.02	0.209
630.47	0.207
630.92	0.205
631.37	0.207
631.81	0.209
632.26	0.207
632.71	0.206
633.16	0.208
633.61	0.204
634.05	0.205
634.50	0.206
634.95	0.205
635.40	0.208
635.84	0.205
636.29	0.206
636.74	0.206
637.18	0.208
637.63	0.205
638.08	0.203
638.53	0.204
638.97	0.204
639.42	0.205
639.87	0.206
640.32	0.204
640.76	0.204
641.21	0.205
641.66	0.206
642.10	0.204
642.55	0.204
643.00	0.204
643.44	0.203
643.89	0.203
644.34	0.203
644.79	0.203
645.23	0.204
645.68	0.203
646.13	0.203
646.57	0.205
647.02	0.204
647.47	0.205
647.91	0.204
648.36	0.203
648.81	0.204
649.25	0.200
649.70	0.200
650.15	0.201
650.59	0.202
651.04	0.202
651.48	0.205
651.93	0.201
652.38	0.202
652.82	0.201
653.27	0.202
653.72	0.203
654.16	0.200
654.61	0.202
655.06	0.200
655.50	0.198
655.95	0.199
656.39	0.194
656.84	0.196
657.29	0.203
657.73	0.200
658.18	0.198
658.62	0.200
659.07	0.199
659.52	0.199
659.96	0.200
660.41	0.198
660.85	0.197
661.30	0.198
661.74	0.198
662.19	0.196
662.64	0.199
663.08	0.197
663.53	0.196
663.97	0.195
664.42	0.197
664.86	0.196
665.31	0.195
665.75	0.194
666.20	0.195
666.65	0.194
667.09	0.194
667.54	0.194
667.98	0.191
668.43	0.191
668.87	0.192
669.32	0.192
669.76	0.192
670.21	0.192
670.65	0.189
671.10	0.190
671.54	0.190
671.99	0.186
672.43	0.187
672.88	0.186
673.32	0.188
673.77	0.185
674.21	0.185
674.66	0.185
675.10	0.185
675.55	0.183
675.99	0.185
676.44	0.184
676.88	0.186
677.33	0.182
677.77	0.182
678.22	0.181
678.66	0.179
679.11	0.179
679.55	0.181
679.99	0.177
680.44	0.180
680.88	0.177
681.33	0.178
681.77	0.175
682.22	0.175
682.66	0.177
683.11	0.175
683.55	0.174
683.99	0.173
684.44	0.172
684.88	0.172
685.33	0.173
685.77	0.171
686.21	0.171
686.66	0.171
687.10	0.170
687.55	0.168
687.99	0.171
688.44	0.171
688.88	0.168
689.32	0.169
689.77	0.166
690.21	0.166
690.65	0.166
691.10	0.167
691.54	0.166
691.99	0.166
692.43	0.166
692.87	0.165
693.32	0.167
693.76	0.164
694.20	0.164
694.65	0.164
695.09	0.164
695.53	0.162
695.98	0.162
696.42	0.162
696.86	0.162
697.31	0.160
697.75	0.161
698.19	0.160
698.64	0.160
699.08	0.161
699.52	0.162
699.97	0.160
700.41	0.162
700.85	0.160
701.30	0.158
701.74	0.160
702.18	0.159
702.63	0.158
703.07	0.159
703.51	0.158
703.96	0.157
704.40	0.156
704.84	0.160
705.28	0.158
705.73	0.158
706.17	0.158
706.61	0.157
707.06	0.155
707.50	0.158
707.94	0.155
708.38	0.155
708.83	0.159
709.27	0.156
709.71	0.156
710.15	0.155
710.60	0.157
711.04	0.156
711.48	0.159
711.92	0.155
712.37	0.155
712.81	0.157
713.25	0.156
713.69	0.156
714.13	0.158
714.58	0.157
715.02	0.156
715.46	0.155
715.90	0.154
716.35	0.155
716.79	0.155
717.23	0.154
717.67	0.154
718.11	0.154
718.56	0.154
719.00	0.156
719.44	0.155
719.88	0.154
720.32	0.152
720.76	0.153
721.21	0.153
721.65	0.152
722.09	0.154
722.53	0.154
722.97	0.153
723.41	0.151
723.86	0.155
724.30	0.152
724.74	0.156
725.18	0.155
725.62	0.149
726.06	0.151
726.50	0.151
726.95	0.153
727.39	0.152
727.83	0.152
728.27	0.153
728.71	0.154
729.15	0.155
729.59	0.153
730.03	0.152
730.48	0.152
730.92	0.151
731.36	0.151
731.80	0.151
732.24	0.154
732.68	0.152
733.12	0.148
733.56	0.150
734.00	0.151
734.44	0.152
734.89	0.154
735.33	0.152
735.77	0.154
736.21	0.154
736.65	0.150
737.09	0.154
737.53	0.153
737.97	0.154
738.41	0.152
738.85	0.153
739.29	0.152
739.73	0.154
740.17	0.153
740.61	0.154
741.05	0.154
741.49	0.152
741.93	0.152
742.37	0.149
742.81	0.151
743.26	0.151
743.70	0.150
744.14	0.151
744.58	0.150
745.02	0.152
745.46	0.151
745.90	0.149
746.34	0.150
746.78	0.151
747.22	0.151
747.66	0.150
748.10	0.149
748.54	0.147
748.98	0.149
749.42	0.149
749.86	0.149
750.29	0.150
750.73	0.147
751.17	0.147
751.61	0.147
752.05	0.150
752.49	0.146
752.93	0.146
753.37	0.146
753.81	0.146
754.25	0.144
754.69	0.144
755.13	0.146
755.57	0.148
756.01	0.148
756.45	0.149
756.89	0.147
757.33	0.146
757.77	0.149
758.21	0.147
758.64	0.143
759.08	0.142
759.52	0.147
759.96	0.148
760.40	0.146
760.84	0.143
761.28	0.144
761.72	0.145
762.16	0.147
762.60	0.145
763.03	0.143
763.47	0.143
763.91	0.144
764.35	0.140
764.79	0.140
765.23	0.143
765.67	0.141
766.11	0.140
766.54	0.140
766.98	0.145
767.42	0.143
767.86	0.140
768.30	0.142
768.74	0.145
769.17	0.145
769.61	0.144
770.05	0.141
770.49	0.145
770.93	0.143
771.37	0.140
771.80	0.141
772.24	0.141
772.68	0.140
773.12	0.140
773.56	0.142
774.00	0.140
774.43	0.139
774.87	0.141
775.31	0.143
775.75	0.139
776.19	0.140
776.62	0.139
777.06	0.140
777.50	0.140
777.94	0.139
778.37	0.137
778.81	0.139
779.25	0.143
779.69	0.138
780.13	0.139
780.56	0.138
781.00	0.139
781.44	0.138
781.88	0.140
782.31	0.135
782.75	0.139
783.19	0.138
783.63	0.136
784.06	0.137
784.50	0.138
784.94	0.138
785.37	0.138
785.81	0.139
786.25	0.139
786.69	0.137
787.12	0.140
787.56	0.134
788.00	0.136
788.43	0.140
788.87	0.137
789.31	0.138
789.75	0.138
790.18	0.134
790.62	0.135
791.06	0.132
791.49	0.133
791.93	0.133
792.37	0.136
792.80	0.132
793.24	0.137
793.68	0.137
794.11	0.138
794.55	0.138
794.99	0.137
795.42	0.139
795.86	0.139
796.30	0.134
796.73	0.139
797.17	0.136
797.61	0.136
798.04	0.132
798.48	0.134
798.91	0.134
799.35	0.132
799.79	0.137
800.22	0.137
800.66	0.133
801.10	0.134
801.53	0.134
801.97	0.141
802.40	0.134
802.84	0.132
803.28	0.130
803.71	0.135
804.15	0.132
804.58	0.134
805.02	0.136
805.46	0.134
805.89	0.134
806.33	0.136
806.76	0.133
807.20	0.132
807.63	0.134
808.07	0.137
808.51	0.133
808.94	0.130
809.38	0.131
809.81	0.132
810.25	0.134
810.68	0.132
811.12	0.135
811.55	0.135
811.99	0.136
812.42	0.132
812.86	0.129
813.29	0.128
813.73	0.133
814.17	0.130
814.60	0.131
