SpectraSuite Data File
++++++++++++++++++++++++++++++++++++
Date: Sun Apr 24 15:48:45 CEST 2016
User: spectrasuite
Dark Spectrum Present: Yes
Reference Spectrum Present: Yes
Number of Sampled Component Spectra: 1
Spectrometers: HR+C0708
Integration Time (usec): 1000 (HR+C0708)
Spectra Averaged: 10 (HR+C0708)
Boxcar Smoothing: 0 (HR+C0708)
Correct for Electrical Dark: No (HR+C0708)
Strobe/Lamp Enabled: No (HR+C0708)
Correct for Detector Non-linearity: No (HR+C0708)
Correct for Stray Light: No (HR+C0708)
Number of Pixels in Processed Spectrum: 2048
>>>>>Begin Processed Spectral Data<<<<<
188.76	-0.000
189.23	0.782
189.70	-0.000
190.17	-0.000
190.64	-0.000
191.12	-0.000
191.59	-0.000
192.06	-0.000
192.53	-0.000
193.01	-0.000
193.48	-0.000
193.95	-0.000
194.42	-0.000
194.90	-0.000
195.37	-0.000
195.84	-0.000
196.31	-0.000
196.78	-0.000
197.26	-0.000
197.73	-0.000
198.20	-0.000
198.67	-0.000
199.14	-0.000
199.62	-0.000
200.09	-0.000
200.56	-0.000
201.03	1.411
201.50	-0.000
201.97	0.937
202.45	-0.000
202.92	0.776
203.39	-0.000
203.86	-0.000
204.33	1.367
204.80	-0.000
205.28	-0.000
205.75	-0.000
206.22	-0.000
206.69	-0.000
207.16	0.862
207.63	0.930
208.11	0.931
208.58	1.460
209.05	-0.000
209.52	-0.000
209.99	-0.000
210.46	1.634
210.93	-0.000
211.41	1.679
211.88	-0.000
212.35	-0.000
212.82	-0.000
213.29	1.257
213.76	1.010
214.23	1.467
214.70	-0.000
215.18	-0.000
215.65	-0.000
216.12	0.990
216.59	-0.000
217.06	-0.000
217.53	-0.000
218.00	-0.000
218.47	2.185
218.94	-0.000
219.41	-0.000
219.89	1.846
220.36	-0.000
220.83	1.873
221.30	-0.000
221.77	1.216
222.24	-0.000
222.71	-0.000
223.18	-0.000
223.65	1.468
224.12	-0.000
224.59	-0.000
225.06	-0.000
225.54	-0.000
226.01	-0.000
226.48	-0.000
226.95	-0.000
227.42	-0.000
227.89	-0.000
228.36	2.188
228.83	-0.000
229.30	1.547
229.77	2.125
230.24	1.929
230.71	-0.000
231.18	-0.000
231.65	2.241
232.12	1.893
232.59	-0.000
233.06	-0.000
233.53	2.082
234.00	1.998
234.47	2.324
234.94	-0.000
235.41	2.224
235.88	-0.000
236.35	-0.000
236.82	-0.000
237.29	2.723
237.76	-0.000
238.23	-0.000
238.70	-0.000
239.17	2.321
239.64	3.133
240.11	-0.000
240.58	3.265
241.05	3.518
241.52	3.721
241.99	3.519
242.46	2.624
242.93	-0.000
243.40	3.980
243.87	2.837
244.34	2.591
244.81	3.137
245.28	-0.000
245.75	3.293
246.22	4.366
246.69	2.953
247.16	3.784
247.63	2.692
248.10	3.080
248.57	3.120
249.04	3.071
249.51	-0.000
249.98	-0.000
250.45	-0.000
250.92	3.293
251.39	2.968
251.85	-0.000
252.32	-0.000
252.79	3.708
253.26	4.115
253.73	-0.000
254.20	2.837
254.67	3.014
255.14	3.105
255.61	3.057
256.08	3.721
256.55	-0.000
257.02	3.247
257.49	3.486
257.95	3.332
258.42	3.393
258.89	3.187
259.36	2.905
259.83	3.065
260.30	4.035
260.77	3.152
261.24	2.856
261.71	3.525
262.17	-0.000
262.64	3.047
263.11	3.127
263.58	-0.000
264.05	3.309
264.52	2.858
264.99	3.070
265.46	3.323
265.92	3.113
266.39	3.000
266.86	3.044
267.33	2.963
267.80	2.807
268.27	2.957
268.74	3.010
269.20	3.136
269.67	2.838
270.14	3.036
270.61	2.752
271.08	2.765
271.55	2.842
272.01	2.810
272.48	2.811
272.95	2.655
273.42	2.545
273.89	2.676
274.36	2.599
274.82	2.529
275.29	2.594
275.76	2.545
276.23	2.590
276.70	2.662
277.16	2.497
277.63	2.440
278.10	2.464
278.57	2.434
279.04	2.573
279.50	2.520
279.97	2.476
280.44	2.354
280.91	2.343
281.38	2.327
281.84	2.386
282.31	2.341
282.78	2.426
283.25	2.376
283.72	2.237
284.18	2.358
284.65	2.328
285.12	2.298
285.59	2.279
286.05	2.330
286.52	2.241
286.99	2.271
287.46	2.204
287.92	2.201
288.39	2.193
288.86	2.145
289.33	2.154
289.79	2.177
290.26	2.144
290.73	2.157
291.20	2.185
291.66	2.150
292.13	2.108
292.60	2.100
293.07	2.124
293.53	2.039
294.00	2.082
294.47	2.136
294.93	2.110
295.40	2.082
295.87	2.110
296.34	2.093
296.80	2.021
297.27	2.065
297.74	2.008
298.20	2.046
298.67	2.045
299.14	2.013
299.60	1.999
300.07	2.007
300.54	1.994
301.01	2.008
301.47	1.945
301.94	1.953
302.41	1.983
302.87	1.931
303.34	1.973
303.81	1.940
304.27	1.917
304.74	1.907
305.21	1.916
305.67	1.923
306.14	1.890
306.61	1.909
307.07	1.883
307.54	1.865
308.01	1.866
308.47	1.871
308.94	1.893
309.40	1.857
309.87	1.823
310.34	1.862
310.80	1.825
311.27	1.827
311.74	1.825
312.20	1.841
312.67	1.803
313.13	1.795
313.60	1.792
314.07	1.806
314.53	1.779
315.00	1.768
315.47	1.803
315.93	1.792
316.40	1.762
316.86	1.770
317.33	1.773
317.80	1.737
318.26	1.728
318.73	1.758
319.19	1.754
319.66	1.707
320.13	1.708
320.59	1.737
321.06	1.716
321.52	1.719
321.99	1.700
322.45	1.699
322.92	1.655
323.39	1.680
323.85	1.666
324.32	1.670
324.78	1.667
325.25	1.669
325.71	1.636
326.18	1.618
326.64	1.660
327.11	1.635
327.58	1.607
328.04	1.605
328.51	1.598
328.97	1.585
329.44	1.575
329.90	1.567
330.37	1.566
330.83	1.545
331.30	1.546
331.76	1.532
332.23	1.536
332.69	1.505
333.16	1.483
333.62	1.481
334.09	1.464
334.56	1.462
335.02	1.446
335.49	1.423
335.95	1.421
336.42	1.395
336.88	1.374
337.35	1.381
337.81	1.355
338.28	1.349
338.74	1.335
339.20	1.319
339.67	1.297
340.13	1.291
340.60	1.269
341.06	1.249
341.53	1.227
341.99	1.207
342.46	1.203
342.92	1.172
343.39	1.161
343.85	1.132
344.32	1.120
344.78	1.104
345.25	1.101
345.71	1.087
346.17	1.068
346.64	1.043
347.10	1.025
347.57	0.998
348.03	0.978
348.50	0.961
348.96	0.953
349.43	0.932
349.89	0.913
350.35	0.907
350.82	0.892
351.28	0.874
351.75	0.863
352.21	0.841
352.67	0.833
353.14	0.820
353.60	0.811
354.07	0.795
354.53	0.780
355.00	0.770
355.46	0.760
355.92	0.752
356.39	0.748
356.85	0.737
357.31	0.723
357.78	0.716
358.24	0.707
358.71	0.700
359.17	0.691
359.63	0.687
360.10	0.681
360.56	0.674
361.03	0.673
361.49	0.666
361.95	0.662
362.42	0.656
362.88	0.651
363.34	0.645
363.81	0.641
364.27	0.640
364.73	0.636
365.20	0.633
365.66	0.632
366.12	0.630
366.59	0.621
367.05	0.625
367.51	0.619
367.98	0.610
368.44	0.612
368.90	0.609
369.37	0.610
369.83	0.607
370.29	0.604
370.76	0.601
371.22	0.601
371.68	0.599
372.15	0.592
372.61	0.588
373.07	0.591
373.54	0.592
374.00	0.588
374.46	0.582
374.92	0.581
375.39	0.579
375.85	0.581
376.31	0.580
376.78	0.573
377.24	0.573
377.70	0.572
378.16	0.567
378.63	0.567
379.09	0.567
379.55	0.562
380.01	0.563
380.48	0.562
380.94	0.558
381.40	0.554
381.87	0.552
382.33	0.553
382.79	0.549
383.25	0.550
383.72	0.550
384.18	0.546
384.64	0.546
385.10	0.541
385.56	0.544
386.03	0.538
386.49	0.535
386.95	0.536
387.41	0.536
387.88	0.533
388.34	0.531
388.80	0.526
389.26	0.527
389.72	0.530
390.19	0.530
390.65	0.523
391.11	0.524
391.57	0.519
392.04	0.520
392.50	0.517
392.96	0.518
393.42	0.516
393.88	0.515
394.34	0.514
394.81	0.511
395.27	0.509
395.73	0.508
396.19	0.506
396.65	0.503
397.12	0.503
397.58	0.506
398.04	0.498
398.50	0.502
398.96	0.499
399.42	0.501
399.89	0.498
400.35	0.492
400.81	0.492
401.27	0.497
401.73	0.491
402.19	0.485
402.65	0.488
403.12	0.483
403.58	0.484
404.04	0.485
404.50	0.483
404.96	0.481
405.42	0.480
405.88	0.477
406.34	0.478
406.81	0.476
407.27	0.476
407.73	0.473
408.19	0.470
408.65	0.472
409.11	0.468
409.57	0.471
410.03	0.465
410.49	0.468
410.96	0.464
411.42	0.465
411.88	0.461
412.34	0.463
412.80	0.459
413.26	0.454
413.72	0.456
414.18	0.454
414.64	0.453
415.10	0.456
415.56	0.452
416.02	0.455
416.48	0.451
416.95	0.448
417.41	0.447
417.87	0.447
418.33	0.446
418.79	0.444
419.25	0.440
419.71	0.437
420.17	0.442
420.63	0.437
421.09	0.437
421.55	0.437
422.01	0.436
422.47	0.434
422.93	0.436
423.39	0.436
423.85	0.432
424.31	0.434
424.77	0.429
425.23	0.432
425.69	0.432
426.15	0.428
426.61	0.426
427.07	0.422
427.53	0.420
427.99	0.424
428.45	0.423
428.91	0.424
429.37	0.419
429.83	0.417
430.29	0.417
430.75	0.418
431.21	0.421
431.67	0.418
432.13	0.419
432.59	0.411
433.05	0.411
433.51	0.408
433.97	0.408
434.43	0.412
434.89	0.410
435.35	0.408
435.81	0.408
436.27	0.406
436.73	0.404
437.19	0.403
437.65	0.404
438.11	0.405
438.57	0.403
439.03	0.399
439.48	0.397
439.94	0.396
440.40	0.398
440.86	0.398
441.32	0.395
441.78	0.398
442.24	0.393
442.70	0.394
443.16	0.388
443.62	0.386
444.08	0.390
444.54	0.390
444.99	0.387
445.45	0.384
445.91	0.384
446.37	0.390
446.83	0.383
447.29	0.385
447.75	0.384
448.21	0.385
448.67	0.379
449.12	0.381
449.58	0.380
450.04	0.378
450.50	0.378
450.96	0.377
451.42	0.375
451.88	0.374
452.34	0.374
452.79	0.374
453.25	0.373
453.71	0.372
454.17	0.368
454.63	0.374
455.09	0.368
455.55	0.371
456.00	0.370
456.46	0.365
456.92	0.364
457.38	0.365
457.84	0.364
458.30	0.362
458.75	0.364
459.21	0.359
459.67	0.362
460.13	0.358
460.59	0.360
461.04	0.356
461.50	0.360
461.96	0.360
462.42	0.355
462.88	0.353
463.33	0.355
463.79	0.354
464.25	0.354
464.71	0.351
465.17	0.352
465.62	0.350
466.08	0.350
466.54	0.351
467.00	0.351
467.46	0.348
467.91	0.348
468.37	0.346
468.83	0.346
469.29	0.346
469.74	0.345
470.20	0.342
470.66	0.341
471.12	0.343
471.57	0.342
472.03	0.343
472.49	0.341
472.95	0.340
473.40	0.341
473.86	0.336
474.32	0.334
474.78	0.339
475.23	0.337
475.69	0.337
476.15	0.335
476.60	0.335
477.06	0.333
477.52	0.333
477.98	0.331
478.43	0.331
478.89	0.332
479.35	0.330
479.80	0.330
480.26	0.329
480.72	0.328
481.18	0.329
481.63	0.327
482.09	0.329
482.55	0.323
483.00	0.325
483.46	0.325
483.92	0.324
484.37	0.322
484.83	0.320
485.29	0.323
485.74	0.319
486.20	0.321
486.66	0.320
487.11	0.318
487.57	0.317
488.03	0.317
488.48	0.317
488.94	0.314
489.40	0.317
489.85	0.315
490.31	0.315
490.77	0.313
491.22	0.313
491.68	0.314
492.13	0.312
492.59	0.313
493.05	0.310
493.50	0.313
493.96	0.310
494.42	0.306
494.87	0.305
495.33	0.306
495.78	0.309
496.24	0.308
496.70	0.306
497.15	0.308
497.61	0.307
498.06	0.302
498.52	0.301
498.98	0.303
499.43	0.305
499.89	0.302
500.34	0.300
500.80	0.301
501.25	0.301
501.71	0.298
502.17	0.298
502.62	0.300
503.08	0.297
503.53	0.295
503.99	0.297
504.44	0.296
504.90	0.297
505.36	0.294
505.81	0.295
506.27	0.297
506.72	0.294
507.18	0.293
507.63	0.291
508.09	0.295
508.54	0.291
509.00	0.291
509.45	0.291
509.91	0.290
510.36	0.290
510.82	0.290
511.27	0.287
511.73	0.288
512.19	0.285
512.64	0.288
513.10	0.286
513.55	0.287
514.01	0.285
514.46	0.285
514.92	0.285
515.37	0.283
515.83	0.283
516.28	0.280
516.73	0.283
517.19	0.283
517.64	0.278
518.10	0.280
518.55	0.277
519.01	0.281
519.46	0.279
519.92	0.280
520.37	0.277
520.83	0.278
521.28	0.278
521.74	0.277
522.19	0.276
522.65	0.272
523.10	0.276
523.55	0.274
524.01	0.276
524.46	0.272
524.92	0.274
525.37	0.271
525.83	0.271
526.28	0.272
526.73	0.271
527.19	0.272
527.64	0.273
528.10	0.269
528.55	0.271
529.01	0.271
529.46	0.266
529.91	0.268
530.37	0.268
530.82	0.264
531.28	0.267
531.73	0.264
532.18	0.263
532.64	0.267
533.09	0.262
533.54	0.265
534.00	0.262
534.45	0.266
534.91	0.267
535.36	0.263
535.81	0.261
536.27	0.262
536.72	0.264
537.17	0.261
537.63	0.261
538.08	0.257
538.54	0.259
538.99	0.257
539.44	0.258
539.90	0.256
540.35	0.257
540.80	0.256
541.26	0.257
541.71	0.255
542.16	0.256
542.62	0.255
543.07	0.254
543.52	0.256
543.98	0.255
544.43	0.253
544.88	0.253
545.34	0.254
545.79	0.251
546.24	0.251
546.69	0.253
547.15	0.249
547.60	0.250
548.05	0.251
548.51	0.248
548.96	0.250
549.41	0.251
549.86	0.248
550.32	0.251
550.77	0.249
551.22	0.249
551.68	0.248
552.13	0.245
552.58	0.245
553.03	0.246
553.49	0.244
553.94	0.245
554.39	0.244
554.84	0.242
555.30	0.241
555.75	0.244
556.20	0.243
556.65	0.243
557.11	0.241
557.56	0.239
558.01	0.243
558.46	0.242
558.92	0.241
559.37	0.240
559.82	0.240
560.27	0.239
560.72	0.239
561.18	0.239
561.63	0.238
562.08	0.235
562.53	0.237
562.99	0.238
563.44	0.236
563.89	0.235
564.34	0.236
564.79	0.235
565.25	0.233
565.70	0.233
566.15	0.233
566.60	0.231
567.05	0.233
567.50	0.233
567.96	0.230
568.41	0.231
568.86	0.230
569.31	0.228
569.76	0.229
570.21	0.230
570.67	0.230
571.12	0.228
571.57	0.228
572.02	0.227
572.47	0.226
572.92	0.228
573.37	0.227
573.83	0.225
574.28	0.226
574.73	0.226
575.18	0.225
575.63	0.227
576.08	0.224
576.53	0.226
576.98	0.224
577.44	0.221
577.89	0.222
578.34	0.222
578.79	0.223
579.24	0.223
579.69	0.222
580.14	0.220
580.59	0.218
581.04	0.219
581.49	0.219
581.95	0.219
582.40	0.218
582.85	0.218
583.30	0.216
583.75	0.218
584.20	0.217
584.65	0.216
585.10	0.215
585.55	0.215
586.00	0.216
586.45	0.214
586.90	0.216
587.35	0.217
587.80	0.215
588.25	0.213
588.71	0.216
589.16	0.214
589.61	0.214
590.06	0.213
590.51	0.213
590.96	0.213
591.41	0.212
591.86	0.211
592.31	0.212
592.76	0.212
593.21	0.211
593.66	0.212
594.11	0.211
594.56	0.210
595.01	0.210
595.46	0.210
595.91	0.210
596.36	0.210
596.81	0.208
597.26	0.208
597.71	0.208
598.16	0.207
598.61	0.207
599.06	0.207
599.51	0.208
599.96	0.208
600.41	0.209
600.86	0.206
601.31	0.206
601.76	0.204
602.21	0.205
602.65	0.207
603.10	0.205
603.55	0.204
604.00	0.204
604.45	0.203
604.90	0.204
605.35	0.201
605.80	0.205
606.25	0.203
606.70	0.203
607.15	0.200
607.60	0.201
608.05	0.201
608.50	0.201
608.95	0.200
609.39	0.202
609.84	0.202
610.29	0.200
610.74	0.198
611.19	0.200
611.64	0.200
612.09	0.199
612.54	0.198
612.99	0.200
613.44	0.198
613.88	0.200
614.33	0.198
614.78	0.195
615.23	0.194
615.68	0.197
616.13	0.197
616.58	0.196
617.03	0.194
617.47	0.195
617.92	0.194
618.37	0.193
618.82	0.196
619.27	0.193
619.72	0.193
620.17	0.193
620.61	0.193
621.06	0.193
621.51	0.191
621.96	0.191
622.41	0.192
622.86	0.191
623.30	0.191
623.75	0.192
624.20	0.190
624.65	0.189
625.10	0.190
625.54	0.191
625.99	0.190
626.44	0.190
626.89	0.190
627.34	0.191
627.78	0.189
628.23	0.187
628.68	0.187
629.13	0.188
629.58	0.189
630.02	0.188
630.47	0.187
630.92	0.185
631.37	0.185
631.81	0.186
632.26	0.187
632.71	0.185
633.16	0.184
633.61	0.185
634.05	0.184
634.50	0.184
634.95	0.185
635.40	0.184
635.84	0.186
636.29	0.184
636.74	0.185
637.18	0.185
637.63	0.184
638.08	0.180
638.53	0.182
638.97	0.183
639.42	0.183
639.87	0.181
640.32	0.180
640.76	0.182
641.21	0.182
641.66	0.181
642.10	0.183
642.55	0.180
643.00	0.179
643.44	0.182
643.89	0.181
644.34	0.178
644.79	0.178
645.23	0.179
645.68	0.181
646.13	0.181
646.57	0.178
647.02	0.178
647.47	0.179
647.91	0.179
648.36	0.178
648.81	0.178
649.25	0.177
649.70	0.177
650.15	0.176
650.59	0.177
651.04	0.176
651.48	0.179
651.93	0.178
652.38	0.174
652.82	0.175
653.27	0.175
653.72	0.177
654.16	0.173
654.61	0.176
655.06	0.173
655.50	0.172
655.95	0.171
656.39	0.168
656.84	0.171
657.29	0.174
657.73	0.172
658.18	0.173
658.62	0.173
659.07	0.172
659.52	0.173
659.96	0.171
660.41	0.173
660.85	0.170
661.30	0.170
661.74	0.172
662.19	0.169
662.64	0.170
663.08	0.169
663.53	0.169
663.97	0.169
664.42	0.169
664.86	0.172
665.31	0.169
665.75	0.168
666.20	0.169
666.65	0.170
667.09	0.168
667.54	0.169
667.98	0.168
668.43	0.167
668.87	0.168
669.32	0.168
669.76	0.169
670.21	0.167
670.65	0.164
671.10	0.167
671.54	0.167
671.99	0.166
672.43	0.166
672.88	0.165
673.32	0.167
673.77	0.164
674.21	0.164
674.66	0.165
675.10	0.165
675.55	0.164
675.99	0.165
676.44	0.163
676.88	0.165
677.33	0.164
677.77	0.163
678.22	0.162
678.66	0.163
679.11	0.164
679.55	0.164
679.99	0.160
680.44	0.165
680.88	0.162
681.33	0.161
681.77	0.161
682.22	0.162
682.66	0.163
683.11	0.161
683.55	0.162
683.99	0.162
684.44	0.162
684.88	0.159
685.33	0.160
685.77	0.161
686.21	0.159
686.66	0.159
687.10	0.158
687.55	0.158
687.99	0.160
688.44	0.160
688.88	0.157
689.32	0.159
689.77	0.155
690.21	0.159
690.65	0.157
691.10	0.159
691.54	0.157
691.99	0.158
692.43	0.156
692.87	0.156
693.32	0.157
693.76	0.159
694.20	0.158
694.65	0.159
695.09	0.157
695.53	0.156
695.98	0.157
696.42	0.157
696.86	0.155
697.31	0.153
697.75	0.156
698.19	0.154
698.64	0.155
699.08	0.156
699.52	0.153
699.97	0.158
700.41	0.157
700.85	0.155
701.30	0.154
701.74	0.154
702.18	0.155
702.63	0.153
703.07	0.153
703.51	0.156
703.96	0.154
704.40	0.153
704.84	0.155
705.28	0.153
705.73	0.154
706.17	0.155
706.61	0.152
707.06	0.151
707.50	0.152
707.94	0.152
708.38	0.152
708.83	0.152
709.27	0.152
709.71	0.151
710.15	0.150
710.60	0.149
711.04	0.151
711.48	0.153
711.92	0.152
712.37	0.152
712.81	0.154
713.25	0.152
713.69	0.151
714.13	0.153
714.58	0.151
715.02	0.149
715.46	0.152
715.90	0.150
716.35	0.148
716.79	0.151
717.23	0.152
717.67	0.151
718.11	0.155
718.56	0.151
719.00	0.153
719.44	0.150
719.88	0.150
720.32	0.149
720.76	0.151
721.21	0.148
721.65	0.149
722.09	0.151
722.53	0.149
722.97	0.151
723.41	0.148
723.86	0.150
724.30	0.149
724.74	0.150
725.18	0.149
725.62	0.149
726.06	0.150
726.50	0.148
726.95	0.147
727.39	0.151
727.83	0.148
728.27	0.150
728.71	0.150
729.15	0.150
729.59	0.149
730.03	0.147
730.48	0.149
730.92	0.147
731.36	0.149
731.80	0.149
732.24	0.150
732.68	0.149
733.12	0.147
733.56	0.149
734.00	0.149
734.44	0.151
734.89	0.150
735.33	0.151
735.77	0.151
736.21	0.149
736.65	0.147
737.09	0.151
737.53	0.152
737.97	0.152
738.41	0.149
738.85	0.152
739.29	0.151
739.73	0.146
740.17	0.150
740.61	0.149
741.05	0.150
741.49	0.150
741.93	0.148
742.37	0.147
742.81	0.147
743.26	0.149
743.70	0.147
744.14	0.149
744.58	0.147
745.02	0.147
745.46	0.150
745.90	0.147
746.34	0.149
746.78	0.147
747.22	0.147
747.66	0.147
748.10	0.147
748.54	0.146
748.98	0.147
749.42	0.145
749.86	0.148
750.29	0.146
750.73	0.143
751.17	0.144
751.61	0.144
752.05	0.146
752.49	0.144
752.93	0.142
753.37	0.143
753.81	0.145
754.25	0.143
754.69	0.142
755.13	0.141
755.57	0.147
756.01	0.146
756.45	0.145
756.89	0.144
757.33	0.146
757.77	0.145
758.21	0.143
758.64	0.142
759.08	0.139
759.52	0.144
759.96	0.144
760.40	0.142
760.84	0.141
761.28	0.142
761.72	0.143
762.16	0.144
762.60	0.142
763.03	0.140
763.47	0.143
763.91	0.142
764.35	0.141
764.79	0.139
765.23	0.138
765.67	0.140
766.11	0.139
766.54	0.138
766.98	0.142
767.42	0.140
767.86	0.136
768.30	0.140
768.74	0.142
769.17	0.144
769.61	0.140
770.05	0.140
770.49	0.140
770.93	0.140
771.37	0.137
771.80	0.139
772.24	0.138
772.68	0.137
773.12	0.139
773.56	0.138
774.00	0.136
774.43	0.137
774.87	0.139
775.31	0.140
775.75	0.136
776.19	0.134
776.62	0.134
777.06	0.138
777.50	0.137
777.94	0.137
778.37	0.137
778.81	0.135
779.25	0.138
779.69	0.139
780.13	0.138
780.56	0.135
781.00	0.137
781.44	0.137
781.88	0.137
782.31	0.134
782.75	0.135
783.19	0.138
783.63	0.133
784.06	0.135
784.50	0.136
784.94	0.134
785.37	0.135
785.81	0.137
786.25	0.137
786.69	0.131
787.12	0.135
787.56	0.135
788.00	0.135
788.43	0.134
788.87	0.132
789.31	0.136
789.75	0.136
790.18	0.131
790.62	0.134
791.06	0.134
791.49	0.130
791.93	0.131
792.37	0.136
792.80	0.132
793.24	0.134
793.68	0.136
794.11	0.134
794.55	0.136
794.99	0.135
795.42	0.133
795.86	0.135
796.30	0.132
796.73	0.133
797.17	0.132
797.61	0.129
798.04	0.132
798.48	0.135
798.91	0.132
799.35	0.129
799.79	0.136
800.22	0.132
800.66	0.133
801.10	0.133
801.53	0.133
801.97	0.136
802.40	0.133
802.84	0.128
803.28	0.132
803.71	0.134
804.15	0.133
804.58	0.131
805.02	0.132
805.46	0.131
805.89	0.129
806.33	0.132
806.76	0.129
807.20	0.132
807.63	0.128
808.07	0.135
808.51	0.129
808.94	0.127
809.38	0.127
809.81	0.128
810.25	0.132
810.68	0.132
811.12	0.131
811.55	0.134
811.99	0.128
812.42	0.129
812.86	0.130
813.29	0.128
813.73	0.128
814.17	0.129
814.60	0.127
815.04	0.126
