SpectraSuite Data File
++++++++++++++++++++++++++++++++++++
Date: Sun Apr 24 15:08:34 CEST 2016
User: spectrasuite
Dark Spectrum Present: Yes
Reference Spectrum Present: Yes
Number of Sampled Component Spectra: 1
Spectrometers: HR+C0708
Integration Time (usec): 1000 (HR+C0708)
Spectra Averaged: 10 (HR+C0708)
Boxcar Smoothing: 0 (HR+C0708)
Correct for Electrical Dark: No (HR+C0708)
Strobe/Lamp Enabled: No (HR+C0708)
Correct for Detector Non-linearity: No (HR+C0708)
Correct for Stray Light: No (HR+C0708)
Number of Pixels in Processed Spectrum: 2048
>>>>>Begin Processed Spectral Data<<<<<
188.76	-0.000
189.23	-0.000
189.70	-0.000
190.17	-0.000
190.64	-0.000
191.12	-0.000
191.59	-0.000
192.06	-0.000
192.53	-0.000
193.01	-0.000
193.48	1.161
193.95	-0.000
194.42	-0.000
194.90	0.948
195.37	-0.000
195.84	-0.000
196.31	0.699
196.78	-0.000
197.26	-0.000
197.73	-0.000
198.20	-0.000
198.67	-0.000
199.14	-0.000
199.62	-0.000
200.09	-0.000
200.56	-0.000
201.03	-0.000
201.50	1.142
201.97	1.129
202.45	1.300
202.92	0.776
203.39	1.623
203.86	2.111
204.33	1.492
204.80	-0.000
205.28	1.003
205.75	-0.000
206.22	2.650
206.69	1.194
207.16	-0.000
207.63	1.167
208.11	0.542
208.58	0.931
209.05	-0.000
209.52	-0.000
209.99	2.020
210.46	0.989
210.93	-0.000
211.41	1.140
211.88	2.701
212.35	-0.000
212.82	-0.000
213.29	1.941
213.76	2.457
214.23	-0.000
214.70	-0.000
215.18	-0.000
215.65	0.840
216.12	1.342
216.59	0.882
217.06	1.255
217.53	-0.000
218.00	1.434
218.47	1.071
218.94	1.336
219.41	1.567
219.89	-0.000
220.36	-0.000
220.83	1.623
221.30	-0.000
221.77	1.537
222.24	1.291
222.71	-0.000
223.18	-0.000
223.65	1.726
224.12	-0.000
224.59	-0.000
225.06	2.031
225.54	1.624
226.01	2.046
226.48	-0.000
226.95	2.891
227.42	1.720
227.89	-0.000
228.36	1.609
228.83	1.584
229.30	2.056
229.77	2.346
230.24	1.577
230.71	-0.000
231.18	2.302
231.65	2.174
232.12	1.721
232.59	1.827
233.06	-0.000
233.53	2.153
234.00	2.167
234.47	-0.000
234.94	-0.000
235.41	1.965
235.88	3.033
236.35	3.850
236.82	2.337
237.29	2.496
237.76	2.960
238.23	-0.000
238.70	2.895
239.17	2.559
239.64	-0.000
240.11	3.417
240.58	2.725
241.05	3.057
241.52	-0.000
241.99	3.139
242.46	3.044
242.93	-0.000
243.40	2.690
243.87	2.454
244.34	2.559
244.81	3.084
245.28	-0.000
245.75	3.021
246.22	-0.000
246.69	3.376
247.16	2.696
247.63	-0.000
248.10	2.945
248.57	-0.000
249.04	3.591
249.51	4.103
249.98	-0.000
250.45	3.713
250.92	3.085
251.39	-0.000
251.85	-0.000
252.32	3.754
252.79	3.477
253.26	3.240
253.73	-0.000
254.20	3.221
254.67	3.006
255.14	-0.000
255.61	3.813
256.08	-0.000
256.55	-0.000
257.02	3.180
257.49	4.407
257.95	3.696
258.42	3.656
258.89	3.415
259.36	2.877
259.83	3.202
260.30	3.896
260.77	-0.000
261.24	3.130
261.71	3.494
262.17	3.529
262.64	2.893
263.11	3.339
263.58	3.564
264.05	2.871
264.52	2.921
264.99	3.065
265.46	3.539
265.92	3.176
266.39	2.873
266.86	-0.000
267.33	3.870
267.80	2.703
268.27	4.685
268.74	3.381
269.20	3.067
269.67	3.370
270.14	2.792
270.61	2.936
271.08	3.095
271.55	2.905
272.01	2.986
272.48	2.779
272.95	3.043
273.42	2.947
273.89	3.052
274.36	2.967
274.82	2.724
275.29	2.795
275.76	2.658
276.23	2.691
276.70	2.672
277.16	2.712
277.63	2.574
278.10	2.550
278.57	2.609
279.04	2.681
279.50	2.669
279.97	2.668
280.44	2.392
280.91	2.567
281.38	2.493
281.84	2.534
282.31	2.696
282.78	2.751
283.25	2.516
283.72	2.541
284.18	2.473
284.65	2.475
285.12	2.523
285.59	2.525
286.05	2.563
286.52	2.429
286.99	2.380
287.46	2.551
287.92	2.414
288.39	2.349
288.86	2.497
289.33	2.372
289.79	2.346
290.26	2.454
290.73	2.422
291.20	2.466
291.66	2.403
292.13	2.286
292.60	2.353
293.07	2.289
293.53	2.209
294.00	2.325
294.47	2.361
294.93	2.199
295.40	2.330
295.87	2.280
296.34	2.244
296.80	2.157
297.27	2.266
297.74	2.249
298.20	2.258
298.67	2.181
299.14	2.233
299.60	2.245
300.07	2.189
300.54	2.202
301.01	2.173
301.47	2.118
301.94	2.109
302.41	2.156
302.87	2.194
303.34	2.163
303.81	2.085
304.27	2.177
304.74	2.083
305.21	2.045
305.67	2.114
306.14	2.055
306.61	2.061
307.07	2.079
307.54	2.090
308.01	2.087
308.47	2.012
308.94	2.049
309.40	2.088
309.87	2.006
310.34	1.987
310.80	2.071
311.27	2.052
311.74	2.005
312.20	2.035
312.67	2.031
313.13	1.965
313.60	2.045
314.07	1.996
314.53	1.980
315.00	1.979
315.47	1.985
315.93	1.984
316.40	1.960
316.86	1.972
317.33	1.948
317.80	1.950
318.26	1.954
318.73	1.966
319.19	1.943
319.66	1.909
320.13	1.864
320.59	1.907
321.06	1.889
321.52	1.933
321.99	1.891
322.45	1.897
322.92	1.847
323.39	1.827
323.85	1.852
324.32	1.854
324.78	1.850
325.25	1.846
325.71	1.789
326.18	1.792
326.64	1.837
327.11	1.781
327.58	1.766
328.04	1.763
328.51	1.754
328.97	1.775
329.44	1.725
329.90	1.737
330.37	1.735
330.83	1.691
331.30	1.714
331.76	1.686
332.23	1.673
332.69	1.655
333.16	1.651
333.62	1.624
334.09	1.593
334.56	1.592
335.02	1.586
335.49	1.568
335.95	1.535
336.42	1.527
336.88	1.492
337.35	1.480
337.81	1.455
338.28	1.437
338.74	1.415
339.20	1.400
339.67	1.382
340.13	1.367
340.60	1.325
341.06	1.300
341.53	1.277
341.99	1.260
342.46	1.233
342.92	1.205
343.39	1.181
343.85	1.158
344.32	1.151
344.78	1.133
345.25	1.106
345.71	1.087
346.17	1.063
346.64	1.034
347.10	1.008
347.57	0.989
348.03	0.968
348.50	0.940
348.96	0.919
349.43	0.909
349.89	0.890
350.35	0.873
350.82	0.861
351.28	0.838
351.75	0.822
352.21	0.809
352.67	0.799
353.14	0.791
353.60	0.769
354.07	0.760
354.53	0.743
355.00	0.729
355.46	0.721
355.92	0.708
356.39	0.698
356.85	0.699
357.31	0.685
357.78	0.670
358.24	0.665
358.71	0.654
359.17	0.646
359.63	0.642
360.10	0.638
360.56	0.631
361.03	0.625
361.49	0.617
361.95	0.617
362.42	0.608
362.88	0.604
363.34	0.604
363.81	0.594
364.27	0.590
364.73	0.592
365.20	0.590
365.66	0.580
366.12	0.583
366.59	0.578
367.05	0.577
367.51	0.574
367.98	0.567
368.44	0.571
368.90	0.568
369.37	0.565
369.83	0.563
370.29	0.559
370.76	0.553
371.22	0.559
371.68	0.554
372.15	0.547
372.61	0.546
373.07	0.545
373.54	0.545
374.00	0.546
374.46	0.544
374.92	0.540
375.39	0.537
375.85	0.537
376.31	0.535
376.78	0.534
377.24	0.530
377.70	0.530
378.16	0.524
378.63	0.527
379.09	0.522
379.55	0.521
380.01	0.520
380.48	0.517
380.94	0.518
381.40	0.514
381.87	0.515
382.33	0.514
382.79	0.513
383.25	0.510
383.72	0.512
384.18	0.506
384.64	0.504
385.10	0.503
385.56	0.500
386.03	0.501
386.49	0.498
386.95	0.498
387.41	0.494
387.88	0.494
388.34	0.491
388.80	0.488
389.26	0.489
389.72	0.491
390.19	0.491
390.65	0.485
391.11	0.486
391.57	0.484
392.04	0.481
392.50	0.479
392.96	0.478
393.42	0.472
393.88	0.476
394.34	0.475
394.81	0.472
395.27	0.470
395.73	0.470
396.19	0.470
396.65	0.469
397.12	0.466
397.58	0.463
398.04	0.462
398.50	0.463
398.96	0.459
399.42	0.466
399.89	0.456
400.35	0.458
400.81	0.454
401.27	0.452
401.73	0.451
402.19	0.453
402.65	0.450
403.12	0.446
403.58	0.451
404.04	0.447
404.50	0.449
404.96	0.447
405.42	0.444
405.88	0.442
406.34	0.446
406.81	0.442
407.27	0.438
407.73	0.436
408.19	0.437
408.65	0.434
409.11	0.432
409.57	0.434
410.03	0.428
410.49	0.431
410.96	0.428
411.42	0.430
411.88	0.425
412.34	0.425
412.80	0.429
413.26	0.423
413.72	0.420
414.18	0.421
414.64	0.419
415.10	0.421
415.56	0.422
416.02	0.420
416.48	0.413
416.95	0.414
417.41	0.413
417.87	0.413
418.33	0.412
418.79	0.409
419.25	0.410
419.71	0.404
420.17	0.408
420.63	0.404
421.09	0.407
421.55	0.401
422.01	0.405
422.47	0.402
422.93	0.403
423.39	0.401
423.85	0.400
424.31	0.398
424.77	0.398
425.23	0.402
425.69	0.400
426.15	0.397
426.61	0.395
427.07	0.392
427.53	0.390
427.99	0.390
428.45	0.389
428.91	0.389
429.37	0.387
429.83	0.386
430.29	0.387
430.75	0.386
431.21	0.388
431.67	0.388
432.13	0.385
432.59	0.382
433.05	0.384
433.51	0.377
433.97	0.380
434.43	0.376
434.89	0.380
435.35	0.380
435.81	0.373
436.27	0.374
436.73	0.372
437.19	0.373
437.65	0.373
438.11	0.373
438.57	0.371
439.03	0.372
439.48	0.368
439.94	0.370
440.40	0.368
440.86	0.367
441.32	0.365
441.78	0.369
442.24	0.364
442.70	0.364
443.16	0.361
443.62	0.360
444.08	0.360
444.54	0.362
444.99	0.355
445.45	0.359
445.91	0.356
446.37	0.359
446.83	0.357
447.29	0.352
447.75	0.353
448.21	0.356
448.67	0.353
449.12	0.353
449.58	0.352
450.04	0.350
450.50	0.347
450.96	0.351
451.42	0.347
451.88	0.345
452.34	0.345
452.79	0.345
453.25	0.346
453.71	0.344
454.17	0.342
454.63	0.343
455.09	0.342
455.55	0.341
456.00	0.342
456.46	0.339
456.92	0.339
457.38	0.336
457.84	0.338
458.30	0.335
458.75	0.337
459.21	0.329
459.67	0.333
460.13	0.337
460.59	0.332
461.04	0.333
461.50	0.332
461.96	0.328
462.42	0.330
462.88	0.329
463.33	0.330
463.79	0.327
464.25	0.329
464.71	0.327
465.17	0.328
465.62	0.325
466.08	0.325
466.54	0.323
467.00	0.324
467.46	0.323
467.91	0.323
468.37	0.323
468.83	0.323
469.29	0.322
469.74	0.320
470.20	0.322
470.66	0.317
471.12	0.316
471.57	0.316
472.03	0.316
472.49	0.317
472.95	0.314
473.40	0.316
473.86	0.313
474.32	0.312
474.78	0.312
475.23	0.310
475.69	0.311
476.15	0.308
476.60	0.312
477.06	0.309
477.52	0.309
477.98	0.308
478.43	0.309
478.89	0.305
479.35	0.306
479.80	0.305
480.26	0.309
480.72	0.304
481.18	0.304
481.63	0.302
482.09	0.302
482.55	0.302
483.00	0.301
483.46	0.299
483.92	0.298
484.37	0.300
484.83	0.295
485.29	0.296
485.74	0.297
486.20	0.298
486.66	0.297
487.11	0.294
487.57	0.295
488.03	0.294
488.48	0.295
488.94	0.290
489.40	0.293
489.85	0.292
490.31	0.293
490.77	0.291
491.22	0.293
491.68	0.292
492.13	0.290
492.59	0.292
493.05	0.286
493.50	0.289
493.96	0.288
494.42	0.286
494.87	0.284
495.33	0.283
495.78	0.286
496.24	0.284
496.70	0.285
497.15	0.284
497.61	0.284
498.06	0.282
498.52	0.279
498.98	0.282
499.43	0.283
499.89	0.281
500.34	0.279
500.80	0.279
501.25	0.278
501.71	0.277
502.17	0.278
502.62	0.279
503.08	0.278
503.53	0.276
503.99	0.274
504.44	0.275
504.90	0.275
505.36	0.272
505.81	0.275
506.27	0.273
506.72	0.272
507.18	0.272
507.63	0.269
508.09	0.272
508.54	0.269
509.00	0.271
509.45	0.271
509.91	0.270
510.36	0.267
510.82	0.268
511.27	0.268
511.73	0.269
512.19	0.267
512.64	0.266
513.10	0.266
513.55	0.265
514.01	0.262
514.46	0.265
514.92	0.261
515.37	0.263
515.83	0.260
516.28	0.262
516.73	0.263
517.19	0.264
517.64	0.256
518.10	0.259
518.55	0.258
519.01	0.257
519.46	0.259
519.92	0.258
520.37	0.255
520.83	0.257
521.28	0.258
521.74	0.256
522.19	0.256
522.65	0.256
523.10	0.256
523.55	0.255
524.01	0.257
524.46	0.254
524.92	0.253
525.37	0.252
525.83	0.253
526.28	0.252
526.73	0.253
527.19	0.252
527.64	0.254
528.10	0.251
528.55	0.248
529.01	0.252
529.46	0.249
529.91	0.249
530.37	0.246
530.82	0.247
531.28	0.247
531.73	0.246
532.18	0.248
532.64	0.248
533.09	0.244
533.54	0.243
534.00	0.243
534.45	0.249
534.91	0.243
535.36	0.244
535.81	0.242
536.27	0.238
536.72	0.243
537.17	0.242
537.63	0.242
538.08	0.239
538.54	0.242
538.99	0.241
539.44	0.242
539.90	0.238
540.35	0.239
540.80	0.238
541.26	0.238
541.71	0.235
542.16	0.237
542.62	0.236
543.07	0.237
543.52	0.239
543.98	0.236
544.43	0.235
544.88	0.234
545.34	0.234
545.79	0.232
546.24	0.232
546.69	0.233
547.15	0.232
547.60	0.234
548.05	0.232
548.51	0.231
548.96	0.231
549.41	0.232
549.86	0.232
550.32	0.231
550.77	0.229
551.22	0.229
551.68	0.226
552.13	0.229
552.58	0.228
553.03	0.228
553.49	0.228
553.94	0.226
554.39	0.227
554.84	0.226
555.30	0.227
555.75	0.227
556.20	0.225
556.65	0.222
557.11	0.226
557.56	0.223
558.01	0.225
558.46	0.226
558.92	0.222
559.37	0.222
559.82	0.222
560.27	0.221
560.72	0.221
561.18	0.220
561.63	0.221
562.08	0.218
562.53	0.220
562.99	0.221
563.44	0.220
563.89	0.217
564.34	0.218
564.79	0.218
565.25	0.217
565.70	0.218
566.15	0.218
566.60	0.215
567.05	0.218
567.50	0.216
567.96	0.215
568.41	0.215
568.86	0.214
569.31	0.212
569.76	0.211
570.21	0.213
570.67	0.213
571.12	0.212
571.57	0.211
572.02	0.212
572.47	0.211
572.92	0.211
573.37	0.209
573.83	0.210
574.28	0.210
574.73	0.209
575.18	0.210
575.63	0.209
576.08	0.206
576.53	0.207
576.98	0.209
577.44	0.203
577.89	0.206
578.34	0.205
578.79	0.206
579.24	0.206
579.69	0.206
580.14	0.203
580.59	0.202
581.04	0.202
581.49	0.204
581.95	0.202
582.40	0.201
582.85	0.201
583.30	0.203
583.75	0.201
584.20	0.201
584.65	0.201
585.10	0.203
585.55	0.201
586.00	0.200
586.45	0.200
586.90	0.201
587.35	0.200
587.80	0.198
588.25	0.197
588.71	0.199
589.16	0.198
589.61	0.197
590.06	0.197
590.51	0.197
590.96	0.197
591.41	0.196
591.86	0.198
592.31	0.197
592.76	0.197
593.21	0.195
593.66	0.196
594.11	0.195
594.56	0.194
595.01	0.194
595.46	0.193
595.91	0.195
596.36	0.195
596.81	0.195
597.26	0.193
597.71	0.193
598.16	0.193
598.61	0.192
599.06	0.192
599.51	0.193
599.96	0.193
600.41	0.192
600.86	0.192
601.31	0.191
601.76	0.191
602.21	0.191
602.65	0.190
603.10	0.191
603.55	0.189
604.00	0.190
604.45	0.188
604.90	0.190
605.35	0.186
605.80	0.189
606.25	0.190
606.70	0.189
607.15	0.188
607.60	0.188
608.05	0.186
608.50	0.186
608.95	0.183
609.39	0.188
609.84	0.186
610.29	0.184
610.74	0.185
611.19	0.182
611.64	0.183
612.09	0.184
612.54	0.184
612.99	0.185
613.44	0.183
613.88	0.186
614.33	0.185
614.78	0.181
615.23	0.182
615.68	0.182
616.13	0.182
616.58	0.181
617.03	0.182
617.47	0.183
617.92	0.181
618.37	0.180
618.82	0.182
619.27	0.181
619.72	0.178
620.17	0.177
620.61	0.177
621.06	0.180
621.51	0.180
621.96	0.178
622.41	0.178
622.86	0.177
623.30	0.176
623.75	0.178
624.20	0.177
624.65	0.177
625.10	0.176
625.54	0.176
625.99	0.176
626.44	0.176
626.89	0.177
627.34	0.177
627.78	0.175
628.23	0.175
628.68	0.173
629.13	0.173
629.58	0.173
630.02	0.173
630.47	0.172
630.92	0.174
631.37	0.171
631.81	0.175
632.26	0.172
632.71	0.173
633.16	0.171
633.61	0.171
634.05	0.171
634.50	0.172
634.95	0.171
635.40	0.171
635.84	0.172
636.29	0.171
636.74	0.172
637.18	0.170
637.63	0.170
638.08	0.169
638.53	0.169
638.97	0.169
639.42	0.170
639.87	0.170
640.32	0.167
640.76	0.168
641.21	0.167
641.66	0.168
642.10	0.167
642.55	0.168
643.00	0.167
643.44	0.168
643.89	0.167
644.34	0.167
644.79	0.167
645.23	0.166
645.68	0.166
646.13	0.163
646.57	0.165
647.02	0.166
647.47	0.168
647.91	0.167
648.36	0.165
648.81	0.165
649.25	0.163
649.70	0.163
650.15	0.164
650.59	0.164
651.04	0.163
651.48	0.165
651.93	0.164
652.38	0.163
652.82	0.162
653.27	0.164
653.72	0.164
654.16	0.161
654.61	0.163
655.06	0.161
655.50	0.159
655.95	0.158
656.39	0.156
656.84	0.158
657.29	0.163
657.73	0.159
658.18	0.161
658.62	0.162
659.07	0.161
659.52	0.159
659.96	0.159
660.41	0.160
660.85	0.159
661.30	0.160
661.74	0.159
662.19	0.158
662.64	0.159
663.08	0.159
663.53	0.158
663.97	0.156
664.42	0.158
664.86	0.160
665.31	0.157
665.75	0.156
666.20	0.158
666.65	0.158
667.09	0.157
667.54	0.158
667.98	0.157
668.43	0.156
668.87	0.155
669.32	0.155
669.76	0.156
670.21	0.157
670.65	0.155
671.10	0.156
671.54	0.155
671.99	0.154
672.43	0.154
672.88	0.154
673.32	0.153
673.77	0.154
674.21	0.151
674.66	0.153
675.10	0.153
675.55	0.151
675.99	0.154
676.44	0.153
676.88	0.153
677.33	0.152
677.77	0.152
678.22	0.150
678.66	0.151
679.11	0.150
679.55	0.153
679.99	0.151
680.44	0.154
680.88	0.152
681.33	0.151
681.77	0.149
682.22	0.150
682.66	0.151
683.11	0.151
683.55	0.150
683.99	0.150
684.44	0.150
684.88	0.146
685.33	0.149
685.77	0.149
686.21	0.149
686.66	0.149
687.10	0.150
687.55	0.147
687.99	0.151
688.44	0.151
688.88	0.148
689.32	0.149
689.77	0.147
690.21	0.146
690.65	0.148
691.10	0.147
691.54	0.148
691.99	0.146
692.43	0.145
692.87	0.145
693.32	0.149
693.76	0.147
694.20	0.148
694.65	0.146
695.09	0.145
695.53	0.146
695.98	0.145
696.42	0.146
696.86	0.146
697.31	0.144
697.75	0.144
698.19	0.145
698.64	0.144
699.08	0.146
699.52	0.144
699.97	0.146
700.41	0.144
700.85	0.143
701.30	0.142
701.74	0.144
702.18	0.144
702.63	0.144
703.07	0.146
703.51	0.144
703.96	0.142
704.40	0.143
704.84	0.144
705.28	0.144
705.73	0.145
706.17	0.144
706.61	0.145
707.06	0.141
707.50	0.142
707.94	0.141
708.38	0.141
708.83	0.144
709.27	0.141
709.71	0.141
710.15	0.142
710.60	0.141
711.04	0.141
711.48	0.144
711.92	0.142
712.37	0.141
712.81	0.143
713.25	0.141
713.69	0.141
714.13	0.141
714.58	0.142
715.02	0.142
715.46	0.139
715.90	0.139
716.35	0.139
716.79	0.141
717.23	0.143
717.67	0.141
718.11	0.144
718.56	0.140
719.00	0.142
719.44	0.140
719.88	0.141
720.32	0.138
720.76	0.140
721.21	0.141
721.65	0.139
722.09	0.139
722.53	0.142
722.97	0.140
723.41	0.137
723.86	0.142
724.30	0.139
724.74	0.142
725.18	0.140
725.62	0.139
726.06	0.142
726.50	0.138
726.95	0.138
727.39	0.139
727.83	0.137
728.27	0.141
728.71	0.140
729.15	0.140
729.59	0.140
730.03	0.138
730.48	0.139
730.92	0.139
731.36	0.141
731.80	0.141
732.24	0.139
732.68	0.138
733.12	0.135
733.56	0.138
734.00	0.139
734.44	0.137
734.89	0.139
735.33	0.139
735.77	0.143
736.21	0.139
736.65	0.138
737.09	0.140
737.53	0.141
737.97	0.141
738.41	0.140
738.85	0.144
739.29	0.142
739.73	0.138
740.17	0.140
740.61	0.140
741.05	0.142
741.49	0.141
741.93	0.140
742.37	0.137
742.81	0.139
743.26	0.141
743.70	0.138
744.14	0.138
744.58	0.140
745.02	0.140
745.46	0.140
745.90	0.138
746.34	0.141
746.78	0.139
747.22	0.139
747.66	0.139
748.10	0.141
748.54	0.137
748.98	0.136
749.42	0.136
749.86	0.138
750.29	0.137
750.73	0.135
751.17	0.137
751.61	0.137
752.05	0.138
752.49	0.135
752.93	0.136
753.37	0.136
753.81	0.132
754.25	0.135
754.69	0.134
755.13	0.135
755.57	0.137
756.01	0.136
756.45	0.137
756.89	0.136
757.33	0.134
757.77	0.134
758.21	0.133
758.64	0.132
759.08	0.130
759.52	0.134
759.96	0.136
760.40	0.135
760.84	0.133
761.28	0.132
761.72	0.133
762.16	0.133
762.60	0.133
763.03	0.132
763.47	0.131
763.91	0.134
764.35	0.132
764.79	0.131
765.23	0.127
765.67	0.131
766.11	0.126
766.54	0.127
766.98	0.133
767.42	0.130
767.86	0.126
768.30	0.128
768.74	0.133
769.17	0.134
769.61	0.133
770.05	0.132
770.49	0.133
770.93	0.132
771.37	0.129
771.80	0.130
772.24	0.131
772.68	0.128
773.12	0.131
773.56	0.128
774.00	0.131
774.43	0.129
774.87	0.130
775.31	0.129
775.75	0.129
776.19	0.127
776.62	0.128
777.06	0.131
777.50	0.126
777.94	0.127
778.37	0.124
778.81	0.130
779.25	0.130
779.69	0.128
780.13	0.130
780.56	0.128
781.00	0.128
781.44	0.129
781.88	0.131
782.31	0.127
782.75	0.126
783.19	0.128
783.63	0.127
784.06	0.123
784.50	0.129
784.94	0.126
785.37	0.129
785.81	0.132
786.25	0.131
786.69	0.126
787.12	0.125
787.56	0.125
788.00	0.129
788.43	0.126
788.87	0.124
789.31	0.126
789.75	0.125
790.18	0.125
790.62	0.125
791.06	0.127
791.49	0.124
791.93	0.124
792.37	0.124
792.80	0.122
793.24	0.124
793.68	0.124
794.11	0.124
794.55	0.127
794.99	0.124
795.42	0.125
795.86	0.130
796.30	0.122
796.73	0.125
797.17	0.123
797.61	0.125
798.04	0.123
798.48	0.125
798.91	0.120
799.35	0.126
799.79	0.128
800.22	0.126
800.66	0.119
801.10	0.122
801.53	0.124
801.97	0.130
802.40	0.126
802.84	0.123
803.28	0.121
803.71	0.124
804.15	0.121
804.58	0.122
805.02	0.126
805.46	0.123
805.89	0.122
806.33	0.124
806.76	0.122
807.20	0.123
807.63	0.122
808.07	0.126
808.51	0.121
808.94	0.118
809.38	0.119
809.81	0.124
810.25	0.124
810.68	0.121
811.12	0.123
811.55	0.122
811.99	0.124
812.42	0.121
812.86	0.121
813.29	0.120
813.73	0.122
814.17	0.118
814.60	0.119
815.04	0.123
815.47	0.121
815.91	0.119
