SpectraSuite Data File
++++++++++++++++++++++++++++++++++++
Date: Sun Apr 24 14:35:25 CEST 2016
User: spectrasuite
Dark Spectrum Present: Yes
Reference Spectrum Present: Yes
Number of Sampled Component Spectra: 1
Spectrometers: HR+C0708
Integration Time (usec): 1000 (HR+C0708)
Spectra Averaged: 10 (HR+C0708)
Boxcar Smoothing: 0 (HR+C0708)
Correct for Electrical Dark: No (HR+C0708)
Strobe/Lamp Enabled: No (HR+C0708)
Correct for Detector Non-linearity: No (HR+C0708)
Correct for Stray Light: No (HR+C0708)
Number of Pixels in Processed Spectrum: 2048
>>>>>Begin Processed Spectral Data<<<<<
188.76	-0.000
189.23	-0.000
189.70	-0.000
190.17	-0.000
190.64	-0.000
191.12	-0.000
191.59	-0.000
192.06	-0.000
192.53	-0.000
193.01	-0.000
193.48	-0.000
193.95	-0.000
194.42	-0.000
194.90	-0.000
195.37	-0.000
195.84	-0.000
196.31	-0.000
196.78	-0.000
197.26	-0.000
197.73	-0.000
198.20	-0.000
198.67	-0.000
199.14	-0.000
199.62	-0.000
200.09	-0.000
200.56	-0.000
201.03	-0.000
201.50	1.294
201.97	1.081
202.45	-0.000
202.92	0.880
203.39	1.436
203.86	-0.000
204.33	-0.000
204.80	-0.000
205.28	1.339
205.75	-0.000
206.22	-0.000
206.69	1.416
207.16	-0.000
207.63	1.908
208.11	-0.000
208.58	-0.000
209.05	1.236
209.52	-0.000
209.99	-0.000
210.46	1.412
210.93	-0.000
211.41	1.766
211.88	-0.000
212.35	-0.000
212.82	1.093
213.29	0.956
213.76	1.980
214.23	-0.000
214.70	1.815
215.18	-0.000
215.65	0.830
216.12	1.108
216.59	-0.000
217.06	-0.000
217.53	1.182
218.00	1.931
218.47	1.673
218.94	-0.000
219.41	1.993
219.89	2.323
220.36	-0.000
220.83	1.184
221.30	1.780
221.77	1.196
222.24	-0.000
222.71	-0.000
223.18	-0.000
223.65	-0.000
224.12	-0.000
224.59	-0.000
225.06	-0.000
225.54	2.815
226.01	1.377
226.48	-0.000
226.95	2.590
227.42	3.252
227.89	-0.000
228.36	1.609
228.83	1.920
229.30	2.009
229.77	-0.000
230.24	1.809
230.71	-0.000
231.18	2.119
231.65	2.462
232.12	2.282
232.59	1.884
233.06	-0.000
233.53	2.431
234.00	2.228
234.47	-0.000
234.94	-0.000
235.41	2.327
235.88	-0.000
236.35	3.850
236.82	2.638
237.29	2.672
237.76	2.580
238.23	-0.000
238.70	2.500
239.17	2.559
239.64	3.184
240.11	3.338
240.58	3.080
241.05	3.025
241.52	2.968
241.99	-0.000
242.46	3.435
242.93	2.702
243.40	-0.000
243.87	3.239
244.34	2.583
244.81	2.896
245.28	-0.000
245.75	3.011
246.22	-0.000
246.69	3.121
247.16	3.143
247.63	-0.000
248.10	3.070
248.57	3.377
249.04	-0.000
249.51	-0.000
249.98	-0.000
250.45	2.907
250.92	3.018
251.39	3.762
251.85	-0.000
252.32	4.232
252.79	-0.000
253.26	-0.000
253.73	-0.000
254.20	2.831
254.67	2.658
255.14	3.640
255.61	3.350
256.08	3.605
256.55	-0.000
257.02	3.025
257.49	-0.000
257.95	3.087
258.42	2.993
258.89	3.114
259.36	3.123
259.83	3.472
260.30	-0.000
260.77	-0.000
261.24	3.010
261.71	4.054
262.17	3.618
262.64	2.979
263.11	-0.000
263.58	4.979
264.05	3.257
264.52	3.186
264.99	3.010
265.46	3.230
265.92	3.349
266.39	2.962
266.86	-0.000
267.33	3.838
267.80	2.998
268.27	-0.000
268.74	-0.000
269.20	-0.000
269.67	3.440
270.14	2.775
270.61	2.916
271.08	3.089
271.55	2.885
272.01	2.770
272.48	3.065
272.95	3.189
273.42	3.022
273.89	3.435
274.36	3.028
274.82	3.177
275.29	2.693
275.76	2.927
276.23	2.941
276.70	3.046
277.16	3.047
277.63	2.837
278.10	2.766
278.57	2.810
279.04	2.758
279.50	2.802
279.97	2.793
280.44	2.497
280.91	2.670
281.38	2.662
281.84	2.781
282.31	2.845
282.78	2.886
283.25	2.642
283.72	2.606
284.18	2.769
284.65	2.700
285.12	2.719
285.59	2.490
286.05	2.611
286.52	2.618
286.99	2.623
287.46	2.650
287.92	2.580
288.39	2.505
288.86	2.587
289.33	2.522
289.79	2.606
290.26	2.562
290.73	2.439
291.20	2.537
291.66	2.565
292.13	2.393
292.60	2.391
293.07	2.344
293.53	2.324
294.00	2.431
294.47	2.407
294.93	2.375
295.40	2.453
295.87	2.436
296.34	2.457
296.80	2.398
297.27	2.306
297.74	2.383
298.20	2.396
298.67	2.284
299.14	2.374
299.60	2.285
300.07	2.312
300.54	2.336
301.01	2.253
301.47	2.248
301.94	2.291
302.41	2.227
302.87	2.227
303.34	2.319
303.81	2.162
304.27	2.238
304.74	2.113
305.21	2.180
305.67	2.263
306.14	2.118
306.61	2.176
307.07	2.236
307.54	2.173
308.01	2.203
308.47	2.148
308.94	2.182
309.40	2.185
309.87	2.144
310.34	2.132
310.80	2.146
311.27	2.163
311.74	2.130
312.20	2.145
312.67	2.082
313.13	2.076
313.60	2.123
314.07	2.083
314.53	2.097
315.00	2.074
315.47	2.134
315.93	2.093
316.40	2.051
316.86	2.063
317.33	2.085
317.80	2.037
318.26	2.045
318.73	2.086
319.19	2.045
319.66	2.010
320.13	2.011
320.59	2.021
321.06	2.011
321.52	2.010
321.99	1.977
322.45	1.962
322.92	1.944
323.39	1.929
323.85	1.931
324.32	1.956
324.78	1.969
325.25	1.959
325.71	1.872
326.18	1.866
326.64	1.935
327.11	1.881
327.58	1.868
328.04	1.857
328.51	1.908
328.97	1.857
329.44	1.832
329.90	1.796
330.37	1.813
330.83	1.766
331.30	1.799
331.76	1.767
332.23	1.755
332.69	1.750
333.16	1.702
333.62	1.692
334.09	1.678
334.56	1.632
335.02	1.611
335.49	1.602
335.95	1.567
336.42	1.554
336.88	1.536
337.35	1.507
337.81	1.487
338.28	1.450
338.74	1.429
339.20	1.397
339.67	1.377
340.13	1.356
340.60	1.318
341.06	1.278
341.53	1.258
341.99	1.233
342.46	1.203
342.92	1.170
343.39	1.148
343.85	1.127
344.32	1.111
344.78	1.082
345.25	1.064
345.71	1.034
346.17	1.004
346.64	0.988
347.10	0.963
347.57	0.934
348.03	0.905
348.50	0.881
348.96	0.867
349.43	0.850
349.89	0.829
350.35	0.809
350.82	0.789
351.28	0.781
351.75	0.765
352.21	0.745
352.67	0.736
353.14	0.725
353.60	0.709
354.07	0.697
354.53	0.682
355.00	0.668
355.46	0.657
355.92	0.647
356.39	0.635
356.85	0.633
357.31	0.624
357.78	0.616
358.24	0.605
358.71	0.592
359.17	0.591
359.63	0.588
360.10	0.579
360.56	0.573
361.03	0.573
361.49	0.563
361.95	0.560
362.42	0.556
362.88	0.550
363.34	0.546
363.81	0.542
364.27	0.538
364.73	0.536
365.20	0.538
365.66	0.534
366.12	0.529
366.59	0.527
367.05	0.525
367.51	0.525
367.98	0.515
368.44	0.515
368.90	0.514
369.37	0.513
369.83	0.507
370.29	0.507
370.76	0.509
371.22	0.508
371.68	0.505
372.15	0.498
372.61	0.501
373.07	0.498
373.54	0.499
374.00	0.492
374.46	0.490
374.92	0.489
375.39	0.489
375.85	0.487
376.31	0.486
376.78	0.484
377.24	0.482
377.70	0.479
378.16	0.476
378.63	0.477
379.09	0.476
379.55	0.473
380.01	0.472
380.48	0.472
380.94	0.470
381.40	0.469
381.87	0.463
382.33	0.465
382.79	0.463
383.25	0.459
383.72	0.464
384.18	0.462
384.64	0.453
385.10	0.454
385.56	0.456
386.03	0.456
386.49	0.453
386.95	0.452
387.41	0.452
387.88	0.448
388.34	0.448
388.80	0.442
389.26	0.443
389.72	0.444
390.19	0.443
390.65	0.440
391.11	0.442
391.57	0.438
392.04	0.439
392.50	0.434
392.96	0.432
393.42	0.429
393.88	0.434
394.34	0.431
394.81	0.429
395.27	0.428
395.73	0.424
396.19	0.423
396.65	0.424
397.12	0.420
397.58	0.419
398.04	0.421
398.50	0.420
398.96	0.417
399.42	0.416
399.89	0.415
400.35	0.417
400.81	0.409
401.27	0.412
401.73	0.410
402.19	0.409
402.65	0.408
403.12	0.404
403.58	0.406
404.04	0.405
404.50	0.404
404.96	0.403
405.42	0.399
405.88	0.402
406.34	0.402
406.81	0.397
407.27	0.400
407.73	0.397
408.19	0.394
408.65	0.392
409.11	0.391
409.57	0.398
410.03	0.392
410.49	0.390
410.96	0.387
411.42	0.387
411.88	0.385
412.34	0.383
412.80	0.388
413.26	0.382
413.72	0.382
414.18	0.382
414.64	0.380
415.10	0.381
415.56	0.380
416.02	0.377
416.48	0.377
416.95	0.372
417.41	0.376
417.87	0.375
418.33	0.374
418.79	0.369
419.25	0.373
419.71	0.371
420.17	0.372
420.63	0.370
421.09	0.368
421.55	0.363
422.01	0.366
422.47	0.367
422.93	0.365
423.39	0.364
423.85	0.365
424.31	0.363
424.77	0.362
425.23	0.361
425.69	0.360
426.15	0.359
426.61	0.356
427.07	0.354
427.53	0.354
427.99	0.352
428.45	0.353
428.91	0.355
429.37	0.352
429.83	0.352
430.29	0.350
430.75	0.352
431.21	0.350
431.67	0.349
432.13	0.347
432.59	0.346
433.05	0.346
433.51	0.344
433.97	0.343
434.43	0.342
434.89	0.341
435.35	0.343
435.81	0.340
436.27	0.338
436.73	0.337
437.19	0.340
437.65	0.342
438.11	0.338
438.57	0.336
439.03	0.336
439.48	0.333
439.94	0.331
440.40	0.332
440.86	0.333
441.32	0.329
441.78	0.331
442.24	0.331
442.70	0.330
443.16	0.326
443.62	0.328
444.08	0.325
444.54	0.325
444.99	0.326
445.45	0.324
445.91	0.325
446.37	0.325
446.83	0.321
447.29	0.321
447.75	0.321
448.21	0.319
448.67	0.319
449.12	0.317
449.58	0.316
450.04	0.314
450.50	0.315
450.96	0.321
451.42	0.316
451.88	0.311
452.34	0.316
452.79	0.314
453.25	0.312
453.71	0.314
454.17	0.310
454.63	0.313
455.09	0.308
455.55	0.310
456.00	0.308
456.46	0.306
456.92	0.309
457.38	0.308
457.84	0.301
458.30	0.302
458.75	0.304
459.21	0.300
459.67	0.303
460.13	0.301
460.59	0.302
461.04	0.298
461.50	0.300
461.96	0.299
462.42	0.300
462.88	0.299
463.33	0.298
463.79	0.298
464.25	0.298
464.71	0.293
465.17	0.297
465.62	0.296
466.08	0.294
466.54	0.296
467.00	0.294
467.46	0.294
467.91	0.292
468.37	0.292
468.83	0.292
469.29	0.292
469.74	0.292
470.20	0.289
470.66	0.287
471.12	0.285
471.57	0.288
472.03	0.289
472.49	0.286
472.95	0.285
473.40	0.286
473.86	0.284
474.32	0.282
474.78	0.283
475.23	0.281
475.69	0.284
476.15	0.281
476.60	0.283
477.06	0.279
477.52	0.277
477.98	0.276
478.43	0.278
478.89	0.279
479.35	0.277
479.80	0.277
480.26	0.277
480.72	0.275
481.18	0.277
481.63	0.273
482.09	0.272
482.55	0.273
483.00	0.274
483.46	0.271
483.92	0.272
484.37	0.272
484.83	0.270
485.29	0.270
485.74	0.270
486.20	0.270
486.66	0.269
487.11	0.267
487.57	0.269
488.03	0.265
488.48	0.266
488.94	0.267
489.40	0.265
489.85	0.265
490.31	0.266
490.77	0.264
491.22	0.264
491.68	0.264
492.13	0.263
492.59	0.264
493.05	0.262
493.50	0.263
493.96	0.260
494.42	0.258
494.87	0.260
495.33	0.256
495.78	0.258
496.24	0.260
496.70	0.258
497.15	0.257
497.61	0.257
498.06	0.256
498.52	0.252
498.98	0.254
499.43	0.257
499.89	0.257
500.34	0.252
500.80	0.255
501.25	0.254
501.71	0.252
502.17	0.251
502.62	0.252
503.08	0.253
503.53	0.250
503.99	0.249
504.44	0.249
504.90	0.250
505.36	0.246
505.81	0.247
506.27	0.248
506.72	0.249
507.18	0.245
507.63	0.245
508.09	0.248
508.54	0.244
509.00	0.245
509.45	0.244
509.91	0.244
510.36	0.244
510.82	0.244
511.27	0.242
511.73	0.242
512.19	0.240
512.64	0.242
513.10	0.241
513.55	0.240
514.01	0.239
514.46	0.238
514.92	0.238
515.37	0.238
515.83	0.240
516.28	0.237
516.73	0.236
517.19	0.238
517.64	0.234
518.10	0.236
518.55	0.234
519.01	0.234
519.46	0.233
519.92	0.236
520.37	0.233
520.83	0.233
521.28	0.232
521.74	0.232
522.19	0.236
522.65	0.233
523.10	0.233
523.55	0.229
524.01	0.233
524.46	0.231
524.92	0.229
525.37	0.229
525.83	0.228
526.28	0.229
526.73	0.230
527.19	0.231
527.64	0.227
528.10	0.228
528.55	0.228
529.01	0.229
529.46	0.225
529.91	0.227
530.37	0.224
530.82	0.224
531.28	0.223
531.73	0.222
532.18	0.225
532.64	0.224
533.09	0.222
533.54	0.223
534.00	0.220
534.45	0.223
534.91	0.225
535.36	0.221
535.81	0.223
536.27	0.218
536.72	0.222
537.17	0.220
537.63	0.220
538.08	0.217
538.54	0.218
538.99	0.219
539.44	0.217
539.90	0.217
540.35	0.215
540.80	0.215
541.26	0.216
541.71	0.215
542.16	0.216
542.62	0.214
543.07	0.215
543.52	0.215
543.98	0.214
544.43	0.214
544.88	0.212
545.34	0.215
545.79	0.214
546.24	0.210
546.69	0.212
547.15	0.210
547.60	0.210
548.05	0.213
548.51	0.208
548.96	0.210
549.41	0.211
549.86	0.210
550.32	0.208
550.77	0.208
551.22	0.208
551.68	0.206
552.13	0.206
552.58	0.206
553.03	0.207
553.49	0.206
553.94	0.205
554.39	0.204
554.84	0.204
555.30	0.205
555.75	0.207
556.20	0.202
556.65	0.203
557.11	0.204
557.56	0.204
558.01	0.205
558.46	0.204
558.92	0.200
559.37	0.201
559.82	0.202
560.27	0.201
560.72	0.202
561.18	0.201
561.63	0.198
562.08	0.197
562.53	0.200
562.99	0.200
563.44	0.199
563.89	0.197
564.34	0.200
564.79	0.198
565.25	0.197
565.70	0.195
566.15	0.196
566.60	0.193
567.05	0.196
567.50	0.196
567.96	0.196
568.41	0.193
568.86	0.194
569.31	0.194
569.76	0.193
570.21	0.193
570.67	0.195
571.12	0.193
571.57	0.193
572.02	0.191
572.47	0.190
572.92	0.189
573.37	0.191
573.83	0.190
574.28	0.190
574.73	0.190
575.18	0.191
575.63	0.191
576.08	0.188
576.53	0.188
576.98	0.189
577.44	0.185
577.89	0.187
578.34	0.186
578.79	0.185
579.24	0.186
579.69	0.188
580.14	0.183
580.59	0.185
581.04	0.182
581.49	0.182
581.95	0.183
582.40	0.185
582.85	0.184
583.30	0.181
583.75	0.180
584.20	0.183
584.65	0.182
585.10	0.181
585.55	0.181
586.00	0.182
586.45	0.181
586.90	0.182
587.35	0.183
587.80	0.181
588.25	0.180
588.71	0.181
589.16	0.177
589.61	0.179
590.06	0.178
590.51	0.181
590.96	0.179
591.41	0.177
591.86	0.178
592.31	0.177
592.76	0.177
593.21	0.179
593.66	0.178
594.11	0.178
594.56	0.177
595.01	0.176
595.46	0.176
595.91	0.175
596.36	0.176
596.81	0.176
597.26	0.176
597.71	0.175
598.16	0.175
598.61	0.175
599.06	0.174
599.51	0.177
599.96	0.174
600.41	0.176
600.86	0.174
601.31	0.173
601.76	0.174
602.21	0.174
602.65	0.175
603.10	0.173
603.55	0.171
604.00	0.173
604.45	0.172
604.90	0.171
605.35	0.171
605.80	0.171
606.25	0.172
606.70	0.170
607.15	0.170
607.60	0.170
608.05	0.168
608.50	0.170
608.95	0.168
609.39	0.172
609.84	0.169
610.29	0.169
610.74	0.170
611.19	0.168
611.64	0.168
612.09	0.167
612.54	0.167
612.99	0.168
613.44	0.166
613.88	0.167
614.33	0.168
614.78	0.164
615.23	0.165
615.68	0.167
616.13	0.166
616.58	0.164
617.03	0.166
617.47	0.163
617.92	0.164
618.37	0.163
618.82	0.164
619.27	0.163
619.72	0.163
620.17	0.162
620.61	0.161
621.06	0.162
621.51	0.163
621.96	0.161
622.41	0.161
622.86	0.161
623.30	0.161
623.75	0.161
624.20	0.160
624.65	0.161
625.10	0.160
625.54	0.161
625.99	0.161
626.44	0.159
626.89	0.159
627.34	0.161
627.78	0.159
628.23	0.158
628.68	0.158
629.13	0.157
629.58	0.159
630.02	0.158
630.47	0.158
630.92	0.158
631.37	0.157
631.81	0.159
632.26	0.156
632.71	0.158
633.16	0.155
633.61	0.156
634.05	0.153
634.50	0.155
634.95	0.156
635.40	0.158
635.84	0.156
636.29	0.155
636.74	0.156
637.18	0.156
637.63	0.155
638.08	0.155
638.53	0.153
638.97	0.154
639.42	0.155
639.87	0.155
640.32	0.152
640.76	0.153
641.21	0.153
641.66	0.152
642.10	0.153
642.55	0.152
643.00	0.150
643.44	0.150
643.89	0.152
644.34	0.150
644.79	0.152
645.23	0.151
645.68	0.150
646.13	0.151
646.57	0.151
647.02	0.148
647.47	0.151
647.91	0.149
648.36	0.150
648.81	0.151
649.25	0.148
649.70	0.147
650.15	0.148
650.59	0.151
651.04	0.150
651.48	0.152
651.93	0.149
652.38	0.147
652.82	0.146
653.27	0.148
653.72	0.150
654.16	0.146
654.61	0.149
655.06	0.147
655.50	0.146
655.95	0.145
656.39	0.140
656.84	0.144
657.29	0.148
657.73	0.146
658.18	0.146
658.62	0.146
659.07	0.145
659.52	0.147
659.96	0.145
660.41	0.147
660.85	0.145
661.30	0.145
661.74	0.144
662.19	0.145
662.64	0.144
663.08	0.143
663.53	0.143
663.97	0.145
664.42	0.145
664.86	0.144
665.31	0.143
665.75	0.141
666.20	0.144
666.65	0.144
667.09	0.142
667.54	0.144
667.98	0.143
668.43	0.142
668.87	0.141
669.32	0.140
669.76	0.140
670.21	0.143
670.65	0.140
671.10	0.141
671.54	0.141
671.99	0.141
672.43	0.141
672.88	0.142
673.32	0.140
673.77	0.139
674.21	0.138
674.66	0.140
675.10	0.138
675.55	0.138
675.99	0.142
676.44	0.137
676.88	0.140
677.33	0.140
677.77	0.137
678.22	0.138
678.66	0.138
679.11	0.136
679.55	0.138
679.99	0.138
680.44	0.138
680.88	0.136
681.33	0.137
681.77	0.137
682.22	0.139
682.66	0.138
683.11	0.136
683.55	0.138
683.99	0.139
684.44	0.135
684.88	0.135
685.33	0.134
685.77	0.135
686.21	0.136
686.66	0.136
687.10	0.135
687.55	0.135
687.99	0.137
688.44	0.137
688.88	0.135
689.32	0.137
689.77	0.133
690.21	0.135
690.65	0.134
691.10	0.135
691.54	0.134
691.99	0.133
692.43	0.132
692.87	0.132
693.32	0.135
693.76	0.133
694.20	0.135
694.65	0.134
695.09	0.134
695.53	0.133
695.98	0.132
696.42	0.133
696.86	0.132
697.31	0.130
697.75	0.133
698.19	0.131
698.64	0.131
699.08	0.131
699.52	0.129
699.97	0.132
700.41	0.132
700.85	0.131
701.30	0.130
701.74	0.132
702.18	0.132
702.63	0.131
703.07	0.129
703.51	0.133
703.96	0.132
704.40	0.129
704.84	0.133
705.28	0.131
705.73	0.129
706.17	0.129
706.61	0.128
707.06	0.129
707.50	0.129
707.94	0.128
708.38	0.129
708.83	0.130
709.27	0.130
709.71	0.128
710.15	0.130
710.60	0.129
711.04	0.128
711.48	0.132
711.92	0.129
712.37	0.129
712.81	0.131
713.25	0.129
713.69	0.129
714.13	0.130
714.58	0.129
715.02	0.129
715.46	0.127
715.90	0.127
716.35	0.125
716.79	0.128
717.23	0.130
717.67	0.129
718.11	0.128
718.56	0.126
719.00	0.128
719.44	0.129
719.88	0.129
720.32	0.130
720.76	0.129
721.21	0.128
721.65	0.128
722.09	0.128
722.53	0.127
722.97	0.129
723.41	0.129
723.86	0.129
724.30	0.129
724.74	0.130
725.18	0.128
725.62	0.128
726.06	0.128
726.50	0.126
726.95	0.126
727.39	0.130
727.83	0.126
728.27	0.128
728.71	0.129
729.15	0.131
729.59	0.130
730.03	0.127
730.48	0.129
730.92	0.127
731.36	0.128
731.80	0.129
732.24	0.132
732.68	0.127
733.12	0.126
733.56	0.126
734.00	0.130
734.44	0.128
734.89	0.128
735.33	0.128
735.77	0.129
736.21	0.128
736.65	0.127
737.09	0.130
737.53	0.130
737.97	0.129
738.41	0.129
738.85	0.130
739.29	0.130
739.73	0.127
740.17	0.130
740.61	0.129
741.05	0.128
741.49	0.130
741.93	0.130
742.37	0.126
742.81	0.127
743.26	0.129
743.70	0.128
744.14	0.128
744.58	0.126
745.02	0.128
745.46	0.128
745.90	0.127
746.34	0.127
746.78	0.129
747.22	0.128
747.66	0.128
748.10	0.129
748.54	0.124
748.98	0.127
749.42	0.125
749.86	0.128
750.29	0.127
750.73	0.126
751.17	0.125
751.61	0.123
752.05	0.125
752.49	0.124
752.93	0.124
753.37	0.125
753.81	0.126
754.25	0.124
754.69	0.123
755.13	0.123
755.57	0.125
756.01	0.124
756.45	0.124
756.89	0.122
757.33	0.128
757.77	0.123
758.21	0.121
758.64	0.124
759.08	0.121
759.52	0.125
759.96	0.123
760.40	0.123
760.84	0.122
761.28	0.122
761.72	0.123
762.16	0.123
762.60	0.122
763.03	0.121
763.47	0.122
763.91	0.121
764.35	0.122
764.79	0.120
765.23	0.121
765.67	0.121
766.11	0.118
766.54	0.118
766.98	0.120
767.42	0.122
767.86	0.118
768.30	0.121
768.74	0.126
769.17	0.124
769.61	0.121
770.05	0.121
770.49	0.120
770.93	0.123
771.37	0.118
771.80	0.118
772.24	0.122
772.68	0.118
773.12	0.121
773.56	0.122
774.00	0.119
774.43	0.120
774.87	0.121
775.31	0.121
775.75	0.120
776.19	0.118
776.62	0.118
777.06	0.119
777.50	0.120
777.94	0.121
778.37	0.119
778.81	0.119
779.25	0.121
779.69	0.121
780.13	0.118
780.56	0.116
781.00	0.116
781.44	0.120
781.88	0.116
782.31	0.117
782.75	0.115
783.19	0.120
783.63	0.116
784.06	0.116
784.50	0.119
784.94	0.115
785.37	0.120
785.81	0.122
786.25	0.122
786.69	0.115
787.12	0.116
787.56	0.117
788.00	0.116
788.43	0.117
788.87	0.114
789.31	0.115
789.75	0.118
790.18	0.115
790.62	0.117
791.06	0.119
791.49	0.115
791.93	0.114
792.37	0.119
792.80	0.117
793.24	0.117
793.68	0.116
794.11	0.117
794.55	0.115
794.99	0.117
795.42	0.116
795.86	0.119
796.30	0.115
796.73	0.115
797.17	0.114
797.61	0.115
798.04	0.114
798.48	0.114
798.91	0.117
799.35	0.114
799.79	0.118
800.22	0.118
800.66	0.113
801.10	0.113
801.53	0.113
801.97	0.121
802.40	0.113
802.84	0.113
803.28	0.112
803.71	0.117
804.15	0.113
804.58	0.113
805.02	0.115
805.46	0.111
805.89	0.113
806.33	0.113
806.76	0.112
807.20	0.117
807.63	0.116
808.07	0.116
808.51	0.116
808.94	0.112
809.38	0.114
809.81	0.109
810.25	0.115
810.68	0.115
811.12	0.113
811.55	0.114
811.99	0.112
812.42	0.112
812.86	0.110
813.29	0.114
813.73	0.114
814.17	0.111
814.60	0.113
815.04	0.115
815.47	0.111
