SpectraSuite Data File
++++++++++++++++++++++++++++++++++++
Date: Sun Apr 24 16:51:03 CEST 2016
User: spectrasuite
Dark Spectrum Present: Yes
Reference Spectrum Present: Yes
Number of Sampled Component Spectra: 1
Spectrometers: HR+C0708
Integration Time (usec): 1000 (HR+C0708)
Spectra Averaged: 10 (HR+C0708)
Boxcar Smoothing: 0 (HR+C0708)
Correct for Electrical Dark: No (HR+C0708)
Strobe/Lamp Enabled: No (HR+C0708)
Correct for Detector Non-linearity: No (HR+C0708)
Correct for Stray Light: No (HR+C0708)
Number of Pixels in Processed Spectrum: 2048
>>>>>Begin Processed Spectral Data<<<<<
188.76	-0.000
189.23	-0.000
189.70	-0.000
190.17	-0.000
190.64	-0.000
191.12	-0.000
191.59	-0.000
192.06	-0.000
192.53	-0.000
193.01	-0.000
193.48	-0.000
193.95	-0.000
194.42	-0.000
194.90	1.989
195.37	-0.000
195.84	-0.000
196.31	-0.000
196.78	-0.000
197.26	-0.000
197.73	-0.000
198.20	-0.000
198.67	-0.000
199.14	-0.000
199.62	-0.000
200.09	-0.000
200.56	-0.000
201.03	-0.000
201.50	1.212
201.97	-0.000
202.45	-0.000
202.92	1.302
203.39	1.124
203.86	-0.000
204.33	-0.000
204.80	2.680
205.28	-0.000
205.75	-0.000
206.22	-0.000
206.69	-0.000
207.16	-0.000
207.63	-0.000
208.11	0.626
208.58	-0.000
209.05	-0.000
209.52	-0.000
209.99	-0.000
210.46	-0.000
210.93	-0.000
211.41	-0.000
211.88	1.209
212.35	-0.000
212.82	-0.000
213.29	1.441
213.76	-0.000
214.23	-0.000
214.70	-0.000
215.18	-0.000
215.65	1.062
216.12	-0.000
216.59	-0.000
217.06	-0.000
217.53	-0.000
218.00	-0.000
218.47	-0.000
218.94	-0.000
219.41	-0.000
219.89	-0.000
220.36	-0.000
220.83	-0.000
221.30	-0.000
221.77	-0.000
222.24	-0.000
222.71	-0.000
223.18	-0.000
223.65	-0.000
224.12	-0.000
224.59	-0.000
225.06	1.283
225.54	1.815
226.01	1.340
226.48	-0.000
226.95	2.493
227.42	1.650
227.89	-0.000
228.36	2.160
228.83	2.920
229.30	3.170
229.77	3.045
230.24	1.568
230.71	-0.000
231.18	-0.000
231.65	2.055
232.12	2.774
232.59	-0.000
233.06	-0.000
233.53	-0.000
234.00	2.652
234.47	-0.000
234.94	-0.000
235.41	2.557
235.88	-0.000
236.35	-0.000
236.82	2.395
237.29	3.325
237.76	-0.000
238.23	-0.000
238.70	-0.000
239.17	2.203
239.64	-0.000
240.11	-0.000
240.58	2.897
241.05	-0.000
241.52	-0.000
241.99	-0.000
242.46	3.947
242.93	-0.000
243.40	2.991
243.87	2.794
244.34	2.688
244.81	-0.000
245.28	-0.000
245.75	-0.000
246.22	-0.000
246.69	-0.000
247.16	3.034
247.63	-0.000
248.10	3.040
248.57	-0.000
249.04	-0.000
249.51	3.363
249.98	-0.000
250.45	-0.000
250.92	3.217
251.39	-0.000
251.85	-0.000
252.32	3.595
252.79	-0.000
253.26	3.462
253.73	-0.000
254.20	3.308
254.67	3.081
255.14	-0.000
255.61	3.609
256.08	2.990
256.55	-0.000
257.02	3.092
257.49	2.851
257.95	2.936
258.42	2.967
258.89	2.653
259.36	3.053
259.83	2.971
260.30	4.336
260.77	-0.000
261.24	2.719
261.71	-0.000
262.17	3.161
262.64	2.664
263.11	2.935
263.58	2.950
264.05	2.511
264.52	2.738
264.99	2.682
265.46	2.670
265.92	2.715
266.39	2.514
266.86	2.768
267.33	2.652
267.80	2.509
268.27	2.708
268.74	2.498
269.20	2.478
269.67	2.581
270.14	2.353
270.61	2.382
271.08	2.440
271.55	2.370
272.01	2.415
272.48	2.330
272.95	2.302
273.42	2.330
273.89	2.353
274.36	2.244
274.82	2.269
275.29	2.254
275.76	2.197
276.23	2.287
276.70	2.201
277.16	2.191
277.63	2.121
278.10	2.224
278.57	2.205
279.04	2.156
279.50	2.131
279.97	2.139
280.44	2.036
280.91	2.054
281.38	2.061
281.84	2.132
282.31	2.089
282.78	2.170
283.25	2.049
283.72	2.049
284.18	2.048
284.65	1.996
285.12	2.010
285.59	1.989
286.05	2.010
286.52	1.975
286.99	1.984
287.46	1.947
287.92	1.975
288.39	1.929
288.86	1.947
289.33	1.914
289.79	1.910
290.26	1.923
290.73	1.895
291.20	1.897
291.66	1.906
292.13	1.861
292.60	1.835
293.07	1.865
293.53	1.808
294.00	1.844
294.47	1.844
294.93	1.812
295.40	1.843
295.87	1.816
296.34	1.793
296.80	1.782
297.27	1.787
297.74	1.771
298.20	1.780
298.67	1.739
299.14	1.754
299.60	1.755
300.07	1.729
300.54	1.736
301.01	1.710
301.47	1.669
301.94	1.698
302.41	1.693
302.87	1.665
303.34	1.702
303.81	1.649
304.27	1.651
304.74	1.631
305.21	1.624
305.67	1.636
306.14	1.605
306.61	1.607
307.07	1.593
307.54	1.597
308.01	1.585
308.47	1.588
308.94	1.582
309.40	1.565
309.87	1.557
310.34	1.568
310.80	1.560
311.27	1.549
311.74	1.534
312.20	1.528
312.67	1.525
313.13	1.500
313.60	1.520
314.07	1.488
314.53	1.494
315.00	1.494
315.47	1.485
315.93	1.476
316.40	1.464
316.86	1.455
317.33	1.456
317.80	1.455
318.26	1.443
318.73	1.446
319.19	1.433
319.66	1.432
320.13	1.416
320.59	1.423
321.06	1.409
321.52	1.425
321.99	1.405
322.45	1.399
322.92	1.396
323.39	1.378
323.85	1.375
324.32	1.391
324.78	1.369
325.25	1.387
325.71	1.357
326.18	1.357
326.64	1.365
327.11	1.349
327.58	1.347
328.04	1.337
328.51	1.327
328.97	1.332
329.44	1.322
329.90	1.307
330.37	1.313
330.83	1.302
331.30	1.315
331.76	1.301
332.23	1.295
332.69	1.290
333.16	1.269
333.62	1.266
334.09	1.269
334.56	1.255
335.02	1.251
335.49	1.249
335.95	1.241
336.42	1.235
336.88	1.230
337.35	1.222
337.81	1.220
338.28	1.205
338.74	1.202
339.20	1.195
339.67	1.204
340.13	1.174
340.60	1.173
341.06	1.155
341.53	1.149
341.99	1.160
342.46	1.132
342.92	1.129
343.39	1.111
343.85	1.103
344.32	1.102
344.78	1.095
345.25	1.086
345.71	1.081
346.17	1.067
346.64	1.057
347.10	1.043
347.57	1.023
348.03	1.011
348.50	1.008
348.96	0.990
349.43	0.984
349.89	0.959
350.35	0.947
350.82	0.952
351.28	0.937
351.75	0.915
352.21	0.914
352.67	0.889
353.14	0.887
353.60	0.869
354.07	0.852
354.53	0.842
355.00	0.825
355.46	0.812
355.92	0.804
356.39	0.790
356.85	0.785
357.31	0.772
357.78	0.758
358.24	0.751
358.71	0.741
359.17	0.734
359.63	0.729
360.10	0.718
360.56	0.715
361.03	0.707
361.49	0.700
361.95	0.695
362.42	0.688
362.88	0.684
363.34	0.678
363.81	0.671
364.27	0.665
364.73	0.667
365.20	0.664
365.66	0.654
366.12	0.656
366.59	0.648
367.05	0.644
367.51	0.648
367.98	0.642
368.44	0.635
368.90	0.634
369.37	0.632
369.83	0.625
370.29	0.626
370.76	0.624
371.22	0.624
371.68	0.620
372.15	0.614
372.61	0.612
373.07	0.606
373.54	0.608
374.00	0.607
374.46	0.605
374.92	0.606
375.39	0.603
375.85	0.602
376.31	0.601
376.78	0.594
377.24	0.593
377.70	0.591
378.16	0.586
378.63	0.587
379.09	0.591
379.55	0.587
380.01	0.583
380.48	0.581
380.94	0.579
381.40	0.577
381.87	0.578
382.33	0.576
382.79	0.573
383.25	0.571
383.72	0.569
384.18	0.569
384.64	0.567
385.10	0.564
385.56	0.566
386.03	0.561
386.49	0.558
386.95	0.554
387.41	0.552
387.88	0.554
388.34	0.552
388.80	0.550
389.26	0.553
389.72	0.550
390.19	0.548
390.65	0.546
391.11	0.544
391.57	0.546
392.04	0.541
392.50	0.532
392.96	0.539
393.42	0.533
393.88	0.537
394.34	0.535
394.81	0.531
395.27	0.529
395.73	0.526
396.19	0.524
396.65	0.524
397.12	0.525
397.58	0.521
398.04	0.519
398.50	0.522
398.96	0.518
399.42	0.520
399.89	0.516
400.35	0.516
400.81	0.512
401.27	0.512
401.73	0.510
402.19	0.508
402.65	0.503
403.12	0.503
403.58	0.503
404.04	0.502
404.50	0.501
404.96	0.502
405.42	0.497
405.88	0.497
406.34	0.499
406.81	0.496
407.27	0.493
407.73	0.490
408.19	0.489
408.65	0.489
409.11	0.483
409.57	0.489
410.03	0.484
410.49	0.483
410.96	0.483
411.42	0.481
411.88	0.479
412.34	0.475
412.80	0.476
413.26	0.473
413.72	0.474
414.18	0.471
414.64	0.472
415.10	0.470
415.56	0.471
416.02	0.470
416.48	0.467
416.95	0.463
417.41	0.465
417.87	0.465
418.33	0.466
418.79	0.460
419.25	0.461
419.71	0.459
420.17	0.456
420.63	0.457
421.09	0.456
421.55	0.453
422.01	0.454
422.47	0.456
422.93	0.451
423.39	0.452
423.85	0.449
424.31	0.447
424.77	0.446
425.23	0.450
425.69	0.449
426.15	0.446
426.61	0.448
427.07	0.439
427.53	0.439
427.99	0.436
428.45	0.439
428.91	0.438
429.37	0.435
429.83	0.437
430.29	0.436
430.75	0.433
431.21	0.437
431.67	0.436
432.13	0.433
432.59	0.428
433.05	0.429
433.51	0.422
433.97	0.426
434.43	0.424
434.89	0.430
435.35	0.427
435.81	0.420
436.27	0.420
436.73	0.420
437.19	0.419
437.65	0.425
438.11	0.417
438.57	0.418
439.03	0.419
439.48	0.413
439.94	0.413
440.40	0.412
440.86	0.418
441.32	0.412
441.78	0.413
442.24	0.408
442.70	0.411
443.16	0.408
443.62	0.406
444.08	0.404
444.54	0.404
444.99	0.402
445.45	0.402
445.91	0.398
446.37	0.406
446.83	0.400
447.29	0.396
447.75	0.399
448.21	0.402
448.67	0.394
449.12	0.396
449.58	0.395
450.04	0.394
450.50	0.395
450.96	0.396
451.42	0.391
451.88	0.388
452.34	0.387
452.79	0.389
453.25	0.388
453.71	0.387
454.17	0.390
454.63	0.391
455.09	0.392
455.55	0.384
456.00	0.384
456.46	0.386
456.92	0.383
457.38	0.382
457.84	0.378
458.30	0.376
458.75	0.379
459.21	0.374
459.67	0.377
460.13	0.375
460.59	0.374
461.04	0.371
461.50	0.375
461.96	0.373
462.42	0.372
462.88	0.371
463.33	0.369
463.79	0.367
464.25	0.370
464.71	0.367
465.17	0.368
465.62	0.366
466.08	0.366
466.54	0.364
467.00	0.367
467.46	0.365
467.91	0.364
468.37	0.362
468.83	0.361
469.29	0.363
469.74	0.361
470.20	0.360
470.66	0.359
471.12	0.356
471.57	0.357
472.03	0.355
472.49	0.354
472.95	0.355
473.40	0.352
473.86	0.351
474.32	0.351
474.78	0.350
475.23	0.350
475.69	0.352
476.15	0.350
476.60	0.352
477.06	0.350
477.52	0.345
477.98	0.347
478.43	0.346
478.89	0.345
479.35	0.344
479.80	0.347
480.26	0.346
480.72	0.344
481.18	0.344
481.63	0.342
482.09	0.341
482.55	0.341
483.00	0.339
483.46	0.339
483.92	0.337
484.37	0.338
484.83	0.335
485.29	0.337
485.74	0.335
486.20	0.334
486.66	0.333
487.11	0.333
487.57	0.332
488.03	0.333
488.48	0.330
488.94	0.329
489.40	0.329
489.85	0.331
490.31	0.330
490.77	0.331
491.22	0.329
491.68	0.326
492.13	0.325
492.59	0.325
493.05	0.326
493.50	0.327
493.96	0.323
494.42	0.323
494.87	0.321
495.33	0.320
495.78	0.325
496.24	0.322
496.70	0.322
497.15	0.319
497.61	0.321
498.06	0.320
498.52	0.316
498.98	0.314
499.43	0.318
499.89	0.317
500.34	0.316
500.80	0.315
501.25	0.317
501.71	0.311
502.17	0.314
502.62	0.315
503.08	0.312
503.53	0.312
503.99	0.309
504.44	0.311
504.90	0.312
505.36	0.309
505.81	0.308
506.27	0.310
506.72	0.311
507.18	0.308
507.63	0.307
508.09	0.307
508.54	0.305
509.00	0.307
509.45	0.306
509.91	0.305
510.36	0.304
510.82	0.305
511.27	0.301
511.73	0.304
512.19	0.300
512.64	0.301
513.10	0.301
513.55	0.302
514.01	0.297
514.46	0.298
514.92	0.297
515.37	0.298
515.83	0.297
516.28	0.295
516.73	0.293
517.19	0.297
517.64	0.294
518.10	0.293
518.55	0.292
519.01	0.293
519.46	0.292
519.92	0.292
520.37	0.289
520.83	0.290
521.28	0.290
521.74	0.290
522.19	0.290
522.65	0.288
523.10	0.288
523.55	0.290
524.01	0.290
524.46	0.288
524.92	0.288
525.37	0.286
525.83	0.287
526.28	0.287
526.73	0.287
527.19	0.287
527.64	0.284
528.10	0.284
528.55	0.284
529.01	0.283
529.46	0.282
529.91	0.283
530.37	0.282
530.82	0.285
531.28	0.280
531.73	0.279
532.18	0.282
532.64	0.279
533.09	0.279
533.54	0.279
534.00	0.279
534.45	0.282
534.91	0.280
535.36	0.277
535.81	0.277
536.27	0.276
536.72	0.277
537.17	0.277
537.63	0.276
538.08	0.275
538.54	0.277
538.99	0.276
539.44	0.276
539.90	0.272
540.35	0.273
540.80	0.275
541.26	0.274
541.71	0.271
542.16	0.273
542.62	0.269
543.07	0.271
543.52	0.271
543.98	0.272
544.43	0.270
544.88	0.268
545.34	0.273
545.79	0.271
546.24	0.269
546.69	0.271
547.15	0.269
547.60	0.270
548.05	0.268
548.51	0.265
548.96	0.266
549.41	0.269
549.86	0.265
550.32	0.267
550.77	0.268
551.22	0.268
551.68	0.264
552.13	0.266
552.58	0.265
553.03	0.265
553.49	0.265
553.94	0.263
554.39	0.266
554.84	0.265
555.30	0.266
555.75	0.266
556.20	0.262
556.65	0.263
557.11	0.264
557.56	0.263
558.01	0.263
558.46	0.264
558.92	0.262
559.37	0.264
559.82	0.263
560.27	0.262
560.72	0.262
561.18	0.261
561.63	0.260
562.08	0.260
562.53	0.260
562.99	0.262
563.44	0.260
563.89	0.259
564.34	0.260
564.79	0.259
565.25	0.259
565.70	0.259
566.15	0.258
566.60	0.258
567.05	0.257
567.50	0.257
567.96	0.256
568.41	0.255
568.86	0.256
569.31	0.256
569.76	0.256
570.21	0.257
570.67	0.256
571.12	0.255
571.57	0.256
572.02	0.255
572.47	0.255
572.92	0.256
573.37	0.254
573.83	0.255
574.28	0.255
574.73	0.253
575.18	0.254
575.63	0.255
576.08	0.253
576.53	0.253
576.98	0.254
577.44	0.251
577.89	0.253
578.34	0.251
578.79	0.251
579.24	0.252
579.69	0.254
580.14	0.250
580.59	0.250
581.04	0.252
581.49	0.252
581.95	0.252
582.40	0.251
582.85	0.251
583.30	0.250
583.75	0.251
584.20	0.252
584.65	0.252
585.10	0.252
585.55	0.252
586.00	0.252
586.45	0.253
586.90	0.252
587.35	0.252
587.80	0.250
588.25	0.253
588.71	0.252
589.16	0.252
589.61	0.251
590.06	0.252
590.51	0.253
590.96	0.254
591.41	0.252
591.86	0.252
592.31	0.253
592.76	0.252
593.21	0.253
593.66	0.255
594.11	0.252
594.56	0.253
595.01	0.254
595.46	0.253
595.91	0.254
596.36	0.254
596.81	0.253
597.26	0.253
597.71	0.254
598.16	0.253
598.61	0.255
599.06	0.253
599.51	0.255
599.96	0.256
600.41	0.255
600.86	0.254
601.31	0.255
601.76	0.255
602.21	0.258
602.65	0.256
603.10	0.255
603.55	0.257
604.00	0.254
604.45	0.255
604.90	0.254
605.35	0.253
605.80	0.257
606.25	0.257
606.70	0.256
607.15	0.255
607.60	0.255
608.05	0.256
608.50	0.255
608.95	0.252
609.39	0.256
609.84	0.255
610.29	0.255
610.74	0.255
611.19	0.256
611.64	0.253
612.09	0.256
612.54	0.256
612.99	0.256
613.44	0.255
613.88	0.257
614.33	0.256
614.78	0.254
615.23	0.254
615.68	0.254
616.13	0.255
616.58	0.254
617.03	0.254
617.47	0.254
617.92	0.253
618.37	0.254
618.82	0.254
619.27	0.251
619.72	0.253
620.17	0.252
620.61	0.252
621.06	0.252
621.51	0.254
621.96	0.253
622.41	0.253
622.86	0.252
623.30	0.252
623.75	0.253
624.20	0.254
624.65	0.249
625.10	0.252
625.54	0.252
625.99	0.252
626.44	0.252
626.89	0.254
627.34	0.254
627.78	0.254
628.23	0.250
628.68	0.251
629.13	0.251
629.58	0.251
630.02	0.252
630.47	0.252
630.92	0.252
631.37	0.253
631.81	0.254
632.26	0.254
632.71	0.252
633.16	0.254
633.61	0.255
634.05	0.253
634.50	0.255
634.95	0.253
635.40	0.256
635.84	0.256
636.29	0.256
636.74	0.258
637.18	0.258
637.63	0.256
638.08	0.256
638.53	0.256
638.97	0.256
639.42	0.258
639.87	0.259
640.32	0.258
640.76	0.259
641.21	0.256
641.66	0.258
642.10	0.260
642.55	0.258
643.00	0.259
643.44	0.260
643.89	0.261
644.34	0.262
644.79	0.260
645.23	0.261
645.68	0.260
646.13	0.262
646.57	0.265
647.02	0.263
647.47	0.265
647.91	0.264
648.36	0.263
648.81	0.264
649.25	0.265
649.70	0.263
650.15	0.264
650.59	0.264
651.04	0.265
651.48	0.267
651.93	0.265
652.38	0.264
652.82	0.265
653.27	0.266
653.72	0.266
654.16	0.265
654.61	0.266
655.06	0.266
655.50	0.266
655.95	0.263
656.39	0.259
656.84	0.263
657.29	0.269
657.73	0.268
658.18	0.265
658.62	0.266
659.07	0.267
659.52	0.265
659.96	0.266
660.41	0.268
660.85	0.265
661.30	0.264
661.74	0.266
662.19	0.264
662.64	0.264
663.08	0.264
663.53	0.263
663.97	0.262
664.42	0.261
664.86	0.263
665.31	0.260
665.75	0.258
666.20	0.262
666.65	0.260
667.09	0.258
667.54	0.261
667.98	0.257
668.43	0.254
668.87	0.255
669.32	0.254
669.76	0.250
670.21	0.252
670.65	0.250
671.10	0.249
671.54	0.247
671.99	0.248
672.43	0.245
672.88	0.246
673.32	0.243
673.77	0.241
674.21	0.239
674.66	0.238
675.10	0.237
675.55	0.234
675.99	0.235
676.44	0.232
676.88	0.232
677.33	0.228
677.77	0.226
678.22	0.222
678.66	0.222
679.11	0.221
679.55	0.220
679.99	0.219
680.44	0.218
680.88	0.215
681.33	0.211
681.77	0.208
682.22	0.210
682.66	0.209
683.11	0.205
683.55	0.205
683.99	0.203
684.44	0.199
684.88	0.198
685.33	0.197
685.77	0.196
686.21	0.195
686.66	0.193
687.10	0.192
687.55	0.190
687.99	0.191
688.44	0.188
688.88	0.187
689.32	0.186
689.77	0.182
690.21	0.182
690.65	0.181
691.10	0.184
691.54	0.181
691.99	0.179
692.43	0.178
692.87	0.177
693.32	0.177
693.76	0.178
694.20	0.177
694.65	0.173
695.09	0.173
695.53	0.172
695.98	0.172
696.42	0.172
696.86	0.171
697.31	0.168
697.75	0.169
698.19	0.168
698.64	0.168
699.08	0.167
699.52	0.166
699.97	0.168
700.41	0.166
700.85	0.167
701.30	0.165
701.74	0.165
702.18	0.165
702.63	0.162
703.07	0.165
703.51	0.166
703.96	0.163
704.40	0.163
704.84	0.165
705.28	0.162
705.73	0.162
706.17	0.163
706.61	0.160
707.06	0.161
707.50	0.161
707.94	0.159
708.38	0.157
708.83	0.160
709.27	0.160
709.71	0.159
710.15	0.160
710.60	0.158
711.04	0.157
711.48	0.161
711.92	0.159
712.37	0.158
712.81	0.157
713.25	0.156
713.69	0.158
714.13	0.161
714.58	0.158
715.02	0.157
715.46	0.154
715.90	0.156
716.35	0.154
716.79	0.156
717.23	0.158
717.67	0.156
718.11	0.158
718.56	0.156
719.00	0.158
719.44	0.155
719.88	0.156
720.32	0.154
720.76	0.157
721.21	0.154
721.65	0.154
722.09	0.154
722.53	0.154
722.97	0.156
723.41	0.153
723.86	0.155
724.30	0.153
724.74	0.155
725.18	0.156
725.62	0.153
726.06	0.154
726.50	0.153
726.95	0.152
727.39	0.154
727.83	0.153
728.27	0.154
728.71	0.156
729.15	0.156
729.59	0.155
730.03	0.153
730.48	0.153
730.92	0.153
731.36	0.155
731.80	0.154
732.24	0.156
732.68	0.154
733.12	0.150
733.56	0.155
734.00	0.153
734.44	0.153
734.89	0.155
735.33	0.154
735.77	0.154
736.21	0.154
736.65	0.153
737.09	0.156
737.53	0.153
737.97	0.155
738.41	0.155
738.85	0.157
739.29	0.155
739.73	0.153
740.17	0.153
740.61	0.151
741.05	0.153
741.49	0.153
741.93	0.154
742.37	0.150
742.81	0.150
743.26	0.152
743.70	0.152
744.14	0.150
744.58	0.151
745.02	0.152
745.46	0.153
745.90	0.153
746.34	0.153
746.78	0.153
747.22	0.153
747.66	0.152
748.10	0.151
748.54	0.151
748.98	0.150
749.42	0.150
749.86	0.152
750.29	0.151
750.73	0.149
751.17	0.148
751.61	0.146
752.05	0.152
752.49	0.147
752.93	0.146
753.37	0.148
753.81	0.148
754.25	0.148
754.69	0.147
755.13	0.146
755.57	0.150
756.01	0.147
756.45	0.146
756.89	0.149
757.33	0.148
757.77	0.147
758.21	0.147
758.64	0.144
759.08	0.145
759.52	0.145
759.96	0.149
760.40	0.147
760.84	0.145
761.28	0.145
761.72	0.146
762.16	0.148
762.60	0.146
763.03	0.146
763.47	0.143
763.91	0.148
764.35	0.143
764.79	0.141
765.23	0.141
765.67	0.144
766.11	0.140
766.54	0.141
766.98	0.146
767.42	0.145
767.86	0.142
768.30	0.146
768.74	0.147
769.17	0.146
769.61	0.143
770.05	0.143
770.49	0.146
770.93	0.143
771.37	0.140
771.80	0.143
772.24	0.143
772.68	0.142
773.12	0.142
773.56	0.142
774.00	0.141
774.43	0.138
774.87	0.140
775.31	0.143
775.75	0.139
776.19	0.142
776.62	0.141
777.06	0.141
777.50	0.141
777.94	0.140
778.37	0.140
778.81	0.141
779.25	0.141
779.69	0.141
780.13	0.144
780.56	0.141
781.00	0.141
781.44	0.144
781.88	0.139
782.31	0.140
782.75	0.139
783.19	0.140
783.63	0.138
784.06	0.137
784.50	0.141
784.94	0.141
785.37	0.141
785.81	0.140
786.25	0.141
786.69	0.138
787.12	0.137
787.56	0.138
788.00	0.140
788.43	0.139
788.87	0.137
789.31	0.140
789.75	0.140
790.18	0.135
790.62	0.136
791.06	0.138
791.49	0.138
791.93	0.135
792.37	0.137
792.80	0.136
793.24	0.136
793.68	0.136
794.11	0.137
794.55	0.139
794.99	0.137
795.42	0.135
795.86	0.140
796.30	0.136
796.73	0.137
797.17	0.133
797.61	0.134
798.04	0.134
798.48	0.132
798.91	0.132
799.35	0.133
799.79	0.138
800.22	0.135
800.66	0.133
801.10	0.135
801.53	0.134
801.97	0.137
802.40	0.139
802.84	0.135
803.28	0.135
803.71	0.136
804.15	0.132
804.58	0.130
805.02	0.134
805.46	0.136
805.89	0.130
806.33	0.138
806.76	0.133
807.20	0.136
807.63	0.131
808.07	0.135
808.51	0.134
808.94	0.135
809.38	0.132
809.81	0.132
810.25	0.136
810.68	0.134
811.12	0.135
811.55	0.136
811.99	0.131
812.42	0.133
812.86	0.132
813.29	0.134
813.73	0.129
814.17	0.130
814.60	0.133
