SpectraSuite Data File
++++++++++++++++++++++++++++++++++++
Date: Sun Apr 24 14:29:24 CEST 2016
User: spectrasuite
Dark Spectrum Present: Yes
Reference Spectrum Present: Yes
Number of Sampled Component Spectra: 1
Spectrometers: HR+C0708
Integration Time (usec): 1000 (HR+C0708)
Spectra Averaged: 10 (HR+C0708)
Boxcar Smoothing: 0 (HR+C0708)
Correct for Electrical Dark: No (HR+C0708)
Strobe/Lamp Enabled: No (HR+C0708)
Correct for Detector Non-linearity: No (HR+C0708)
Correct for Stray Light: No (HR+C0708)
Number of Pixels in Processed Spectrum: 2048
>>>>>Begin Processed Spectral Data<<<<<
188.76	-0.000
189.23	-0.000
189.70	-0.000
190.17	-0.000
190.64	-0.000
191.12	-0.000
191.59	-0.000
192.06	-0.000
192.53	-0.000
193.01	-0.000
193.48	-0.000
193.95	-0.000
194.42	-0.000
194.90	-0.000
195.37	-0.000
195.84	-0.000
196.31	-0.000
196.78	-0.000
197.26	-0.000
197.73	-0.000
198.20	-0.000
198.67	-0.000
199.14	-0.000
199.62	-0.000
200.09	-0.000
200.56	-0.000
201.03	-0.000
201.50	0.829
201.97	-0.000
202.45	-0.000
202.92	1.268
203.39	0.911
203.86	1.023
204.33	1.346
204.80	-0.000
205.28	2.719
205.75	-0.000
206.22	1.235
206.69	1.018
207.16	2.346
207.63	0.860
208.11	0.704
208.58	-0.000
209.05	1.713
209.52	-0.000
209.99	1.392
210.46	0.850
210.93	-0.000
211.41	0.972
211.88	1.269
212.35	-0.000
212.82	-0.000
213.29	1.140
213.76	1.612
214.23	1.656
214.70	-0.000
215.18	2.093
215.65	0.911
216.12	1.446
216.59	0.767
217.06	1.514
217.53	1.359
218.00	0.817
218.47	-0.000
218.94	-0.000
219.41	1.470
219.89	-0.000
220.36	1.974
220.83	1.120
221.30	-0.000
221.77	1.328
222.24	-0.000
222.71	-0.000
223.18	-0.000
223.65	2.453
224.12	-0.000
224.59	-0.000
225.06	1.452
225.54	1.345
226.01	0.946
226.48	1.971
226.95	1.612
227.42	1.536
227.89	-0.000
228.36	1.721
228.83	2.795
229.30	2.056
229.77	2.221
230.24	1.703
230.71	-0.000
231.18	2.072
231.65	2.604
232.12	2.050
232.59	1.938
233.06	2.166
233.53	2.123
234.00	1.989
234.47	2.549
234.94	3.562
235.41	2.820
235.88	-0.000
236.35	2.770
236.82	2.349
237.29	2.684
237.76	2.553
238.23	2.596
238.70	2.714
239.17	2.409
239.64	2.689
240.11	2.804
240.58	2.603
241.05	-0.000
241.52	2.654
241.99	3.373
242.46	2.609
242.93	2.620
243.40	3.026
243.87	2.493
244.34	2.403
244.81	3.197
245.28	-0.000
245.75	2.938
246.22	-0.000
246.69	2.753
247.16	2.923
247.63	2.963
248.10	2.547
248.57	3.155
249.04	3.024
249.51	3.626
249.98	-0.000
250.45	3.051
250.92	2.857
251.39	3.461
251.85	2.942
252.32	-0.000
252.79	3.346
253.26	2.717
253.73	3.424
254.20	3.024
254.67	2.828
255.14	3.096
255.61	3.013
256.08	-0.000
256.55	-0.000
257.02	3.339
257.49	3.522
257.95	2.931
258.42	2.890
258.89	3.689
259.36	3.507
259.83	-0.000
260.30	3.983
260.77	-0.000
261.24	2.803
261.71	-0.000
262.17	3.220
262.64	2.871
263.11	3.008
263.58	3.411
264.05	2.999
264.52	3.200
264.99	3.215
265.46	3.664
265.92	3.403
266.39	2.987
266.86	-0.000
267.33	3.479
267.80	2.859
268.27	-0.000
268.74	3.520
269.20	3.143
269.67	3.557
270.14	2.834
270.61	3.191
271.08	3.083
271.55	2.628
272.01	3.176
272.48	3.000
272.95	2.880
273.42	3.062
273.89	2.958
274.36	3.028
274.82	2.743
275.29	2.811
275.76	2.882
276.23	2.802
276.70	2.893
277.16	2.794
277.63	2.695
278.10	2.728
278.57	3.035
279.04	2.666
279.50	2.664
279.97	2.879
280.44	2.509
280.91	2.625
281.38	2.648
281.84	2.627
282.31	2.682
282.78	3.055
283.25	2.619
283.72	2.625
284.18	2.569
284.65	2.666
285.12	2.557
285.59	2.456
286.05	2.595
286.52	2.587
286.99	2.577
287.46	2.702
287.92	2.552
288.39	2.503
288.86	2.649
289.33	2.449
289.79	2.522
290.26	2.505
290.73	2.385
291.20	2.518
291.66	2.536
292.13	2.411
292.60	2.446
293.07	2.441
293.53	2.332
294.00	2.456
294.47	2.398
294.93	2.320
295.40	2.474
295.87	2.318
296.34	2.434
296.80	2.379
297.27	2.423
297.74	2.373
298.20	2.413
298.67	2.286
299.14	2.393
299.60	2.338
300.07	2.336
300.54	2.340
301.01	2.262
301.47	2.186
301.94	2.238
302.41	2.234
302.87	2.289
303.34	2.381
303.81	2.169
304.27	2.233
304.74	2.235
305.21	2.139
305.67	2.232
306.14	2.160
306.61	2.228
307.07	2.155
307.54	2.156
308.01	2.180
308.47	2.150
308.94	2.197
309.40	2.241
309.87	2.154
310.34	2.119
310.80	2.173
311.27	2.166
311.74	2.153
312.20	2.192
312.67	2.095
313.13	2.066
313.60	2.154
314.07	2.119
314.53	2.062
315.00	2.057
315.47	2.115
315.93	2.096
316.40	2.035
316.86	2.104
317.33	2.101
317.80	2.020
318.26	2.070
318.73	2.080
319.19	2.104
319.66	2.039
320.13	2.029
320.59	2.046
321.06	2.047
321.52	2.063
321.99	1.997
322.45	2.003
322.92	1.939
323.39	2.001
323.85	2.003
324.32	1.972
324.78	1.964
325.25	1.948
325.71	1.906
326.18	1.894
326.64	1.960
327.11	1.883
327.58	1.876
328.04	1.847
328.51	1.870
328.97	1.868
329.44	1.862
329.90	1.797
330.37	1.841
330.83	1.777
331.30	1.834
331.76	1.784
332.23	1.761
332.69	1.763
333.16	1.695
333.62	1.695
334.09	1.678
334.56	1.631
335.02	1.626
335.49	1.598
335.95	1.571
336.42	1.558
336.88	1.516
337.35	1.501
337.81	1.464
338.28	1.446
338.74	1.427
339.20	1.389
339.67	1.354
340.13	1.352
340.60	1.308
341.06	1.257
341.53	1.234
341.99	1.208
342.46	1.172
342.92	1.149
343.39	1.127
343.85	1.097
344.32	1.079
344.78	1.048
345.25	1.027
345.71	1.011
346.17	0.987
346.64	0.957
347.10	0.929
347.57	0.904
348.03	0.880
348.50	0.857
348.96	0.836
349.43	0.821
349.89	0.795
350.35	0.787
350.82	0.773
351.28	0.754
351.75	0.736
352.21	0.729
352.67	0.708
353.14	0.698
353.60	0.682
354.07	0.667
354.53	0.657
355.00	0.639
355.46	0.631
355.92	0.622
356.39	0.609
356.85	0.605
357.31	0.598
357.78	0.587
358.24	0.577
358.71	0.574
359.17	0.566
359.63	0.559
360.10	0.553
360.56	0.551
361.03	0.545
361.49	0.536
361.95	0.539
362.42	0.533
362.88	0.528
363.34	0.522
363.81	0.520
364.27	0.511
364.73	0.515
365.20	0.511
365.66	0.510
366.12	0.507
366.59	0.505
367.05	0.503
367.51	0.497
367.98	0.492
368.44	0.492
368.90	0.497
369.37	0.491
369.83	0.488
370.29	0.484
370.76	0.484
371.22	0.484
371.68	0.477
372.15	0.477
372.61	0.478
373.07	0.475
373.54	0.473
374.00	0.470
374.46	0.471
374.92	0.471
375.39	0.464
375.85	0.464
376.31	0.464
376.78	0.463
377.24	0.463
377.70	0.459
378.16	0.453
378.63	0.457
379.09	0.456
379.55	0.453
380.01	0.451
380.48	0.451
380.94	0.449
381.40	0.445
381.87	0.445
382.33	0.443
382.79	0.443
383.25	0.441
383.72	0.443
384.18	0.440
384.64	0.438
385.10	0.437
385.56	0.436
386.03	0.431
386.49	0.432
386.95	0.426
387.41	0.428
387.88	0.427
388.34	0.423
388.80	0.425
389.26	0.425
389.72	0.425
390.19	0.421
390.65	0.422
391.11	0.420
391.57	0.420
392.04	0.420
392.50	0.417
392.96	0.413
393.42	0.410
393.88	0.415
394.34	0.412
394.81	0.411
395.27	0.407
395.73	0.407
396.19	0.403
396.65	0.405
397.12	0.402
397.58	0.401
398.04	0.399
398.50	0.401
398.96	0.397
399.42	0.400
399.89	0.396
400.35	0.398
400.81	0.395
401.27	0.393
401.73	0.394
402.19	0.390
402.65	0.391
403.12	0.391
403.58	0.385
404.04	0.389
404.50	0.387
404.96	0.383
405.42	0.385
405.88	0.385
406.34	0.382
406.81	0.381
407.27	0.378
407.73	0.379
408.19	0.376
408.65	0.376
409.11	0.377
409.57	0.374
410.03	0.372
410.49	0.376
410.96	0.372
411.42	0.371
411.88	0.370
412.34	0.366
412.80	0.368
413.26	0.365
413.72	0.365
414.18	0.365
414.64	0.364
415.10	0.361
415.56	0.363
416.02	0.365
416.48	0.361
416.95	0.356
417.41	0.354
417.87	0.355
418.33	0.356
418.79	0.353
419.25	0.356
419.71	0.353
420.17	0.352
420.63	0.351
421.09	0.350
421.55	0.347
422.01	0.352
422.47	0.347
422.93	0.350
423.39	0.347
423.85	0.350
424.31	0.342
424.77	0.343
425.23	0.345
425.69	0.345
426.15	0.341
426.61	0.339
427.07	0.340
427.53	0.340
427.99	0.335
428.45	0.339
428.91	0.337
429.37	0.336
429.83	0.333
430.29	0.334
430.75	0.337
431.21	0.334
431.67	0.334
432.13	0.331
432.59	0.327
433.05	0.331
433.51	0.328
433.97	0.329
434.43	0.330
434.89	0.328
435.35	0.325
435.81	0.326
436.27	0.326
436.73	0.323
437.19	0.320
437.65	0.326
438.11	0.324
438.57	0.321
439.03	0.320
439.48	0.319
439.94	0.318
440.40	0.318
440.86	0.320
441.32	0.314
441.78	0.317
442.24	0.316
442.70	0.315
443.16	0.314
443.62	0.312
444.08	0.310
444.54	0.308
444.99	0.311
445.45	0.309
445.91	0.310
446.37	0.310
446.83	0.309
447.29	0.305
447.75	0.306
448.21	0.307
448.67	0.304
449.12	0.302
449.58	0.306
450.04	0.303
450.50	0.303
450.96	0.303
451.42	0.300
451.88	0.297
452.34	0.300
452.79	0.300
453.25	0.300
453.71	0.298
454.17	0.296
454.63	0.298
455.09	0.297
455.55	0.298
456.00	0.296
456.46	0.294
456.92	0.294
457.38	0.291
457.84	0.289
458.30	0.287
458.75	0.291
459.21	0.284
459.67	0.290
460.13	0.287
460.59	0.289
461.04	0.286
461.50	0.286
461.96	0.287
462.42	0.287
462.88	0.285
463.33	0.285
463.79	0.285
464.25	0.282
464.71	0.282
465.17	0.285
465.62	0.282
466.08	0.283
466.54	0.281
467.00	0.282
467.46	0.282
467.91	0.280
468.37	0.280
468.83	0.278
469.29	0.277
469.74	0.279
470.20	0.278
470.66	0.277
471.12	0.272
471.57	0.276
472.03	0.274
472.49	0.273
472.95	0.273
473.40	0.272
473.86	0.270
474.32	0.270
474.78	0.272
475.23	0.271
475.69	0.270
476.15	0.268
476.60	0.269
477.06	0.267
477.52	0.266
477.98	0.266
478.43	0.267
478.89	0.263
479.35	0.264
479.80	0.267
480.26	0.263
480.72	0.265
481.18	0.263
481.63	0.263
482.09	0.262
482.55	0.261
483.00	0.259
483.46	0.262
483.92	0.261
484.37	0.259
484.83	0.257
485.29	0.258
485.74	0.259
486.20	0.257
486.66	0.256
487.11	0.257
487.57	0.255
488.03	0.257
488.48	0.256
488.94	0.253
489.40	0.254
489.85	0.255
490.31	0.253
490.77	0.253
491.22	0.254
491.68	0.251
492.13	0.251
492.59	0.253
493.05	0.251
493.50	0.249
493.96	0.250
494.42	0.249
494.87	0.249
495.33	0.245
495.78	0.252
496.24	0.249
496.70	0.248
497.15	0.246
497.61	0.248
498.06	0.243
498.52	0.244
498.98	0.244
499.43	0.246
499.89	0.244
500.34	0.241
500.80	0.244
501.25	0.243
501.71	0.241
502.17	0.241
502.62	0.242
503.08	0.240
503.53	0.238
503.99	0.236
504.44	0.240
504.90	0.238
505.36	0.236
505.81	0.237
506.27	0.237
506.72	0.238
507.18	0.237
507.63	0.234
508.09	0.235
508.54	0.235
509.00	0.232
509.45	0.235
509.91	0.232
510.36	0.233
510.82	0.234
511.27	0.234
511.73	0.233
512.19	0.230
512.64	0.232
513.10	0.232
513.55	0.231
514.01	0.229
514.46	0.229
514.92	0.228
515.37	0.227
515.83	0.227
516.28	0.227
516.73	0.225
517.19	0.227
517.64	0.224
518.10	0.226
518.55	0.225
519.01	0.223
519.46	0.223
519.92	0.227
520.37	0.222
520.83	0.223
521.28	0.223
521.74	0.222
522.19	0.225
522.65	0.219
523.10	0.224
523.55	0.221
524.01	0.223
524.46	0.220
524.92	0.218
525.37	0.220
525.83	0.219
526.28	0.217
526.73	0.220
527.19	0.221
527.64	0.219
528.10	0.220
528.55	0.217
529.01	0.217
529.46	0.218
529.91	0.217
530.37	0.216
530.82	0.215
531.28	0.213
531.73	0.212
532.18	0.214
532.64	0.213
533.09	0.214
533.54	0.214
534.00	0.211
534.45	0.213
534.91	0.214
535.36	0.214
535.81	0.210
536.27	0.211
536.72	0.211
537.17	0.211
537.63	0.210
538.08	0.207
538.54	0.210
538.99	0.207
539.44	0.211
539.90	0.208
540.35	0.206
540.80	0.206
541.26	0.206
541.71	0.205
542.16	0.206
542.62	0.207
543.07	0.205
543.52	0.206
543.98	0.205
544.43	0.203
544.88	0.201
545.34	0.202
545.79	0.200
546.24	0.202
546.69	0.203
547.15	0.202
547.60	0.202
548.05	0.201
548.51	0.200
548.96	0.200
549.41	0.202
549.86	0.198
550.32	0.200
550.77	0.200
551.22	0.199
551.68	0.197
552.13	0.197
552.58	0.197
553.03	0.197
553.49	0.197
553.94	0.196
554.39	0.197
554.84	0.196
555.30	0.194
555.75	0.195
556.20	0.193
556.65	0.195
557.11	0.196
557.56	0.191
558.01	0.195
558.46	0.196
558.92	0.191
559.37	0.191
559.82	0.193
560.27	0.191
560.72	0.190
561.18	0.191
561.63	0.191
562.08	0.189
562.53	0.192
562.99	0.191
563.44	0.190
563.89	0.188
564.34	0.188
564.79	0.188
565.25	0.188
565.70	0.188
566.15	0.187
566.60	0.186
567.05	0.188
567.50	0.187
567.96	0.184
568.41	0.185
568.86	0.186
569.31	0.184
569.76	0.186
570.21	0.185
570.67	0.184
571.12	0.184
571.57	0.184
572.02	0.182
572.47	0.182
572.92	0.184
573.37	0.182
573.83	0.181
574.28	0.182
574.73	0.182
575.18	0.182
575.63	0.182
576.08	0.179
576.53	0.180
576.98	0.181
577.44	0.177
577.89	0.181
578.34	0.178
578.79	0.177
579.24	0.176
579.69	0.178
580.14	0.176
580.59	0.175
581.04	0.176
581.49	0.176
581.95	0.175
582.40	0.176
582.85	0.175
583.30	0.173
583.75	0.173
584.20	0.174
584.65	0.173
585.10	0.173
585.55	0.174
586.00	0.173
586.45	0.172
586.90	0.174
587.35	0.173
587.80	0.171
588.25	0.171
588.71	0.172
589.16	0.171
589.61	0.172
590.06	0.172
590.51	0.172
590.96	0.171
591.41	0.170
591.86	0.169
592.31	0.170
592.76	0.171
593.21	0.170
593.66	0.170
594.11	0.170
594.56	0.168
595.01	0.168
595.46	0.168
595.91	0.169
596.36	0.168
596.81	0.168
597.26	0.168
597.71	0.167
598.16	0.167
598.61	0.167
599.06	0.167
599.51	0.168
599.96	0.168
600.41	0.167
600.86	0.166
601.31	0.167
601.76	0.167
602.21	0.165
602.65	0.167
603.10	0.166
603.55	0.164
604.00	0.164
604.45	0.164
604.90	0.165
605.35	0.163
605.80	0.162
606.25	0.165
606.70	0.165
607.15	0.162
607.60	0.162
608.05	0.161
608.50	0.161
608.95	0.160
609.39	0.163
609.84	0.160
610.29	0.161
610.74	0.161
611.19	0.159
611.64	0.158
612.09	0.159
612.54	0.158
612.99	0.158
613.44	0.160
613.88	0.161
614.33	0.159
614.78	0.157
615.23	0.157
615.68	0.158
616.13	0.158
616.58	0.157
617.03	0.157
617.47	0.157
617.92	0.158
618.37	0.155
618.82	0.157
619.27	0.157
619.72	0.154
620.17	0.154
620.61	0.155
621.06	0.154
621.51	0.155
621.96	0.154
622.41	0.155
622.86	0.153
623.30	0.153
623.75	0.155
624.20	0.154
624.65	0.151
625.10	0.154
625.54	0.156
625.99	0.152
626.44	0.151
626.89	0.152
627.34	0.153
627.78	0.152
628.23	0.150
628.68	0.150
629.13	0.151
629.58	0.151
630.02	0.151
630.47	0.150
630.92	0.150
631.37	0.150
631.81	0.150
632.26	0.150
632.71	0.151
633.16	0.149
633.61	0.150
634.05	0.147
634.50	0.149
634.95	0.149
635.40	0.150
635.84	0.151
636.29	0.149
636.74	0.150
637.18	0.149
637.63	0.148
638.08	0.145
638.53	0.145
638.97	0.146
639.42	0.148
639.87	0.148
640.32	0.145
640.76	0.146
641.21	0.146
641.66	0.146
642.10	0.146
642.55	0.146
643.00	0.145
643.44	0.144
643.89	0.146
644.34	0.143
644.79	0.144
645.23	0.146
645.68	0.145
646.13	0.144
646.57	0.144
647.02	0.143
647.47	0.145
647.91	0.144
648.36	0.144
648.81	0.143
649.25	0.141
649.70	0.141
650.15	0.140
650.59	0.142
651.04	0.141
651.48	0.143
651.93	0.142
652.38	0.141
652.82	0.141
653.27	0.141
653.72	0.143
654.16	0.139
654.61	0.141
655.06	0.140
655.50	0.139
655.95	0.137
656.39	0.134
656.84	0.137
657.29	0.142
657.73	0.138
658.18	0.139
658.62	0.141
659.07	0.139
659.52	0.138
659.96	0.141
660.41	0.142
660.85	0.138
661.30	0.137
661.74	0.138
662.19	0.137
662.64	0.138
663.08	0.138
663.53	0.137
663.97	0.137
664.42	0.137
664.86	0.138
665.31	0.138
665.75	0.134
666.20	0.139
666.65	0.138
667.09	0.137
667.54	0.138
667.98	0.135
668.43	0.134
668.87	0.137
669.32	0.134
669.76	0.134
670.21	0.136
670.65	0.133
671.10	0.136
671.54	0.136
671.99	0.133
672.43	0.132
672.88	0.132
673.32	0.134
673.77	0.134
674.21	0.132
674.66	0.132
675.10	0.132
675.55	0.132
675.99	0.133
676.44	0.130
676.88	0.133
677.33	0.131
677.77	0.133
678.22	0.132
678.66	0.133
679.11	0.132
679.55	0.132
679.99	0.132
680.44	0.132
680.88	0.132
681.33	0.130
681.77	0.129
682.22	0.131
682.66	0.131
683.11	0.131
683.55	0.130
683.99	0.132
684.44	0.130
684.88	0.128
685.33	0.128
685.77	0.130
686.21	0.128
686.66	0.130
687.10	0.129
687.55	0.129
687.99	0.132
688.44	0.129
688.88	0.129
689.32	0.130
689.77	0.128
690.21	0.127
690.65	0.129
691.10	0.130
691.54	0.128
691.99	0.127
692.43	0.127
692.87	0.126
693.32	0.128
693.76	0.129
694.20	0.128
694.65	0.130
695.09	0.129
695.53	0.125
695.98	0.127
696.42	0.128
696.86	0.127
697.31	0.125
697.75	0.126
698.19	0.124
698.64	0.125
699.08	0.126
699.52	0.125
699.97	0.124
700.41	0.125
700.85	0.127
701.30	0.126
701.74	0.126
702.18	0.124
702.63	0.124
703.07	0.125
703.51	0.127
703.96	0.124
704.40	0.125
704.84	0.126
705.28	0.125
705.73	0.124
706.17	0.125
706.61	0.124
707.06	0.122
707.50	0.124
707.94	0.121
708.38	0.122
708.83	0.125
709.27	0.123
709.71	0.122
710.15	0.124
710.60	0.123
711.04	0.122
711.48	0.124
711.92	0.123
712.37	0.121
712.81	0.126
713.25	0.121
713.69	0.122
714.13	0.125
714.58	0.124
715.02	0.124
715.46	0.123
715.90	0.121
716.35	0.120
716.79	0.122
717.23	0.123
717.67	0.124
718.11	0.124
718.56	0.123
719.00	0.125
719.44	0.124
719.88	0.122
720.32	0.122
720.76	0.123
721.21	0.122
721.65	0.122
722.09	0.124
722.53	0.123
722.97	0.124
723.41	0.123
723.86	0.124
724.30	0.123
724.74	0.125
725.18	0.125
725.62	0.123
726.06	0.124
726.50	0.122
726.95	0.121
727.39	0.123
727.83	0.122
728.27	0.123
728.71	0.123
729.15	0.123
729.59	0.125
730.03	0.122
730.48	0.123
730.92	0.123
731.36	0.122
731.80	0.123
732.24	0.125
732.68	0.123
733.12	0.122
733.56	0.124
734.00	0.122
734.44	0.122
734.89	0.122
735.33	0.123
735.77	0.124
736.21	0.124
736.65	0.122
737.09	0.124
737.53	0.123
737.97	0.126
738.41	0.125
738.85	0.127
739.29	0.126
739.73	0.122
740.17	0.123
740.61	0.123
741.05	0.124
741.49	0.124
741.93	0.124
742.37	0.120
742.81	0.124
743.26	0.125
743.70	0.123
744.14	0.122
744.58	0.121
745.02	0.123
745.46	0.122
745.90	0.124
746.34	0.123
746.78	0.124
747.22	0.124
747.66	0.123
748.10	0.120
748.54	0.118
748.98	0.120
749.42	0.121
749.86	0.123
750.29	0.121
750.73	0.120
751.17	0.120
751.61	0.121
752.05	0.122
752.49	0.118
752.93	0.120
753.37	0.117
753.81	0.119
754.25	0.118
754.69	0.118
755.13	0.118
755.57	0.119
756.01	0.122
756.45	0.123
756.89	0.119
757.33	0.120
757.77	0.120
758.21	0.118
758.64	0.118
759.08	0.116
759.52	0.120
759.96	0.121
760.40	0.119
760.84	0.117
761.28	0.116
761.72	0.118
762.16	0.121
762.60	0.117
763.03	0.117
763.47	0.116
763.91	0.118
764.35	0.115
764.79	0.117
765.23	0.114
765.67	0.116
766.11	0.116
766.54	0.115
766.98	0.117
767.42	0.117
767.86	0.114
768.30	0.117
768.74	0.117
769.17	0.120
769.61	0.118
770.05	0.117
770.49	0.117
770.93	0.115
771.37	0.114
771.80	0.115
772.24	0.115
772.68	0.111
773.12	0.114
773.56	0.116
774.00	0.114
774.43	0.110
774.87	0.113
775.31	0.112
775.75	0.118
776.19	0.116
776.62	0.113
777.06	0.115
777.50	0.114
777.94	0.113
778.37	0.113
778.81	0.116
779.25	0.114
779.69	0.113
780.13	0.115
780.56	0.113
781.00	0.113
781.44	0.112
781.88	0.114
782.31	0.110
782.75	0.110
783.19	0.114
783.63	0.113
784.06	0.111
784.50	0.113
784.94	0.114
785.37	0.114
785.81	0.115
786.25	0.113
786.69	0.112
787.12	0.109
787.56	0.112
788.00	0.115
788.43	0.110
788.87	0.111
789.31	0.113
789.75	0.111
790.18	0.109
790.62	0.113
791.06	0.111
791.49	0.112
791.93	0.109
792.37	0.116
792.80	0.112
793.24	0.110
793.68	0.113
794.11	0.109
794.55	0.112
794.99	0.114
795.42	0.112
795.86	0.113
796.30	0.109
796.73	0.114
797.17	0.107
797.61	0.109
798.04	0.108
798.48	0.111
798.91	0.107
799.35	0.109
799.79	0.114
800.22	0.108
800.66	0.107
801.10	0.112
801.53	0.111
801.97	0.111
802.40	0.112
802.84	0.109
803.28	0.109
803.71	0.112
804.15	0.109
804.58	0.110
805.02	0.111
805.46	0.109
805.89	0.110
806.33	0.110
806.76	0.109
807.20	0.108
807.63	0.109
808.07	0.112
808.51	0.108
808.94	0.108
809.38	0.106
809.81	0.110
810.25	0.113
810.68	0.109
811.12	0.108
811.55	0.109
811.99	0.112
812.42	0.111
812.86	0.109
813.29	0.111
813.73	0.107
814.17	0.105
814.60	0.109
815.04	0.105
815.47	0.105
815.91	0.106
