SpectraSuite Data File
++++++++++++++++++++++++++++++++++++
Date: Sun Apr 24 13:13:03 CEST 2016
User: spectrasuite
Dark Spectrum Present: Yes
Reference Spectrum Present: Yes
Number of Sampled Component Spectra: 1
Spectrometers: HR+C0708
Integration Time (usec): 1000 (HR+C0708)
Spectra Averaged: 10 (HR+C0708)
Boxcar Smoothing: 0 (HR+C0708)
Correct for Electrical Dark: No (HR+C0708)
Strobe/Lamp Enabled: No (HR+C0708)
Correct for Detector Non-linearity: No (HR+C0708)
Correct for Stray Light: No (HR+C0708)
Number of Pixels in Processed Spectrum: 2048
>>>>>Begin Processed Spectral Data<<<<<
188.76	-0.000
189.23	1.110
189.70	-0.000
190.17	-0.000
190.64	-0.000
191.12	-0.000
191.59	-0.000
192.06	-0.000
192.53	-0.000
193.01	-0.000
193.48	-0.000
193.95	-0.000
194.42	-0.000
194.90	0.277
195.37	-0.000
195.84	-0.000
196.31	0.472
196.78	1.383
197.26	-0.000
197.73	-0.000
198.20	1.024
198.67	-0.000
199.14	-0.000
199.62	-0.000
200.09	1.074
200.56	-0.000
201.03	0.896
201.50	0.637
201.97	0.816
202.45	0.920
202.92	0.679
203.39	0.737
203.86	1.600
204.33	0.883
204.80	0.726
205.28	0.715
205.75	1.480
206.22	1.203
206.69	0.596
207.16	0.809
207.63	0.466
208.11	0.586
208.58	0.726
209.05	1.236
209.52	1.249
209.99	0.882
210.46	1.080
210.93	1.548
211.41	0.964
211.88	0.881
212.35	0.635
212.82	1.319
213.29	0.662
213.76	0.767
214.23	0.697
214.70	0.860
215.18	-0.000
215.65	0.687
216.12	0.772
216.59	0.631
217.06	0.661
217.53	0.875
218.00	1.044
218.47	0.619
218.94	0.859
219.41	1.180
219.89	1.119
220.36	0.974
220.83	1.001
221.30	2.014
221.77	0.822
222.24	0.701
222.71	1.183
223.18	1.193
223.65	1.159
224.12	1.274
224.59	-0.000
225.06	1.332
225.54	1.082
226.01	1.125
226.48	1.399
226.95	1.062
227.42	1.343
227.89	-0.000
228.36	1.247
228.83	1.410
229.30	1.331
229.77	1.841
230.24	1.388
230.71	1.868
231.18	1.900
231.65	1.692
232.12	1.709
232.59	1.685
233.06	2.141
233.53	1.721
234.00	1.791
234.47	1.806
234.94	3.194
235.41	1.861
235.88	2.051
236.35	2.306
236.82	2.058
237.29	2.220
237.76	2.248
238.23	2.488
238.70	2.240
239.17	2.040
239.64	2.439
240.11	3.138
240.58	2.289
241.05	2.389
241.52	2.482
241.99	-0.000
242.46	2.511
242.93	2.479
243.40	2.468
243.87	2.559
244.34	2.262
244.81	2.674
245.28	2.929
245.75	2.735
246.22	2.810
246.69	2.704
247.16	2.653
247.63	2.604
248.10	2.599
248.57	2.929
249.04	2.997
249.51	2.802
249.98	2.886
250.45	2.620
250.92	2.598
251.39	2.712
251.85	3.412
252.32	3.075
252.79	2.651
253.26	2.649
253.73	3.194
254.20	2.740
254.67	2.404
255.14	2.700
255.61	2.980
256.08	2.597
256.55	3.185
257.02	2.655
257.49	3.085
257.95	2.657
258.42	2.890
258.89	2.809
259.36	2.655
259.83	2.824
260.30	3.182
260.77	2.907
261.24	2.776
261.71	3.232
262.17	3.021
262.64	2.831
263.11	2.977
263.58	3.678
264.05	2.864
264.52	2.966
264.99	2.753
265.46	2.965
265.92	2.996
266.39	2.669
266.86	3.011
267.33	3.252
267.80	2.635
268.27	2.933
268.74	3.005
269.20	3.332
269.67	2.848
270.14	2.690
270.61	3.092
271.08	2.888
271.55	2.603
272.01	2.800
272.48	3.005
272.95	2.572
273.42	2.758
273.89	2.977
274.36	2.747
274.82	2.663
275.29	2.764
275.76	2.802
276.23	2.624
276.70	2.686
277.16	2.801
277.63	2.713
278.10	2.812
278.57	2.625
279.04	2.740
279.50	2.988
279.97	2.793
280.44	2.578
280.91	2.628
281.38	2.718
281.84	2.636
282.31	2.689
282.78	2.905
283.25	2.512
283.72	2.665
284.18	2.838
284.65	2.789
285.12	2.547
285.59	2.733
286.05	2.780
286.52	2.647
286.99	2.792
287.46	2.771
287.92	2.704
288.39	2.581
288.86	2.677
289.33	2.649
289.79	2.747
290.26	2.660
290.73	2.625
291.20	2.624
291.66	2.743
292.13	2.559
292.60	2.488
293.07	2.532
293.53	2.373
294.00	2.602
294.47	2.624
294.93	2.532
295.40	2.592
295.87	2.559
296.34	2.711
296.80	2.550
297.27	2.576
297.74	2.518
298.20	2.625
298.67	2.388
299.14	2.535
299.60	2.452
300.07	2.442
300.54	2.407
301.01	2.391
301.47	2.333
301.94	2.334
302.41	2.442
302.87	2.466
303.34	2.453
303.81	2.295
304.27	2.364
304.74	2.309
305.21	2.298
305.67	2.351
306.14	2.273
306.61	2.403
307.07	2.289
307.54	2.261
308.01	2.370
308.47	2.328
308.94	2.343
309.40	2.378
309.87	2.288
310.34	2.262
310.80	2.334
311.27	2.272
311.74	2.260
312.20	2.219
312.67	2.350
313.13	2.263
313.60	2.319
314.07	2.288
314.53	2.191
315.00	2.319
315.47	2.320
315.93	2.289
316.40	2.271
316.86	2.261
317.33	2.272
317.80	2.235
318.26	2.333
318.73	2.322
319.19	2.255
319.66	2.215
320.13	2.238
320.59	2.198
321.06	2.238
321.52	2.297
321.99	2.186
322.45	2.161
322.92	2.108
323.39	2.193
323.85	2.178
324.32	2.253
324.78	2.181
325.25	2.148
325.71	2.105
326.18	2.084
326.64	2.155
327.11	2.097
327.58	2.047
328.04	2.049
328.51	2.111
328.97	2.073
329.44	2.004
329.90	1.951
330.37	1.930
330.83	1.910
331.30	1.922
331.76	1.894
332.23	1.852
332.69	1.805
333.16	1.759
333.62	1.734
334.09	1.679
334.56	1.647
335.02	1.596
335.49	1.567
335.95	1.505
336.42	1.463
336.88	1.437
337.35	1.379
337.81	1.337
338.28	1.301
338.74	1.263
339.20	1.216
339.67	1.162
340.13	1.120
340.60	1.082
341.06	1.033
341.53	0.982
341.99	0.949
342.46	0.916
342.92	0.866
343.39	0.829
343.85	0.795
344.32	0.768
344.78	0.740
345.25	0.709
345.71	0.681
346.17	0.650
346.64	0.621
347.10	0.580
347.57	0.546
348.03	0.517
348.50	0.491
348.96	0.469
349.43	0.443
349.89	0.421
350.35	0.402
350.82	0.388
351.28	0.368
351.75	0.348
352.21	0.335
352.67	0.318
353.14	0.305
353.60	0.295
354.07	0.280
354.53	0.269
355.00	0.261
355.46	0.252
355.92	0.240
356.39	0.233
356.85	0.226
357.31	0.222
357.78	0.211
358.24	0.206
358.71	0.202
359.17	0.200
359.63	0.195
360.10	0.191
360.56	0.190
361.03	0.190
361.49	0.184
361.95	0.181
362.42	0.181
362.88	0.180
363.34	0.176
363.81	0.171
364.27	0.173
364.73	0.171
365.20	0.173
365.66	0.169
366.12	0.167
366.59	0.165
367.05	0.164
367.51	0.165
367.98	0.162
368.44	0.163
368.90	0.163
369.37	0.160
369.83	0.156
370.29	0.160
370.76	0.158
371.22	0.158
371.68	0.155
372.15	0.154
372.61	0.153
373.07	0.154
373.54	0.155
374.00	0.154
374.46	0.152
374.92	0.153
375.39	0.151
375.85	0.151
376.31	0.149
376.78	0.150
377.24	0.150
377.70	0.150
378.16	0.148
378.63	0.148
379.09	0.148
379.55	0.145
380.01	0.148
380.48	0.146
380.94	0.144
381.40	0.144
381.87	0.143
382.33	0.144
382.79	0.143
383.25	0.143
383.72	0.145
384.18	0.140
384.64	0.141
385.10	0.142
385.56	0.142
386.03	0.137
386.49	0.140
386.95	0.138
387.41	0.139
387.88	0.137
388.34	0.138
388.80	0.138
389.26	0.140
389.72	0.138
390.19	0.139
390.65	0.138
391.11	0.136
391.57	0.138
392.04	0.133
392.50	0.133
392.96	0.133
393.42	0.134
393.88	0.135
394.34	0.134
394.81	0.132
395.27	0.133
395.73	0.133
396.19	0.133
396.65	0.129
397.12	0.131
397.58	0.131
398.04	0.129
398.50	0.130
398.96	0.128
399.42	0.130
399.89	0.128
400.35	0.129
400.81	0.125
401.27	0.129
401.73	0.125
402.19	0.123
402.65	0.123
403.12	0.120
403.58	0.125
404.04	0.124
404.50	0.124
404.96	0.121
405.42	0.123
405.88	0.121
406.34	0.121
406.81	0.120
407.27	0.118
407.73	0.118
408.19	0.117
408.65	0.118
409.11	0.116
409.57	0.118
410.03	0.115
410.49	0.118
410.96	0.116
411.42	0.115
411.88	0.114
412.34	0.113
412.80	0.115
413.26	0.114
413.72	0.113
414.18	0.113
414.64	0.110
415.10	0.113
415.56	0.115
416.02	0.112
416.48	0.112
416.95	0.108
417.41	0.110
417.87	0.107
418.33	0.111
418.79	0.108
419.25	0.108
419.71	0.109
420.17	0.109
420.63	0.108
421.09	0.107
421.55	0.104
422.01	0.106
422.47	0.107
422.93	0.107
423.39	0.109
423.85	0.109
424.31	0.106
424.77	0.107
425.23	0.107
425.69	0.105
426.15	0.105
426.61	0.105
427.07	0.104
427.53	0.105
427.99	0.103
428.45	0.105
428.91	0.108
429.37	0.104
429.83	0.104
430.29	0.102
430.75	0.103
431.21	0.105
431.67	0.105
432.13	0.104
432.59	0.102
433.05	0.104
433.51	0.103
433.97	0.102
434.43	0.104
434.89	0.106
435.35	0.104
435.81	0.101
436.27	0.100
436.73	0.100
437.19	0.101
437.65	0.103
438.11	0.097
438.57	0.102
439.03	0.102
439.48	0.101
439.94	0.100
440.40	0.103
440.86	0.105
441.32	0.101
441.78	0.101
442.24	0.101
442.70	0.099
443.16	0.101
443.62	0.098
444.08	0.099
444.54	0.097
444.99	0.097
445.45	0.099
445.91	0.101
446.37	0.098
446.83	0.097
447.29	0.099
447.75	0.096
448.21	0.102
448.67	0.099
449.12	0.099
449.58	0.098
450.04	0.097
450.50	0.100
450.96	0.102
451.42	0.096
451.88	0.097
452.34	0.099
452.79	0.097
453.25	0.100
453.71	0.098
454.17	0.097
454.63	0.098
455.09	0.099
455.55	0.098
456.00	0.097
456.46	0.098
456.92	0.094
457.38	0.097
457.84	0.095
458.30	0.095
458.75	0.099
459.21	0.096
459.67	0.098
460.13	0.098
460.59	0.097
461.04	0.098
461.50	0.099
461.96	0.096
462.42	0.097
462.88	0.097
463.33	0.096
463.79	0.096
464.25	0.098
464.71	0.096
465.17	0.097
465.62	0.097
466.08	0.097
466.54	0.097
467.00	0.097
467.46	0.096
467.91	0.096
468.37	0.096
468.83	0.097
469.29	0.095
469.74	0.095
470.20	0.096
470.66	0.097
471.12	0.094
471.57	0.097
472.03	0.097
472.49	0.096
472.95	0.099
473.40	0.096
473.86	0.097
474.32	0.096
474.78	0.096
475.23	0.097
475.69	0.099
476.15	0.097
476.60	0.096
477.06	0.096
477.52	0.097
477.98	0.096
478.43	0.097
478.89	0.097
479.35	0.095
479.80	0.098
480.26	0.097
480.72	0.094
481.18	0.096
481.63	0.096
482.09	0.098
482.55	0.098
483.00	0.097
483.46	0.097
483.92	0.094
484.37	0.097
484.83	0.096
485.29	0.095
485.74	0.096
486.20	0.098
486.66	0.096
487.11	0.097
487.57	0.095
488.03	0.097
488.48	0.095
488.94	0.095
489.40	0.094
489.85	0.096
490.31	0.099
490.77	0.096
491.22	0.097
491.68	0.095
492.13	0.095
492.59	0.097
493.05	0.096
493.50	0.097
493.96	0.096
494.42	0.095
494.87	0.093
495.33	0.095
495.78	0.098
496.24	0.096
496.70	0.095
497.15	0.096
497.61	0.096
498.06	0.095
498.52	0.095
498.98	0.093
499.43	0.096
499.89	0.095
500.34	0.095
500.80	0.097
501.25	0.095
501.71	0.094
502.17	0.094
502.62	0.098
503.08	0.096
503.53	0.093
503.99	0.094
504.44	0.094
504.90	0.094
505.36	0.091
505.81	0.094
506.27	0.094
506.72	0.095
507.18	0.094
507.63	0.092
508.09	0.093
508.54	0.089
509.00	0.094
509.45	0.094
509.91	0.091
510.36	0.092
510.82	0.091
511.27	0.093
511.73	0.093
512.19	0.090
512.64	0.093
513.10	0.092
513.55	0.094
514.01	0.092
514.46	0.091
514.92	0.091
515.37	0.092
515.83	0.093
516.28	0.091
516.73	0.092
517.19	0.093
517.64	0.090
518.10	0.091
518.55	0.091
519.01	0.090
519.46	0.089
519.92	0.094
520.37	0.089
520.83	0.092
521.28	0.093
521.74	0.092
522.19	0.092
522.65	0.090
523.10	0.092
523.55	0.090
524.01	0.092
524.46	0.090
524.92	0.088
525.37	0.091
525.83	0.091
526.28	0.090
526.73	0.091
527.19	0.093
527.64	0.094
528.10	0.092
528.55	0.091
529.01	0.092
529.46	0.092
529.91	0.093
530.37	0.092
530.82	0.092
531.28	0.090
531.73	0.091
532.18	0.092
532.64	0.093
533.09	0.090
533.54	0.093
534.00	0.091
534.45	0.095
534.91	0.097
535.36	0.095
535.81	0.093
536.27	0.094
536.72	0.097
537.17	0.095
537.63	0.095
538.08	0.095
538.54	0.097
538.99	0.096
539.44	0.097
539.90	0.096
540.35	0.096
540.80	0.098
541.26	0.100
541.71	0.096
542.16	0.097
542.62	0.099
543.07	0.100
543.52	0.102
543.98	0.100
544.43	0.102
544.88	0.099
545.34	0.101
545.79	0.101
546.24	0.101
546.69	0.106
547.15	0.103
547.60	0.103
548.05	0.105
548.51	0.104
548.96	0.105
549.41	0.108
549.86	0.108
550.32	0.109
550.77	0.109
551.22	0.108
551.68	0.110
552.13	0.108
552.58	0.109
553.03	0.111
553.49	0.112
553.94	0.112
554.39	0.113
554.84	0.115
555.30	0.114
555.75	0.115
556.20	0.116
556.65	0.116
557.11	0.117
557.56	0.117
558.01	0.121
558.46	0.121
558.92	0.120
559.37	0.121
559.82	0.123
560.27	0.124
560.72	0.124
561.18	0.123
561.63	0.124
562.08	0.125
562.53	0.126
562.99	0.128
563.44	0.128
563.89	0.128
564.34	0.130
564.79	0.132
565.25	0.131
565.70	0.131
566.15	0.132
566.60	0.133
567.05	0.135
567.50	0.135
567.96	0.136
568.41	0.136
568.86	0.137
569.31	0.138
569.76	0.140
570.21	0.141
570.67	0.142
571.12	0.143
571.57	0.144
572.02	0.145
572.47	0.146
572.92	0.147
573.37	0.148
573.83	0.148
574.28	0.150
574.73	0.150
575.18	0.154
575.63	0.157
576.08	0.154
576.53	0.157
576.98	0.158
577.44	0.157
577.89	0.159
578.34	0.161
578.79	0.162
579.24	0.165
579.69	0.167
580.14	0.165
580.59	0.169
581.04	0.170
581.49	0.171
581.95	0.173
582.40	0.175
582.85	0.176
583.30	0.177
583.75	0.180
584.20	0.182
584.65	0.185
585.10	0.187
585.55	0.189
586.00	0.191
586.45	0.193
586.90	0.196
587.35	0.197
587.80	0.198
588.25	0.202
588.71	0.205
589.16	0.205
589.61	0.208
590.06	0.210
590.51	0.216
590.96	0.214
591.41	0.218
591.86	0.223
592.31	0.223
592.76	0.227
593.21	0.228
593.66	0.232
594.11	0.234
594.56	0.237
595.01	0.240
595.46	0.243
595.91	0.245
596.36	0.248
596.81	0.249
597.26	0.253
597.71	0.256
598.16	0.259
598.61	0.261
599.06	0.265
599.51	0.271
599.96	0.274
600.41	0.274
600.86	0.278
601.31	0.281
601.76	0.283
602.21	0.286
602.65	0.289
603.10	0.291
603.55	0.294
604.00	0.296
604.45	0.298
604.90	0.303
605.35	0.304
605.80	0.307
606.25	0.313
606.70	0.312
607.15	0.314
607.60	0.317
608.05	0.317
608.50	0.320
608.95	0.323
609.39	0.327
609.84	0.329
610.29	0.329
610.74	0.329
611.19	0.331
611.64	0.333
612.09	0.335
612.54	0.336
612.99	0.342
613.44	0.338
613.88	0.342
614.33	0.344
614.78	0.340
615.23	0.343
615.68	0.345
616.13	0.346
616.58	0.344
617.03	0.346
617.47	0.349
617.92	0.348
618.37	0.346
618.82	0.349
619.27	0.349
619.72	0.349
620.17	0.349
620.61	0.350
621.06	0.350
621.51	0.353
621.96	0.352
622.41	0.354
622.86	0.355
623.30	0.353
623.75	0.357
624.20	0.356
624.65	0.357
625.10	0.358
625.54	0.360
625.99	0.358
626.44	0.361
626.89	0.360
627.34	0.365
627.78	0.362
628.23	0.363
628.68	0.365
629.13	0.368
629.58	0.370
630.02	0.370
630.47	0.373
630.92	0.375
631.37	0.375
631.81	0.381
632.26	0.381
632.71	0.384
633.16	0.387
633.61	0.388
634.05	0.389
634.50	0.392
634.95	0.396
635.40	0.399
635.84	0.402
636.29	0.406
636.74	0.409
637.18	0.409
637.63	0.413
638.08	0.414
638.53	0.420
638.97	0.425
639.42	0.428
639.87	0.433
640.32	0.435
640.76	0.440
641.21	0.445
641.66	0.449
642.10	0.454
642.55	0.455
643.00	0.461
643.44	0.468
643.89	0.472
644.34	0.477
644.79	0.481
645.23	0.484
645.68	0.490
646.13	0.493
646.57	0.502
647.02	0.504
647.47	0.511
647.91	0.516
648.36	0.520
648.81	0.524
649.25	0.527
649.70	0.533
650.15	0.539
650.59	0.546
651.04	0.548
651.48	0.557
651.93	0.559
652.38	0.562
652.82	0.569
653.27	0.571
653.72	0.575
654.16	0.577
654.61	0.586
655.06	0.586
655.50	0.591
655.95	0.593
656.39	0.599
656.84	0.603
657.29	0.608
657.73	0.614
658.18	0.612
658.62	0.620
659.07	0.623
659.52	0.626
659.96	0.630
660.41	0.634
660.85	0.634
661.30	0.637
661.74	0.642
662.19	0.642
662.64	0.644
663.08	0.647
663.53	0.649
663.97	0.651
664.42	0.655
664.86	0.655
665.31	0.655
665.75	0.654
666.20	0.656
666.65	0.656
667.09	0.654
667.54	0.655
667.98	0.654
668.43	0.649
668.87	0.646
669.32	0.645
669.76	0.639
670.21	0.637
670.65	0.635
671.10	0.628
671.54	0.623
671.99	0.616
672.43	0.610
672.88	0.603
673.32	0.596
673.77	0.586
674.21	0.576
674.66	0.571
675.10	0.562
675.55	0.548
675.99	0.540
676.44	0.531
676.88	0.520
677.33	0.510
677.77	0.499
678.22	0.486
678.66	0.474
679.11	0.463
679.55	0.453
679.99	0.438
680.44	0.427
680.88	0.413
681.33	0.404
681.77	0.390
682.22	0.378
682.66	0.367
683.11	0.354
683.55	0.344
683.99	0.330
684.44	0.320
684.88	0.309
685.33	0.299
685.77	0.288
686.21	0.279
686.66	0.267
687.10	0.259
687.55	0.249
687.99	0.241
688.44	0.232
688.88	0.225
689.32	0.218
689.77	0.210
690.21	0.199
690.65	0.193
691.10	0.187
691.54	0.180
691.99	0.173
692.43	0.164
692.87	0.160
693.32	0.157
693.76	0.151
694.20	0.145
694.65	0.141
695.09	0.136
695.53	0.130
695.98	0.127
696.42	0.122
696.86	0.118
697.31	0.110
697.75	0.109
698.19	0.107
698.64	0.103
699.08	0.101
699.52	0.099
699.97	0.095
700.41	0.093
700.85	0.092
701.30	0.087
701.74	0.087
702.18	0.084
702.63	0.079
703.07	0.080
703.51	0.079
703.96	0.076
704.40	0.074
704.84	0.075
705.28	0.071
705.73	0.069
706.17	0.070
706.61	0.065
707.06	0.065
707.50	0.066
707.94	0.063
708.38	0.061
708.83	0.065
709.27	0.063
709.71	0.060
710.15	0.060
710.60	0.058
711.04	0.056
711.48	0.058
711.92	0.057
712.37	0.054
712.81	0.057
713.25	0.053
713.69	0.053
714.13	0.055
714.58	0.053
715.02	0.053
715.46	0.051
715.90	0.052
716.35	0.050
716.79	0.052
717.23	0.052
717.67	0.050
718.11	0.049
718.56	0.049
719.00	0.048
719.44	0.050
719.88	0.049
720.32	0.050
720.76	0.050
721.21	0.047
721.65	0.049
722.09	0.048
722.53	0.048
722.97	0.051
723.41	0.047
723.86	0.048
724.30	0.046
724.74	0.048
725.18	0.049
725.62	0.047
726.06	0.049
726.50	0.048
726.95	0.047
727.39	0.047
727.83	0.048
728.27	0.047
728.71	0.048
729.15	0.047
729.59	0.049
730.03	0.045
730.48	0.048
730.92	0.047
731.36	0.049
731.80	0.049
732.24	0.050
732.68	0.048
733.12	0.047
733.56	0.048
734.00	0.048
734.44	0.047
734.89	0.049
735.33	0.050
735.77	0.051
736.21	0.047
736.65	0.048
737.09	0.048
737.53	0.050
737.97	0.050
738.41	0.051
738.85	0.051
739.29	0.052
739.73	0.049
740.17	0.050
740.61	0.049
741.05	0.051
741.49	0.051
741.93	0.049
742.37	0.049
742.81	0.048
743.26	0.049
743.70	0.048
744.14	0.050
744.58	0.049
745.02	0.048
745.46	0.048
745.90	0.049
746.34	0.048
746.78	0.047
747.22	0.051
747.66	0.050
748.10	0.050
748.54	0.049
748.98	0.046
749.42	0.048
749.86	0.050
750.29	0.049
750.73	0.049
751.17	0.048
751.61	0.048
752.05	0.049
752.49	0.046
752.93	0.045
753.37	0.046
753.81	0.047
754.25	0.046
754.69	0.048
755.13	0.049
755.57	0.050
756.01	0.049
756.45	0.048
756.89	0.049
757.33	0.050
757.77	0.049
758.21	0.048
758.64	0.044
759.08	0.046
759.52	0.048
759.96	0.049
760.40	0.047
760.84	0.046
761.28	0.049
761.72	0.047
762.16	0.049
762.60	0.047
763.03	0.048
763.47	0.048
763.91	0.049
764.35	0.047
764.79	0.046
765.23	0.046
765.67	0.047
766.11	0.044
766.54	0.045
766.98	0.049
767.42	0.048
767.86	0.043
768.30	0.049
768.74	0.050
769.17	0.050
769.61	0.047
770.05	0.047
770.49	0.049
770.93	0.049
771.37	0.046
771.80	0.047
772.24	0.046
772.68	0.045
773.12	0.047
773.56	0.045
774.00	0.046
774.43	0.045
774.87	0.047
775.31	0.046
775.75	0.044
776.19	0.045
776.62	0.047
777.06	0.048
777.50	0.047
777.94	0.045
778.37	0.044
778.81	0.045
779.25	0.048
779.69	0.046
780.13	0.048
780.56	0.044
781.00	0.043
781.44	0.045
781.88	0.048
782.31	0.044
782.75	0.044
783.19	0.047
783.63	0.045
784.06	0.043
784.50	0.049
784.94	0.043
785.37	0.045
785.81	0.047
786.25	0.046
786.69	0.043
787.12	0.046
787.56	0.043
788.00	0.046
788.43	0.048
788.87	0.046
789.31	0.046
789.75	0.044
790.18	0.044
790.62	0.045
791.06	0.045
791.49	0.042
791.93	0.042
792.37	0.047
792.80	0.043
793.24	0.043
793.68	0.047
794.11	0.045
794.55	0.048
794.99	0.048
795.42	0.047
795.86	0.049
796.30	0.044
796.73	0.047
797.17	0.048
797.61	0.044
798.04	0.044
798.48	0.046
798.91	0.043
799.35	0.042
799.79	0.048
800.22	0.048
800.66	0.046
801.10	0.046
801.53	0.044
801.97	0.047
802.40	0.045
802.84	0.045
803.28	0.046
803.71	0.044
804.15	0.044
804.58	0.046
805.02	0.049
805.46	0.046
805.89	0.049
806.33	0.048
806.76	0.047
807.20	0.047
807.63	0.045
808.07	0.049
808.51	0.045
808.94	0.044
809.38	0.043
809.81	0.043
810.25	0.049
810.68	0.047
811.12	0.049
811.55	0.049
811.99	0.046
812.42	0.048
812.86	0.048
813.29	0.047
813.73	0.046
814.17	0.043
814.60	0.045
815.04	0.045
815.47	0.045
815.91	0.047
816.34	0.050
816.78	0.046
817.21	0.050
