SpectraSuite Data File
++++++++++++++++++++++++++++++++++++
Date: Sun Apr 24 16:54:04 CEST 2016
User: spectrasuite
Dark Spectrum Present: Yes
Reference Spectrum Present: Yes
Number of Sampled Component Spectra: 1
Spectrometers: HR+C0708
Integration Time (usec): 1000 (HR+C0708)
Spectra Averaged: 10 (HR+C0708)
Boxcar Smoothing: 0 (HR+C0708)
Correct for Electrical Dark: No (HR+C0708)
Strobe/Lamp Enabled: No (HR+C0708)
Correct for Detector Non-linearity: No (HR+C0708)
Correct for Stray Light: No (HR+C0708)
Number of Pixels in Processed Spectrum: 2048
>>>>>Begin Processed Spectral Data<<<<<
188.76	-0.000
189.23	-0.000
189.70	-0.000
190.17	-0.000
190.64	-0.000
191.12	-0.000
191.59	-0.000
192.06	-0.000
192.53	-0.000
193.01	-0.000
193.48	-0.000
193.95	-0.000
194.42	-0.000
194.90	-0.000
195.37	-0.000
195.84	-0.000
196.31	-0.000
196.78	-0.000
197.26	-0.000
197.73	-0.000
198.20	-0.000
198.67	-0.000
199.14	-0.000
199.62	-0.000
200.09	-0.000
200.56	-0.000
201.03	-0.000
201.50	-0.000
201.97	-0.000
202.45	1.853
202.92	-0.000
203.39	1.395
203.86	1.333
204.33	-0.000
204.80	-0.000
205.28	-0.000
205.75	-0.000
206.22	1.203
206.69	-0.000
207.16	-0.000
207.63	-0.000
208.11	0.924
208.58	-0.000
209.05	-0.000
209.52	-0.000
209.99	1.581
210.46	1.101
210.93	-0.000
211.41	1.641
211.88	-0.000
212.35	-0.000
212.82	-0.000
213.29	-0.000
213.76	-0.000
214.23	-0.000
214.70	-0.000
215.18	1.233
215.65	-0.000
216.12	-0.000
216.59	1.230
217.06	1.676
217.53	1.785
218.00	1.735
218.47	-0.000
218.94	-0.000
219.41	-0.000
219.89	-0.000
220.36	-0.000
220.83	-0.000
221.30	-0.000
221.77	1.081
222.24	-0.000
222.71	-0.000
223.18	-0.000
223.65	2.328
224.12	-0.000
224.59	-0.000
225.06	-0.000
225.54	1.352
226.01	2.523
226.48	-0.000
226.95	-0.000
227.42	-0.000
227.89	-0.000
228.36	1.666
228.83	2.096
229.30	-0.000
229.77	-0.000
230.24	1.970
230.71	-0.000
231.18	-0.000
231.65	-0.000
232.12	2.050
232.59	-0.000
233.06	-0.000
233.53	-0.000
234.00	3.175
234.47	2.333
234.94	-0.000
235.41	3.775
235.88	2.267
236.35	-0.000
236.82	2.814
237.29	3.751
237.76	-0.000
238.23	-0.000
238.70	2.534
239.17	2.434
239.64	-0.000
240.11	-0.000
240.58	-0.000
241.05	3.025
241.52	2.908
241.99	-0.000
242.46	2.936
242.93	4.264
243.40	-0.000
243.87	2.774
244.34	2.979
244.81	-0.000
245.28	-0.000
245.75	-0.000
246.22	-0.000
246.69	-0.000
247.16	3.573
247.63	2.988
248.10	-0.000
248.57	-0.000
249.04	-0.000
249.51	-0.000
249.98	-0.000
250.45	2.989
250.92	2.916
251.39	-0.000
251.85	3.599
252.32	-0.000
252.79	-0.000
253.26	-0.000
253.73	-0.000
254.20	3.059
254.67	3.483
255.14	3.832
255.61	-0.000
256.08	-0.000
256.55	4.159
257.02	3.247
257.49	-0.000
257.95	3.002
258.42	2.948
258.89	3.164
259.36	2.726
259.83	3.071
260.30	3.266
260.77	3.189
261.24	2.788
261.71	3.007
262.17	3.021
262.64	2.565
263.11	2.757
263.58	2.869
264.05	2.940
264.52	2.642
264.99	2.780
265.46	2.642
265.92	2.629
266.39	2.562
266.86	2.726
267.33	2.650
267.80	2.424
268.27	2.583
268.74	2.595
269.20	2.597
269.67	2.518
270.14	2.383
270.61	2.380
271.08	2.387
271.55	2.353
272.01	2.379
272.48	2.326
272.95	2.371
273.42	2.383
273.89	2.301
274.36	2.268
274.82	2.267
275.29	2.254
275.76	2.265
276.23	2.195
276.70	2.255
277.16	2.192
277.63	2.139
278.10	2.202
278.57	2.151
279.04	2.098
279.50	2.174
279.97	2.122
280.44	2.060
280.91	2.051
281.38	2.030
281.84	2.068
282.31	2.061
282.78	2.053
283.25	2.048
283.72	1.984
284.18	1.994
284.65	2.002
285.12	1.952
285.59	1.932
286.05	1.997
286.52	1.939
286.99	1.947
287.46	1.942
287.92	1.907
288.39	1.909
288.86	1.941
289.33	1.894
289.79	1.885
290.26	1.862
290.73	1.865
291.20	1.860
291.66	1.857
292.13	1.839
292.60	1.816
293.07	1.800
293.53	1.796
294.00	1.825
294.47	1.800
294.93	1.798
295.40	1.763
295.87	1.770
296.34	1.772
296.80	1.729
297.27	1.738
297.74	1.729
298.20	1.723
298.67	1.712
299.14	1.722
299.60	1.705
300.07	1.723
300.54	1.687
301.01	1.674
301.47	1.680
301.94	1.646
302.41	1.657
302.87	1.664
303.34	1.667
303.81	1.645
304.27	1.625
304.74	1.613
305.21	1.619
305.67	1.614
306.14	1.577
306.61	1.600
307.07	1.587
307.54	1.580
308.01	1.587
308.47	1.569
308.94	1.578
309.40	1.569
309.87	1.548
310.34	1.543
310.80	1.555
311.27	1.527
311.74	1.525
312.20	1.507
312.67	1.520
313.13	1.500
313.60	1.510
314.07	1.496
314.53	1.483
315.00	1.474
315.47	1.494
315.93	1.472
316.40	1.457
316.86	1.451
317.33	1.446
317.80	1.439
318.26	1.441
318.73	1.439
319.19	1.447
319.66	1.416
320.13	1.412
320.59	1.409
321.06	1.416
321.52	1.409
321.99	1.389
322.45	1.389
322.92	1.376
323.39	1.386
323.85	1.397
324.32	1.390
324.78	1.365
325.25	1.373
325.71	1.358
326.18	1.350
326.64	1.361
327.11	1.353
327.58	1.330
328.04	1.329
328.51	1.337
328.97	1.319
329.44	1.328
329.90	1.311
330.37	1.308
330.83	1.303
331.30	1.307
331.76	1.292
332.23	1.280
332.69	1.277
333.16	1.266
333.62	1.267
334.09	1.259
334.56	1.251
335.02	1.249
335.49	1.236
335.95	1.222
336.42	1.221
336.88	1.208
337.35	1.202
337.81	1.203
338.28	1.183
338.74	1.196
339.20	1.172
339.67	1.164
340.13	1.153
340.60	1.144
341.06	1.126
341.53	1.129
341.99	1.116
342.46	1.100
342.92	1.093
343.39	1.090
343.85	1.084
344.32	1.065
344.78	1.059
345.25	1.066
345.71	1.043
346.17	1.033
346.64	1.030
347.10	1.006
347.57	0.984
348.03	0.983
348.50	0.961
348.96	0.953
349.43	0.945
349.89	0.929
350.35	0.916
350.82	0.908
351.28	0.899
351.75	0.894
352.21	0.869
352.67	0.856
353.14	0.856
353.60	0.848
354.07	0.827
354.53	0.810
355.00	0.798
355.46	0.795
355.92	0.776
356.39	0.770
356.85	0.766
357.31	0.749
357.78	0.741
358.24	0.730
358.71	0.726
359.17	0.720
359.63	0.719
360.10	0.705
360.56	0.703
361.03	0.699
361.49	0.689
361.95	0.685
362.42	0.682
362.88	0.679
363.34	0.669
363.81	0.662
364.27	0.660
364.73	0.656
365.20	0.656
365.66	0.655
366.12	0.648
366.59	0.641
367.05	0.640
367.51	0.637
367.98	0.631
368.44	0.629
368.90	0.628
369.37	0.626
369.83	0.626
370.29	0.621
370.76	0.622
371.22	0.612
371.68	0.614
372.15	0.611
372.61	0.607
373.07	0.609
373.54	0.603
374.00	0.600
374.46	0.604
374.92	0.599
375.39	0.599
375.85	0.597
376.31	0.594
376.78	0.588
377.24	0.590
377.70	0.587
378.16	0.582
378.63	0.584
379.09	0.580
379.55	0.580
380.01	0.582
380.48	0.576
380.94	0.573
381.40	0.571
381.87	0.569
382.33	0.572
382.79	0.566
383.25	0.567
383.72	0.568
384.18	0.562
384.64	0.561
385.10	0.560
385.56	0.557
386.03	0.552
386.49	0.553
386.95	0.550
387.41	0.548
387.88	0.547
388.34	0.544
388.80	0.547
389.26	0.547
389.72	0.543
390.19	0.546
390.65	0.538
391.11	0.538
391.57	0.535
392.04	0.534
392.50	0.532
392.96	0.528
393.42	0.530
393.88	0.533
394.34	0.530
394.81	0.524
395.27	0.522
395.73	0.521
396.19	0.519
396.65	0.520
397.12	0.516
397.58	0.516
398.04	0.519
398.50	0.515
398.96	0.513
399.42	0.516
399.89	0.508
400.35	0.507
400.81	0.505
401.27	0.506
401.73	0.505
402.19	0.501
402.65	0.503
403.12	0.498
403.58	0.500
404.04	0.498
404.50	0.495
404.96	0.494
405.42	0.496
405.88	0.488
406.34	0.493
406.81	0.489
407.27	0.491
407.73	0.490
408.19	0.485
408.65	0.483
409.11	0.485
409.57	0.484
410.03	0.480
410.49	0.479
410.96	0.479
411.42	0.476
411.88	0.472
412.34	0.472
412.80	0.474
413.26	0.469
413.72	0.469
414.18	0.467
414.64	0.463
415.10	0.468
415.56	0.464
416.02	0.468
416.48	0.463
416.95	0.461
417.41	0.461
417.87	0.463
418.33	0.461
418.79	0.454
419.25	0.457
419.71	0.452
420.17	0.452
420.63	0.451
421.09	0.447
421.55	0.446
422.01	0.450
422.47	0.450
422.93	0.447
423.39	0.445
423.85	0.445
424.31	0.443
424.77	0.443
425.23	0.442
425.69	0.443
426.15	0.440
426.61	0.439
427.07	0.437
427.53	0.435
427.99	0.434
428.45	0.435
428.91	0.434
429.37	0.430
429.83	0.433
430.29	0.429
430.75	0.433
431.21	0.429
431.67	0.427
432.13	0.429
432.59	0.421
433.05	0.425
433.51	0.419
433.97	0.422
434.43	0.423
434.89	0.420
435.35	0.418
435.81	0.418
436.27	0.418
436.73	0.413
437.19	0.417
437.65	0.417
438.11	0.414
438.57	0.415
439.03	0.412
439.48	0.410
439.94	0.409
440.40	0.408
440.86	0.410
441.32	0.406
441.78	0.404
442.24	0.402
442.70	0.401
443.16	0.401
443.62	0.402
444.08	0.401
444.54	0.400
444.99	0.392
445.45	0.397
445.91	0.398
446.37	0.399
446.83	0.396
447.29	0.395
447.75	0.392
448.21	0.393
448.67	0.392
449.12	0.390
449.58	0.391
450.04	0.387
450.50	0.388
450.96	0.394
451.42	0.386
451.88	0.380
452.34	0.388
452.79	0.383
453.25	0.383
453.71	0.380
454.17	0.380
454.63	0.381
455.09	0.380
455.55	0.377
456.00	0.379
456.46	0.377
456.92	0.375
457.38	0.377
457.84	0.372
458.30	0.372
458.75	0.377
459.21	0.367
459.67	0.373
460.13	0.372
460.59	0.370
461.04	0.365
461.50	0.366
461.96	0.365
462.42	0.367
462.88	0.364
463.33	0.363
463.79	0.363
464.25	0.363
464.71	0.362
465.17	0.362
465.62	0.360
466.08	0.362
466.54	0.361
467.00	0.359
467.46	0.360
467.91	0.358
468.37	0.358
468.83	0.356
469.29	0.355
469.74	0.353
470.20	0.353
470.66	0.351
471.12	0.351
471.57	0.350
472.03	0.350
472.49	0.347
472.95	0.350
473.40	0.349
473.86	0.346
474.32	0.345
474.78	0.343
475.23	0.344
475.69	0.347
476.15	0.341
476.60	0.344
477.06	0.341
477.52	0.345
477.98	0.339
478.43	0.340
478.89	0.341
479.35	0.337
479.80	0.339
480.26	0.337
480.72	0.335
481.18	0.340
481.63	0.334
482.09	0.335
482.55	0.334
483.00	0.331
483.46	0.331
483.92	0.331
484.37	0.331
484.83	0.329
485.29	0.327
485.74	0.328
486.20	0.329
486.66	0.329
487.11	0.327
487.57	0.327
488.03	0.325
488.48	0.326
488.94	0.325
489.40	0.323
489.85	0.324
490.31	0.325
490.77	0.322
491.22	0.321
491.68	0.321
492.13	0.320
492.59	0.319
493.05	0.319
493.50	0.316
493.96	0.319
494.42	0.316
494.87	0.314
495.33	0.313
495.78	0.317
496.24	0.315
496.70	0.313
497.15	0.315
497.61	0.313
498.06	0.311
498.52	0.309
498.98	0.308
499.43	0.312
499.89	0.310
500.34	0.309
500.80	0.308
501.25	0.309
501.71	0.306
502.17	0.307
502.62	0.308
503.08	0.306
503.53	0.305
503.99	0.306
504.44	0.306
504.90	0.304
505.36	0.302
505.81	0.304
506.27	0.303
506.72	0.302
507.18	0.301
507.63	0.301
508.09	0.302
508.54	0.297
509.00	0.296
509.45	0.299
509.91	0.297
510.36	0.298
510.82	0.296
511.27	0.295
511.73	0.296
512.19	0.295
512.64	0.292
513.10	0.292
513.55	0.292
514.01	0.293
514.46	0.290
514.92	0.289
515.37	0.291
515.83	0.291
516.28	0.289
516.73	0.289
517.19	0.289
517.64	0.287
518.10	0.288
518.55	0.286
519.01	0.286
519.46	0.284
519.92	0.284
520.37	0.283
520.83	0.283
521.28	0.285
521.74	0.284
522.19	0.281
522.65	0.280
523.10	0.282
523.55	0.280
524.01	0.284
524.46	0.282
524.92	0.280
525.37	0.278
525.83	0.280
526.28	0.277
526.73	0.281
527.19	0.279
527.64	0.278
528.10	0.278
528.55	0.278
529.01	0.276
529.46	0.274
529.91	0.273
530.37	0.274
530.82	0.272
531.28	0.272
531.73	0.272
532.18	0.273
532.64	0.275
533.09	0.270
533.54	0.268
534.00	0.270
534.45	0.272
534.91	0.271
535.36	0.272
535.81	0.271
536.27	0.266
536.72	0.270
537.17	0.267
537.63	0.265
538.08	0.264
538.54	0.267
538.99	0.264
539.44	0.266
539.90	0.264
540.35	0.264
540.80	0.264
541.26	0.265
541.71	0.263
542.16	0.262
542.62	0.261
543.07	0.261
543.52	0.263
543.98	0.262
544.43	0.262
544.88	0.258
545.34	0.261
545.79	0.259
546.24	0.257
546.69	0.260
547.15	0.257
547.60	0.257
548.05	0.257
548.51	0.257
548.96	0.257
549.41	0.258
549.86	0.257
550.32	0.256
550.77	0.255
551.22	0.254
551.68	0.252
552.13	0.252
552.58	0.254
553.03	0.251
553.49	0.253
553.94	0.253
554.39	0.252
554.84	0.252
555.30	0.252
555.75	0.250
556.20	0.249
556.65	0.250
557.11	0.251
557.56	0.250
558.01	0.252
558.46	0.251
558.92	0.248
559.37	0.248
559.82	0.247
560.27	0.248
560.72	0.247
561.18	0.246
561.63	0.246
562.08	0.243
562.53	0.246
562.99	0.248
563.44	0.246
563.89	0.244
564.34	0.243
564.79	0.244
565.25	0.243
565.70	0.242
566.15	0.241
566.60	0.241
567.05	0.240
567.50	0.241
567.96	0.242
568.41	0.240
568.86	0.238
569.31	0.239
569.76	0.238
570.21	0.238
570.67	0.237
571.12	0.238
571.57	0.240
572.02	0.237
572.47	0.237
572.92	0.237
573.37	0.235
573.83	0.234
574.28	0.236
574.73	0.234
575.18	0.235
575.63	0.235
576.08	0.232
576.53	0.234
576.98	0.234
577.44	0.231
577.89	0.233
578.34	0.231
578.79	0.230
579.24	0.231
579.69	0.231
580.14	0.229
580.59	0.226
581.04	0.227
581.49	0.230
581.95	0.227
582.40	0.229
582.85	0.227
583.30	0.227
583.75	0.227
584.20	0.228
584.65	0.227
585.10	0.227
585.55	0.228
586.00	0.225
586.45	0.227
586.90	0.228
587.35	0.226
587.80	0.225
588.25	0.224
588.71	0.227
589.16	0.225
589.61	0.224
590.06	0.225
590.51	0.224
590.96	0.222
591.41	0.223
591.86	0.222
592.31	0.223
592.76	0.222
593.21	0.222
593.66	0.222
594.11	0.222
594.56	0.222
595.01	0.222
595.46	0.220
595.91	0.221
596.36	0.221
596.81	0.222
597.26	0.220
597.71	0.220
598.16	0.221
598.61	0.221
599.06	0.218
599.51	0.220
599.96	0.221
600.41	0.219
600.86	0.220
601.31	0.220
601.76	0.219
602.21	0.220
602.65	0.217
603.10	0.218
603.55	0.216
604.00	0.218
604.45	0.218
604.90	0.217
605.35	0.216
605.80	0.216
606.25	0.219
606.70	0.219
607.15	0.216
607.60	0.214
608.05	0.214
608.50	0.213
608.95	0.212
609.39	0.215
609.84	0.214
610.29	0.215
610.74	0.214
611.19	0.212
611.64	0.213
612.09	0.212
612.54	0.212
612.99	0.213
613.44	0.210
613.88	0.213
614.33	0.211
614.78	0.210
615.23	0.211
615.68	0.210
616.13	0.210
616.58	0.209
617.03	0.209
617.47	0.210
617.92	0.209
618.37	0.209
618.82	0.209
619.27	0.209
619.72	0.208
620.17	0.206
620.61	0.207
621.06	0.208
621.51	0.208
621.96	0.204
622.41	0.208
622.86	0.206
623.30	0.205
623.75	0.207
624.20	0.205
624.65	0.204
625.10	0.205
625.54	0.205
625.99	0.205
626.44	0.204
626.89	0.204
627.34	0.205
627.78	0.203
628.23	0.203
628.68	0.203
629.13	0.203
629.58	0.203
630.02	0.201
630.47	0.203
630.92	0.202
631.37	0.201
631.81	0.201
632.26	0.203
632.71	0.200
633.16	0.202
633.61	0.203
634.05	0.197
634.50	0.198
634.95	0.201
635.40	0.201
635.84	0.201
636.29	0.199
636.74	0.200
637.18	0.200
637.63	0.200
638.08	0.197
638.53	0.198
638.97	0.200
639.42	0.199
639.87	0.198
640.32	0.197
640.76	0.200
641.21	0.198
641.66	0.197
642.10	0.199
642.55	0.199
643.00	0.197
643.44	0.199
643.89	0.199
644.34	0.197
644.79	0.198
645.23	0.198
645.68	0.199
646.13	0.197
646.57	0.195
647.02	0.196
647.47	0.197
647.91	0.195
648.36	0.198
648.81	0.197
649.25	0.196
649.70	0.193
650.15	0.195
650.59	0.196
651.04	0.193
651.48	0.197
651.93	0.194
652.38	0.194
652.82	0.195
653.27	0.195
653.72	0.196
654.16	0.195
654.61	0.195
655.06	0.194
655.50	0.194
655.95	0.192
656.39	0.186
656.84	0.190
657.29	0.196
657.73	0.192
658.18	0.192
658.62	0.195
659.07	0.191
659.52	0.192
659.96	0.190
660.41	0.192
660.85	0.191
661.30	0.190
661.74	0.193
662.19	0.189
662.64	0.189
663.08	0.190
663.53	0.190
663.97	0.188
664.42	0.190
664.86	0.191
665.31	0.189
665.75	0.188
666.20	0.188
666.65	0.189
667.09	0.189
667.54	0.187
667.98	0.186
668.43	0.186
668.87	0.187
669.32	0.185
669.76	0.185
670.21	0.184
670.65	0.182
671.10	0.184
671.54	0.182
671.99	0.181
672.43	0.183
672.88	0.182
673.32	0.181
673.77	0.180
674.21	0.180
674.66	0.180
675.10	0.178
675.55	0.178
675.99	0.181
676.44	0.180
676.88	0.179
677.33	0.178
677.77	0.177
678.22	0.177
678.66	0.174
679.11	0.174
679.55	0.175
679.99	0.174
680.44	0.175
680.88	0.174
681.33	0.174
681.77	0.173
682.22	0.173
682.66	0.173
683.11	0.171
683.55	0.171
683.99	0.170
684.44	0.171
684.88	0.169
685.33	0.170
685.77	0.168
686.21	0.168
686.66	0.168
687.10	0.167
687.55	0.166
687.99	0.168
688.44	0.167
688.88	0.165
689.32	0.166
689.77	0.165
690.21	0.164
690.65	0.164
691.10	0.166
691.54	0.164
691.99	0.165
692.43	0.162
692.87	0.164
693.32	0.163
693.76	0.165
694.20	0.165
694.65	0.162
695.09	0.162
695.53	0.161
695.98	0.161
696.42	0.162
696.86	0.160
697.31	0.159
697.75	0.160
698.19	0.159
698.64	0.159
699.08	0.158
699.52	0.159
699.97	0.162
700.41	0.159
700.85	0.159
701.30	0.157
701.74	0.159
702.18	0.158
702.63	0.157
703.07	0.158
703.51	0.159
703.96	0.158
704.40	0.157
704.84	0.158
705.28	0.156
705.73	0.157
706.17	0.155
706.61	0.155
707.06	0.157
707.50	0.157
707.94	0.154
708.38	0.154
708.83	0.155
709.27	0.155
709.71	0.154
710.15	0.155
710.60	0.153
711.04	0.152
711.48	0.153
711.92	0.156
712.37	0.153
712.81	0.155
713.25	0.154
713.69	0.153
714.13	0.155
714.58	0.154
715.02	0.154
715.46	0.153
715.90	0.150
716.35	0.152
716.79	0.153
717.23	0.153
717.67	0.154
718.11	0.153
718.56	0.156
719.00	0.156
719.44	0.153
719.88	0.152
720.32	0.152
720.76	0.154
721.21	0.153
721.65	0.153
722.09	0.153
722.53	0.152
722.97	0.151
723.41	0.153
723.86	0.153
724.30	0.150
724.74	0.154
725.18	0.153
725.62	0.151
726.06	0.152
726.50	0.150
726.95	0.151
727.39	0.152
727.83	0.150
728.27	0.152
728.71	0.151
729.15	0.152
729.59	0.152
730.03	0.151
730.48	0.152
730.92	0.151
731.36	0.152
731.80	0.152
732.24	0.152
732.68	0.151
733.12	0.151
733.56	0.151
734.00	0.151
734.44	0.151
734.89	0.153
735.33	0.152
735.77	0.154
736.21	0.152
736.65	0.148
737.09	0.153
737.53	0.153
737.97	0.151
738.41	0.151
738.85	0.156
739.29	0.153
739.73	0.151
740.17	0.151
740.61	0.151
741.05	0.152
741.49	0.151
741.93	0.152
742.37	0.149
742.81	0.150
743.26	0.152
743.70	0.149
744.14	0.150
744.58	0.150
745.02	0.149
745.46	0.152
745.90	0.149
746.34	0.149
746.78	0.148
747.22	0.148
747.66	0.150
748.10	0.149
748.54	0.148
748.98	0.147
749.42	0.149
749.86	0.147
750.29	0.148
750.73	0.145
751.17	0.147
751.61	0.146
752.05	0.147
752.49	0.148
752.93	0.145
753.37	0.145
753.81	0.146
754.25	0.147
754.69	0.144
755.13	0.144
755.57	0.147
756.01	0.147
756.45	0.146
756.89	0.145
757.33	0.146
757.77	0.147
758.21	0.144
758.64	0.143
759.08	0.140
759.52	0.147
759.96	0.146
760.40	0.145
760.84	0.144
761.28	0.144
761.72	0.145
762.16	0.145
762.60	0.143
763.03	0.142
763.47	0.142
763.91	0.144
764.35	0.142
764.79	0.143
765.23	0.139
765.67	0.141
766.11	0.142
766.54	0.139
766.98	0.143
767.42	0.143
767.86	0.139
768.30	0.142
768.74	0.145
769.17	0.142
769.61	0.140
770.05	0.141
770.49	0.145
770.93	0.144
771.37	0.140
771.80	0.140
772.24	0.140
772.68	0.140
773.12	0.137
773.56	0.142
774.00	0.139
774.43	0.138
774.87	0.138
775.31	0.137
775.75	0.138
776.19	0.138
776.62	0.139
777.06	0.139
777.50	0.138
777.94	0.139
778.37	0.138
778.81	0.134
779.25	0.138
779.69	0.140
780.13	0.141
780.56	0.139
781.00	0.136
781.44	0.142
781.88	0.139
782.31	0.136
782.75	0.136
783.19	0.139
783.63	0.135
784.06	0.134
784.50	0.139
784.94	0.136
785.37	0.136
785.81	0.139
786.25	0.137
786.69	0.136
787.12	0.136
787.56	0.132
788.00	0.140
788.43	0.136
788.87	0.141
789.31	0.135
789.75	0.136
790.18	0.132
790.62	0.136
791.06	0.138
791.49	0.134
791.93	0.135
792.37	0.139
792.80	0.134
793.24	0.134
793.68	0.136
794.11	0.133
794.55	0.139
794.99	0.137
795.42	0.134
795.86	0.138
796.30	0.133
796.73	0.135
797.17	0.134
797.61	0.131
798.04	0.133
798.48	0.132
798.91	0.135
799.35	0.133
799.79	0.135
800.22	0.137
800.66	0.131
801.10	0.133
801.53	0.130
801.97	0.138
802.40	0.136
802.84	0.135
803.28	0.132
803.71	0.137
804.15	0.130
804.58	0.131
805.02	0.134
805.46	0.134
805.89	0.131
806.33	0.132
806.76	0.132
807.20	0.132
807.63	0.132
808.07	0.136
808.51	0.131
808.94	0.133
809.38	0.133
809.81	0.132
810.25	0.134
810.68	0.133
811.12	0.131
811.55	0.130
811.99	0.131
812.42	0.135
812.86	0.131
813.29	0.130
813.73	0.132
814.17	0.130
814.60	0.132
