SpectraSuite Data File
++++++++++++++++++++++++++++++++++++
Date: Sun Apr 24 13:56:15 CEST 2016
User: spectrasuite
Dark Spectrum Present: Yes
Reference Spectrum Present: Yes
Number of Sampled Component Spectra: 1
Spectrometers: HR+C0708
Integration Time (usec): 1000 (HR+C0708)
Spectra Averaged: 10 (HR+C0708)
Boxcar Smoothing: 0 (HR+C0708)
Correct for Electrical Dark: No (HR+C0708)
Strobe/Lamp Enabled: No (HR+C0708)
Correct for Detector Non-linearity: No (HR+C0708)
Correct for Stray Light: No (HR+C0708)
Number of Pixels in Processed Spectrum: 2048
>>>>>Begin Processed Spectral Data<<<<<
188.76	-0.000
189.23	-0.000
189.70	-0.000
190.17	-0.000
190.64	-0.000
191.12	-0.000
191.59	-0.000
192.06	-0.000
192.53	-0.000
193.01	-0.000
193.48	-0.000
193.95	-0.000
194.42	-0.000
194.90	2.290
195.37	-0.000
195.84	-0.000
196.31	-0.000
196.78	-0.000
197.26	1.237
197.73	-0.000
198.20	-0.000
198.67	-0.000
199.14	-0.000
199.62	-0.000
200.09	-0.000
200.56	-0.000
201.03	0.985
201.50	0.687
201.97	0.731
202.45	-0.000
202.92	1.019
203.39	0.808
203.86	1.600
204.33	1.367
204.80	-0.000
205.28	1.464
205.75	1.063
206.22	0.851
206.69	0.872
207.16	1.417
207.63	0.468
208.11	0.499
208.58	0.997
209.05	0.717
209.52	0.979
209.99	0.866
210.46	0.844
210.93	0.969
211.41	0.675
211.88	0.820
212.35	2.680
212.82	1.484
213.29	0.706
213.76	1.145
214.23	0.753
214.70	1.337
215.18	1.264
215.65	0.739
216.12	0.706
216.59	0.818
217.06	1.161
217.53	0.933
218.00	0.817
218.47	0.942
218.94	1.572
219.41	0.958
219.89	1.157
220.36	1.865
220.83	1.597
221.30	1.246
221.77	0.895
222.24	1.115
222.71	-0.000
223.18	1.257
223.65	1.608
224.12	1.158
224.59	-0.000
225.06	1.513
225.54	1.090
226.01	0.855
226.48	1.341
226.95	1.400
227.42	1.088
227.89	-0.000
228.36	1.624
228.83	1.795
229.30	1.658
229.77	1.578
230.24	1.493
230.71	1.803
231.18	2.362
231.65	1.759
232.12	1.753
232.59	2.739
233.06	2.334
233.53	1.768
234.00	2.008
234.47	2.248
234.94	-0.000
235.41	1.989
235.88	2.568
236.35	-0.000
236.82	2.094
237.29	2.125
237.76	2.428
238.23	2.994
238.70	2.344
239.17	2.206
239.64	2.295
240.11	2.661
240.58	2.649
241.05	3.431
241.52	2.540
241.99	2.422
242.46	3.270
242.93	3.118
243.40	2.609
243.87	2.436
244.34	2.416
244.81	2.771
245.28	4.344
245.75	3.086
246.22	-0.000
246.69	2.769
247.16	2.626
247.63	3.034
248.10	2.544
248.57	2.802
249.04	3.042
249.51	3.024
249.98	-0.000
250.45	2.789
250.92	2.749
251.39	3.762
251.85	2.927
252.32	3.018
252.79	2.930
253.26	2.722
253.73	-0.000
254.20	2.969
254.67	2.745
255.14	2.923
255.61	2.883
256.08	2.949
256.55	-0.000
257.02	2.760
257.49	3.168
257.95	3.152
258.42	3.278
258.89	2.837
259.36	2.935
259.83	3.109
260.30	-0.000
260.77	3.301
261.24	2.954
261.71	3.614
262.17	2.889
262.64	2.754
263.11	3.069
263.58	3.803
264.05	2.964
264.52	2.817
264.99	2.966
265.46	3.013
265.92	3.197
266.39	3.052
266.86	3.733
267.33	3.115
267.80	2.697
268.27	3.442
268.74	2.996
269.20	2.926
269.67	3.085
270.14	2.812
270.61	2.893
271.08	2.754
271.55	2.808
272.01	2.803
272.48	2.801
272.95	2.699
273.42	2.904
273.89	2.944
274.36	2.971
274.82	2.808
275.29	2.773
275.76	2.665
276.23	2.645
276.70	2.997
277.16	2.662
277.63	2.687
278.10	2.673
278.57	2.799
279.04	2.596
279.50	2.695
279.97	2.811
280.44	2.415
280.91	2.619
281.38	2.541
281.84	2.567
282.31	2.916
282.78	2.894
283.25	2.713
283.72	2.526
284.18	2.732
284.65	2.633
285.12	2.634
285.59	2.499
286.05	2.635
286.52	2.482
286.99	2.678
287.46	2.662
287.92	2.602
288.39	2.599
288.86	2.641
289.33	2.470
289.79	2.551
290.26	2.533
290.73	2.410
291.20	2.518
291.66	2.489
292.13	2.480
292.60	2.481
293.07	2.403
293.53	2.416
294.00	2.484
294.47	2.418
294.93	2.429
295.40	2.492
295.87	2.473
296.34	2.409
296.80	2.339
297.27	2.399
297.74	2.354
298.20	2.394
298.67	2.305
299.14	2.383
299.60	2.343
300.07	2.275
300.54	2.343
301.01	2.264
301.47	2.212
301.94	2.233
302.41	2.250
302.87	2.225
303.34	2.367
303.81	2.255
304.27	2.313
304.74	2.219
305.21	2.183
305.67	2.279
306.14	2.188
306.61	2.257
307.07	2.164
307.54	2.173
308.01	2.205
308.47	2.181
308.94	2.268
309.40	2.201
309.87	2.211
310.34	2.170
310.80	2.176
311.27	2.195
311.74	2.164
312.20	2.249
312.67	2.160
313.13	2.142
313.60	2.177
314.07	2.138
314.53	2.133
315.00	2.124
315.47	2.205
315.93	2.199
316.40	2.151
316.86	2.147
317.33	2.117
317.80	2.111
318.26	2.153
318.73	2.162
319.19	2.109
319.66	2.107
320.13	2.095
320.59	2.107
321.06	2.074
321.52	2.053
321.99	2.075
322.45	2.088
322.92	2.023
323.39	2.035
323.85	2.092
324.32	2.039
324.78	2.020
325.25	2.007
325.71	1.993
326.18	1.983
326.64	2.012
327.11	1.969
327.58	1.969
328.04	1.914
328.51	1.918
328.97	1.939
329.44	1.884
329.90	1.856
330.37	1.885
330.83	1.847
331.30	1.867
331.76	1.797
332.23	1.810
332.69	1.796
333.16	1.728
333.62	1.718
334.09	1.697
334.56	1.690
335.02	1.648
335.49	1.606
335.95	1.571
336.42	1.522
336.88	1.516
337.35	1.487
337.81	1.459
338.28	1.411
338.74	1.372
339.20	1.346
339.67	1.311
340.13	1.274
340.60	1.241
341.06	1.202
341.53	1.171
341.99	1.143
342.46	1.099
342.92	1.070
343.39	1.031
343.85	1.008
344.32	0.989
344.78	0.960
345.25	0.935
345.71	0.914
346.17	0.893
346.64	0.863
347.10	0.831
347.57	0.805
348.03	0.773
348.50	0.750
348.96	0.729
349.43	0.715
349.89	0.691
350.35	0.671
350.82	0.665
351.28	0.645
351.75	0.625
352.21	0.612
352.67	0.594
353.14	0.585
353.60	0.566
354.07	0.550
354.53	0.539
355.00	0.528
355.46	0.518
355.92	0.507
356.39	0.499
356.85	0.492
357.31	0.485
357.78	0.478
358.24	0.466
358.71	0.461
359.17	0.460
359.63	0.451
360.10	0.446
360.56	0.440
361.03	0.439
361.49	0.432
361.95	0.425
362.42	0.423
362.88	0.422
363.34	0.416
363.81	0.414
364.27	0.410
364.73	0.408
365.20	0.406
365.66	0.405
366.12	0.405
366.59	0.396
367.05	0.396
367.51	0.397
367.98	0.394
368.44	0.391
368.90	0.393
369.37	0.388
369.83	0.387
370.29	0.386
370.76	0.381
371.22	0.383
371.68	0.383
372.15	0.378
372.61	0.373
373.07	0.375
373.54	0.374
374.00	0.371
374.46	0.371
374.92	0.371
375.39	0.367
375.85	0.368
376.31	0.366
376.78	0.363
377.24	0.363
377.70	0.362
378.16	0.360
378.63	0.359
379.09	0.357
379.55	0.356
380.01	0.357
380.48	0.354
380.94	0.352
381.40	0.348
381.87	0.348
382.33	0.350
382.79	0.349
383.25	0.345
383.72	0.348
384.18	0.346
384.64	0.343
385.10	0.343
385.56	0.344
386.03	0.339
386.49	0.337
386.95	0.337
387.41	0.338
387.88	0.337
388.34	0.335
388.80	0.332
389.26	0.332
389.72	0.335
390.19	0.332
390.65	0.329
391.11	0.327
391.57	0.327
392.04	0.326
392.50	0.324
392.96	0.324
393.42	0.322
393.88	0.325
394.34	0.319
394.81	0.320
395.27	0.319
395.73	0.320
396.19	0.318
396.65	0.317
397.12	0.313
397.58	0.313
398.04	0.313
398.50	0.313
398.96	0.311
399.42	0.315
399.89	0.311
400.35	0.308
400.81	0.306
401.27	0.307
401.73	0.306
402.19	0.304
402.65	0.302
403.12	0.302
403.58	0.304
404.04	0.301
404.50	0.303
404.96	0.301
405.42	0.299
405.88	0.297
406.34	0.299
406.81	0.298
407.27	0.298
407.73	0.296
408.19	0.295
408.65	0.292
409.11	0.292
409.57	0.295
410.03	0.289
410.49	0.293
410.96	0.289
411.42	0.291
411.88	0.287
412.34	0.284
412.80	0.290
413.26	0.285
413.72	0.286
414.18	0.285
414.64	0.282
415.10	0.286
415.56	0.284
416.02	0.281
416.48	0.282
416.95	0.276
417.41	0.279
417.87	0.275
418.33	0.277
418.79	0.278
419.25	0.276
419.71	0.275
420.17	0.275
420.63	0.274
421.09	0.273
421.55	0.269
422.01	0.273
422.47	0.272
422.93	0.270
423.39	0.271
423.85	0.270
424.31	0.269
424.77	0.267
425.23	0.269
425.69	0.267
426.15	0.265
426.61	0.264
427.07	0.264
427.53	0.265
427.99	0.262
428.45	0.264
428.91	0.264
429.37	0.261
429.83	0.260
430.29	0.257
430.75	0.262
431.21	0.262
431.67	0.260
432.13	0.260
432.59	0.254
433.05	0.260
433.51	0.255
433.97	0.255
434.43	0.256
434.89	0.257
435.35	0.255
435.81	0.251
436.27	0.250
436.73	0.252
437.19	0.252
437.65	0.253
438.11	0.253
438.57	0.253
439.03	0.251
439.48	0.250
439.94	0.247
440.40	0.247
440.86	0.248
441.32	0.246
441.78	0.248
442.24	0.247
442.70	0.244
443.16	0.242
443.62	0.238
444.08	0.241
444.54	0.243
444.99	0.241
445.45	0.242
445.91	0.242
446.37	0.241
446.83	0.240
447.29	0.238
447.75	0.237
448.21	0.243
448.67	0.241
449.12	0.235
449.58	0.238
450.04	0.234
450.50	0.237
450.96	0.237
451.42	0.234
451.88	0.232
452.34	0.232
452.79	0.233
453.25	0.233
453.71	0.231
454.17	0.230
454.63	0.236
455.09	0.231
455.55	0.230
456.00	0.230
456.46	0.228
456.92	0.227
457.38	0.226
457.84	0.227
458.30	0.225
458.75	0.227
459.21	0.221
459.67	0.229
460.13	0.228
460.59	0.224
461.04	0.222
461.50	0.224
461.96	0.223
462.42	0.221
462.88	0.224
463.33	0.224
463.79	0.219
464.25	0.221
464.71	0.221
465.17	0.218
465.62	0.218
466.08	0.221
466.54	0.218
467.00	0.218
467.46	0.219
467.91	0.220
468.37	0.217
468.83	0.216
469.29	0.217
469.74	0.217
470.20	0.216
470.66	0.213
471.12	0.213
471.57	0.214
472.03	0.217
472.49	0.214
472.95	0.214
473.40	0.213
473.86	0.210
474.32	0.211
474.78	0.212
475.23	0.211
475.69	0.213
476.15	0.212
476.60	0.212
477.06	0.210
477.52	0.207
477.98	0.208
478.43	0.209
478.89	0.207
479.35	0.205
479.80	0.207
480.26	0.206
480.72	0.203
481.18	0.207
481.63	0.204
482.09	0.206
482.55	0.206
483.00	0.204
483.46	0.203
483.92	0.201
484.37	0.203
484.83	0.200
485.29	0.201
485.74	0.201
486.20	0.202
486.66	0.201
487.11	0.200
487.57	0.198
488.03	0.199
488.48	0.197
488.94	0.198
489.40	0.197
489.85	0.198
490.31	0.199
490.77	0.197
491.22	0.197
491.68	0.194
492.13	0.193
492.59	0.194
493.05	0.195
493.50	0.194
493.96	0.194
494.42	0.194
494.87	0.191
495.33	0.192
495.78	0.195
496.24	0.193
496.70	0.190
497.15	0.191
497.61	0.193
498.06	0.192
498.52	0.190
498.98	0.190
499.43	0.191
499.89	0.190
500.34	0.188
500.80	0.187
501.25	0.189
501.71	0.187
502.17	0.187
502.62	0.188
503.08	0.188
503.53	0.182
503.99	0.185
504.44	0.186
504.90	0.187
505.36	0.183
505.81	0.186
506.27	0.183
506.72	0.185
507.18	0.182
507.63	0.182
508.09	0.184
508.54	0.179
509.00	0.182
509.45	0.183
509.91	0.180
510.36	0.181
510.82	0.181
511.27	0.181
511.73	0.182
512.19	0.178
512.64	0.181
513.10	0.178
513.55	0.182
514.01	0.178
514.46	0.180
514.92	0.178
515.37	0.180
515.83	0.180
516.28	0.178
516.73	0.178
517.19	0.179
517.64	0.175
518.10	0.176
518.55	0.178
519.01	0.175
519.46	0.175
519.92	0.176
520.37	0.171
520.83	0.174
521.28	0.175
521.74	0.175
522.19	0.174
522.65	0.172
523.10	0.173
523.55	0.170
524.01	0.172
524.46	0.170
524.92	0.169
525.37	0.168
525.83	0.168
526.28	0.169
526.73	0.170
527.19	0.173
527.64	0.172
528.10	0.169
528.55	0.168
529.01	0.170
529.46	0.166
529.91	0.170
530.37	0.168
530.82	0.168
531.28	0.166
531.73	0.165
532.18	0.166
532.64	0.167
533.09	0.165
533.54	0.164
534.00	0.164
534.45	0.169
534.91	0.167
535.36	0.166
535.81	0.166
536.27	0.162
536.72	0.165
537.17	0.163
537.63	0.163
538.08	0.161
538.54	0.162
538.99	0.163
539.44	0.161
539.90	0.162
540.35	0.161
540.80	0.159
541.26	0.160
541.71	0.161
542.16	0.162
542.62	0.159
543.07	0.160
543.52	0.161
543.98	0.159
544.43	0.159
544.88	0.158
545.34	0.159
545.79	0.158
546.24	0.156
546.69	0.159
547.15	0.158
547.60	0.159
548.05	0.158
548.51	0.155
548.96	0.156
549.41	0.156
549.86	0.155
550.32	0.156
550.77	0.156
551.22	0.153
551.68	0.153
552.13	0.155
552.58	0.152
553.03	0.154
553.49	0.154
553.94	0.154
554.39	0.151
554.84	0.154
555.30	0.153
555.75	0.153
556.20	0.152
556.65	0.152
557.11	0.152
557.56	0.151
558.01	0.153
558.46	0.154
558.92	0.150
559.37	0.150
559.82	0.150
560.27	0.151
560.72	0.151
561.18	0.149
561.63	0.149
562.08	0.146
562.53	0.150
562.99	0.150
563.44	0.148
563.89	0.147
564.34	0.150
564.79	0.149
565.25	0.148
565.70	0.145
566.15	0.146
566.60	0.144
567.05	0.146
567.50	0.145
567.96	0.146
568.41	0.146
568.86	0.145
569.31	0.144
569.76	0.145
570.21	0.144
570.67	0.142
571.12	0.144
571.57	0.145
572.02	0.143
572.47	0.143
572.92	0.142
573.37	0.143
573.83	0.141
574.28	0.142
574.73	0.142
575.18	0.141
575.63	0.143
576.08	0.140
576.53	0.143
576.98	0.142
577.44	0.138
577.89	0.138
578.34	0.139
578.79	0.139
579.24	0.138
579.69	0.139
580.14	0.137
580.59	0.138
581.04	0.137
581.49	0.138
581.95	0.137
582.40	0.136
582.85	0.137
583.30	0.135
583.75	0.137
584.20	0.138
584.65	0.135
585.10	0.137
585.55	0.136
586.00	0.136
586.45	0.135
586.90	0.137
587.35	0.137
587.80	0.135
588.25	0.135
588.71	0.135
589.16	0.134
589.61	0.135
590.06	0.134
590.51	0.135
590.96	0.134
591.41	0.134
591.86	0.132
592.31	0.133
592.76	0.133
593.21	0.132
593.66	0.135
594.11	0.133
594.56	0.133
595.01	0.134
595.46	0.133
595.91	0.130
596.36	0.133
596.81	0.132
597.26	0.130
597.71	0.132
598.16	0.131
598.61	0.131
599.06	0.132
599.51	0.132
599.96	0.132
600.41	0.131
600.86	0.129
601.31	0.130
601.76	0.130
602.21	0.133
602.65	0.131
603.10	0.130
603.55	0.129
604.00	0.130
604.45	0.130
604.90	0.129
605.35	0.127
605.80	0.128
606.25	0.131
606.70	0.128
607.15	0.128
607.60	0.129
608.05	0.127
608.50	0.127
608.95	0.126
609.39	0.130
609.84	0.128
610.29	0.127
610.74	0.128
611.19	0.125
611.64	0.127
612.09	0.127
612.54	0.127
612.99	0.128
613.44	0.124
613.88	0.126
614.33	0.127
614.78	0.125
615.23	0.125
615.68	0.126
616.13	0.126
616.58	0.125
617.03	0.124
617.47	0.125
617.92	0.125
618.37	0.123
618.82	0.123
619.27	0.124
619.72	0.123
620.17	0.121
620.61	0.123
621.06	0.122
621.51	0.123
621.96	0.120
622.41	0.122
622.86	0.123
623.30	0.123
623.75	0.125
624.20	0.122
624.65	0.121
625.10	0.120
625.54	0.121
625.99	0.122
626.44	0.121
626.89	0.119
627.34	0.123
627.78	0.120
628.23	0.119
628.68	0.120
629.13	0.119
629.58	0.119
630.02	0.120
630.47	0.118
630.92	0.118
631.37	0.117
631.81	0.119
632.26	0.120
632.71	0.118
633.16	0.117
633.61	0.119
634.05	0.118
634.50	0.119
634.95	0.118
635.40	0.120
635.84	0.119
636.29	0.118
636.74	0.118
637.18	0.118
637.63	0.118
638.08	0.117
638.53	0.117
638.97	0.118
639.42	0.118
639.87	0.118
640.32	0.116
640.76	0.118
641.21	0.118
641.66	0.118
642.10	0.115
642.55	0.115
643.00	0.116
643.44	0.117
643.89	0.116
644.34	0.116
644.79	0.116
645.23	0.117
645.68	0.116
646.13	0.115
646.57	0.116
647.02	0.113
647.47	0.117
647.91	0.115
648.36	0.115
648.81	0.115
649.25	0.113
649.70	0.113
650.15	0.113
650.59	0.114
651.04	0.114
651.48	0.117
651.93	0.113
652.38	0.112
652.82	0.114
653.27	0.112
653.72	0.113
654.16	0.112
654.61	0.114
655.06	0.112
655.50	0.111
655.95	0.111
656.39	0.108
656.84	0.111
657.29	0.115
657.73	0.111
658.18	0.112
658.62	0.113
659.07	0.111
659.52	0.113
659.96	0.114
660.41	0.113
660.85	0.110
661.30	0.112
661.74	0.111
662.19	0.110
662.64	0.110
663.08	0.110
663.53	0.111
663.97	0.111
664.42	0.110
664.86	0.113
665.31	0.111
665.75	0.109
666.20	0.111
666.65	0.110
667.09	0.109
667.54	0.111
667.98	0.110
668.43	0.108
668.87	0.107
669.32	0.109
669.76	0.110
670.21	0.110
670.65	0.107
671.10	0.109
671.54	0.109
671.99	0.108
672.43	0.107
672.88	0.107
673.32	0.108
673.77	0.106
674.21	0.106
674.66	0.107
675.10	0.106
675.55	0.104
675.99	0.109
676.44	0.106
676.88	0.105
677.33	0.105
677.77	0.106
678.22	0.106
678.66	0.105
679.11	0.105
679.55	0.106
679.99	0.104
680.44	0.108
680.88	0.105
681.33	0.105
681.77	0.102
682.22	0.104
682.66	0.105
683.11	0.104
683.55	0.103
683.99	0.104
684.44	0.101
684.88	0.101
685.33	0.104
685.77	0.103
686.21	0.103
686.66	0.101
687.10	0.102
687.55	0.101
687.99	0.105
688.44	0.102
688.88	0.101
689.32	0.104
689.77	0.102
690.21	0.101
690.65	0.102
691.10	0.102
691.54	0.101
691.99	0.101
692.43	0.099
692.87	0.099
693.32	0.102
693.76	0.101
694.20	0.100
694.65	0.100
695.09	0.101
695.53	0.100
695.98	0.099
696.42	0.100
696.86	0.099
697.31	0.098
697.75	0.098
698.19	0.099
698.64	0.099
699.08	0.098
699.52	0.098
699.97	0.099
700.41	0.097
700.85	0.100
701.30	0.098
701.74	0.099
702.18	0.099
702.63	0.099
703.07	0.099
703.51	0.100
703.96	0.100
704.40	0.099
704.84	0.101
705.28	0.098
705.73	0.097
706.17	0.096
706.61	0.098
707.06	0.095
707.50	0.097
707.94	0.096
708.38	0.096
708.83	0.100
709.27	0.098
709.71	0.098
710.15	0.099
710.60	0.098
711.04	0.095
711.48	0.099
711.92	0.098
712.37	0.097
712.81	0.100
713.25	0.099
713.69	0.097
714.13	0.100
714.58	0.097
715.02	0.097
715.46	0.096
715.90	0.096
716.35	0.096
716.79	0.098
717.23	0.097
717.67	0.097
718.11	0.099
718.56	0.097
719.00	0.096
719.44	0.097
719.88	0.099
720.32	0.097
720.76	0.098
721.21	0.095
721.65	0.096
722.09	0.097
722.53	0.099
722.97	0.096
723.41	0.096
723.86	0.098
724.30	0.097
724.74	0.098
725.18	0.099
725.62	0.098
726.06	0.098
726.50	0.097
726.95	0.096
727.39	0.098
727.83	0.097
728.27	0.098
728.71	0.097
729.15	0.099
729.59	0.097
730.03	0.095
730.48	0.099
730.92	0.098
731.36	0.097
731.80	0.098
732.24	0.099
732.68	0.097
733.12	0.097
733.56	0.097
734.00	0.097
734.44	0.100
734.89	0.102
735.33	0.101
735.77	0.102
736.21	0.100
736.65	0.097
737.09	0.101
737.53	0.101
737.97	0.100
738.41	0.099
738.85	0.101
739.29	0.101
739.73	0.097
740.17	0.100
740.61	0.100
741.05	0.100
741.49	0.101
741.93	0.098
742.37	0.098
742.81	0.099
743.26	0.100
743.70	0.099
744.14	0.100
744.58	0.099
745.02	0.101
745.46	0.101
745.90	0.100
746.34	0.102
746.78	0.101
747.22	0.100
747.66	0.098
748.10	0.099
748.54	0.097
748.98	0.098
749.42	0.097
749.86	0.100
750.29	0.099
750.73	0.097
751.17	0.098
751.61	0.097
752.05	0.099
752.49	0.096
752.93	0.098
753.37	0.097
753.81	0.098
754.25	0.097
754.69	0.096
755.13	0.097
755.57	0.100
756.01	0.097
756.45	0.097
756.89	0.096
757.33	0.097
757.77	0.097
758.21	0.096
758.64	0.096
759.08	0.092
759.52	0.097
759.96	0.097
760.40	0.095
760.84	0.095
761.28	0.094
761.72	0.096
762.16	0.096
762.60	0.095
763.03	0.094
763.47	0.095
763.91	0.095
764.35	0.095
764.79	0.093
765.23	0.094
765.67	0.095
766.11	0.091
766.54	0.090
766.98	0.097
767.42	0.095
767.86	0.092
768.30	0.094
768.74	0.098
769.17	0.096
769.61	0.096
770.05	0.094
770.49	0.096
770.93	0.094
771.37	0.091
771.80	0.093
772.24	0.092
772.68	0.092
773.12	0.093
773.56	0.095
774.00	0.093
774.43	0.091
774.87	0.091
775.31	0.092
775.75	0.093
776.19	0.090
776.62	0.093
777.06	0.093
777.50	0.091
777.94	0.089
778.37	0.092
778.81	0.091
779.25	0.093
779.69	0.092
780.13	0.093
780.56	0.090
781.00	0.090
781.44	0.093
781.88	0.094
782.31	0.092
782.75	0.090
783.19	0.092
783.63	0.089
784.06	0.090
784.50	0.092
784.94	0.092
785.37	0.093
785.81	0.092
786.25	0.092
786.69	0.090
787.12	0.090
787.56	0.088
788.00	0.094
788.43	0.090
788.87	0.090
789.31	0.093
789.75	0.087
790.18	0.089
790.62	0.089
791.06	0.091
791.49	0.089
791.93	0.086
792.37	0.090
792.80	0.087
793.24	0.090
793.68	0.088
794.11	0.092
794.55	0.091
794.99	0.091
795.42	0.088
795.86	0.092
796.30	0.092
796.73	0.089
797.17	0.091
797.61	0.086
798.04	0.087
798.48	0.091
798.91	0.089
799.35	0.087
799.79	0.095
800.22	0.088
800.66	0.085
801.10	0.092
801.53	0.090
801.97	0.094
802.40	0.090
802.84	0.090
803.28	0.089
803.71	0.089
804.15	0.090
804.58	0.087
805.02	0.090
805.46	0.089
805.89	0.088
806.33	0.087
806.76	0.085
807.20	0.090
807.63	0.089
808.07	0.089
808.51	0.084
808.94	0.084
809.38	0.088
809.81	0.087
810.25	0.091
810.68	0.089
811.12	0.090
811.55	0.092
811.99	0.088
812.42	0.090
812.86	0.087
813.29	0.087
813.73	0.091
814.17	0.087
814.60	0.088
815.04	0.092
815.47	0.090
815.91	0.087
816.34	0.088
816.78	0.085
