SpectraSuite Data File
++++++++++++++++++++++++++++++++++++
Date: Sun Apr 24 16:07:51 CEST 2016
User: spectrasuite
Dark Spectrum Present: Yes
Reference Spectrum Present: Yes
Number of Sampled Component Spectra: 1
Spectrometers: HR+C0708
Integration Time (usec): 1000 (HR+C0708)
Spectra Averaged: 10 (HR+C0708)
Boxcar Smoothing: 0 (HR+C0708)
Correct for Electrical Dark: No (HR+C0708)
Strobe/Lamp Enabled: No (HR+C0708)
Correct for Detector Non-linearity: No (HR+C0708)
Correct for Stray Light: No (HR+C0708)
Number of Pixels in Processed Spectrum: 2048
>>>>>Begin Processed Spectral Data<<<<<
188.76	-0.000
189.23	-0.000
189.70	-0.000
190.17	-0.000
190.64	-0.000
191.12	-0.000
191.59	-0.000
192.06	-0.000
192.53	-0.000
193.01	-0.000
193.48	-0.000
193.95	-0.000
194.42	-0.000
194.90	1.512
195.37	-0.000
195.84	-0.000
196.31	-0.000
196.78	-0.000
197.26	-0.000
197.73	-0.000
198.20	-0.000
198.67	-0.000
199.14	-0.000
199.62	-0.000
200.09	-0.000
200.56	-0.000
201.03	-0.000
201.50	-0.000
201.97	-0.000
202.45	-0.000
202.92	1.010
203.39	1.246
203.86	-0.000
204.33	-0.000
204.80	2.379
205.28	1.003
205.75	-0.000
206.22	-0.000
206.69	-0.000
207.16	-0.000
207.63	-0.000
208.11	1.478
208.58	0.853
209.05	0.964
209.52	-0.000
209.99	-0.000
210.46	1.759
210.93	-0.000
211.41	-0.000
211.88	-0.000
212.35	1.379
212.82	-0.000
213.29	-0.000
213.76	1.240
214.23	-0.000
214.70	-0.000
215.18	-0.000
215.65	1.199
216.12	-0.000
216.59	-0.000
217.06	-0.000
217.53	-0.000
218.00	1.662
218.47	2.009
218.94	-0.000
219.41	-0.000
219.89	-0.000
220.36	-0.000
220.83	1.982
221.30	-0.000
221.77	1.008
222.24	-0.000
222.71	-0.000
223.18	-0.000
223.65	-0.000
224.12	-0.000
224.59	-0.000
225.06	-0.000
225.54	1.754
226.01	1.125
226.48	-0.000
226.95	1.988
227.42	-0.000
227.89	-0.000
228.36	1.846
228.83	-0.000
229.30	1.828
229.77	2.443
230.24	2.016
230.71	-0.000
231.18	-0.000
231.65	-0.000
232.12	1.680
232.59	-0.000
233.06	-0.000
233.53	2.236
234.00	2.839
234.47	-0.000
234.94	-0.000
235.41	2.422
235.88	2.261
236.35	-0.000
236.82	-0.000
237.29	3.325
237.76	2.717
238.23	3.596
238.70	-0.000
239.17	2.115
239.64	-0.000
240.11	-0.000
240.58	3.010
241.05	3.150
241.52	3.269
241.99	-0.000
242.46	2.833
242.93	-0.000
243.40	3.051
243.87	2.614
244.34	2.693
244.81	3.016
245.28	-0.000
245.75	-0.000
246.22	3.099
246.69	3.121
247.16	-0.000
247.63	3.608
248.10	2.945
248.57	-0.000
249.04	-0.000
249.51	3.529
249.98	-0.000
250.45	2.774
250.92	3.065
251.39	-0.000
251.85	-0.000
252.32	-0.000
252.79	-0.000
253.26	3.212
253.73	-0.000
254.20	2.954
254.67	2.970
255.14	3.485
255.61	4.813
256.08	-0.000
256.55	-0.000
257.02	2.837
257.49	3.071
257.95	3.100
258.42	2.794
258.89	3.156
259.36	2.897
259.83	3.355
260.30	3.358
260.77	3.376
261.24	2.764
261.71	3.087
262.17	3.086
262.64	2.723
263.11	2.919
263.58	-0.000
264.05	3.095
264.52	2.753
264.99	2.817
265.46	3.406
265.92	2.889
266.39	2.844
266.86	3.189
267.33	2.972
267.80	2.584
268.27	2.876
268.74	2.730
269.20	3.156
269.67	2.760
270.14	2.640
270.61	2.726
271.08	2.669
271.55	2.647
272.01	2.535
272.48	2.569
272.95	2.672
273.42	2.651
273.89	2.617
274.36	2.668
274.82	2.444
275.29	2.397
275.76	2.601
276.23	2.494
276.70	2.456
277.16	2.411
277.63	2.365
278.10	2.452
278.57	2.364
279.04	2.462
279.50	2.403
279.97	2.397
280.44	2.218
280.91	2.276
281.38	2.202
281.84	2.296
282.31	2.310
282.78	2.324
283.25	2.233
283.72	2.218
284.18	2.222
284.65	2.277
285.12	2.192
285.59	2.153
286.05	2.244
286.52	2.151
286.99	2.164
287.46	2.172
287.92	2.134
288.39	2.155
288.86	2.171
289.33	2.149
289.79	2.127
290.26	2.099
290.73	2.084
291.20	2.111
291.66	2.085
292.13	2.060
292.60	2.045
293.07	2.064
293.53	2.029
294.00	2.051
294.47	2.055
294.93	2.034
295.40	2.024
295.87	2.007
296.34	2.010
296.80	1.980
297.27	1.965
297.74	1.966
298.20	1.983
298.67	1.933
299.14	1.942
299.60	1.961
300.07	1.934
300.54	1.895
301.01	1.896
301.47	1.906
301.94	1.880
302.41	1.874
302.87	1.879
303.34	1.907
303.81	1.851
304.27	1.858
304.74	1.861
305.21	1.825
305.67	1.832
306.14	1.790
306.61	1.795
307.07	1.792
307.54	1.808
308.01	1.812
308.47	1.785
308.94	1.812
309.40	1.776
309.87	1.789
310.34	1.774
310.80	1.776
311.27	1.765
311.74	1.753
312.20	1.770
312.67	1.720
313.13	1.730
313.60	1.748
314.07	1.750
314.53	1.698
315.00	1.677
315.47	1.710
315.93	1.696
316.40	1.681
316.86	1.687
317.33	1.688
317.80	1.659
318.26	1.671
318.73	1.657
319.19	1.652
319.66	1.656
320.13	1.644
320.59	1.630
321.06	1.629
321.52	1.642
321.99	1.620
322.45	1.603
322.92	1.588
323.39	1.603
323.85	1.610
324.32	1.592
324.78	1.575
325.25	1.591
325.71	1.573
326.18	1.564
326.64	1.590
327.11	1.563
327.58	1.540
328.04	1.531
328.51	1.536
328.97	1.543
329.44	1.503
329.90	1.506
330.37	1.496
330.83	1.490
331.30	1.502
331.76	1.478
332.23	1.475
332.69	1.462
333.16	1.443
333.62	1.432
334.09	1.424
334.56	1.402
335.02	1.392
335.49	1.390
335.95	1.363
336.42	1.357
336.88	1.349
337.35	1.345
337.81	1.317
338.28	1.315
338.74	1.309
339.20	1.290
339.67	1.272
340.13	1.268
340.60	1.247
341.06	1.232
341.53	1.212
341.99	1.203
342.46	1.182
342.92	1.164
343.39	1.157
343.85	1.140
344.32	1.122
344.78	1.114
345.25	1.107
345.71	1.084
346.17	1.062
346.64	1.045
347.10	1.034
347.57	1.008
348.03	0.987
348.50	0.977
348.96	0.958
349.43	0.939
349.89	0.923
350.35	0.908
350.82	0.906
351.28	0.890
351.75	0.877
352.21	0.864
352.67	0.851
353.14	0.842
353.60	0.822
354.07	0.813
354.53	0.797
355.00	0.788
355.46	0.778
355.92	0.762
356.39	0.751
356.85	0.746
357.31	0.734
357.78	0.726
358.24	0.720
358.71	0.708
359.17	0.705
359.63	0.694
360.10	0.691
360.56	0.684
361.03	0.683
361.49	0.670
361.95	0.672
362.42	0.661
362.88	0.657
363.34	0.650
363.81	0.649
364.27	0.643
364.73	0.640
365.20	0.642
365.66	0.635
366.12	0.630
366.59	0.629
367.05	0.623
367.51	0.626
367.98	0.618
368.44	0.615
368.90	0.611
369.37	0.608
369.83	0.611
370.29	0.605
370.76	0.606
371.22	0.600
371.68	0.598
372.15	0.595
372.61	0.594
373.07	0.589
373.54	0.592
374.00	0.589
374.46	0.584
374.92	0.581
375.39	0.581
375.85	0.584
376.31	0.580
376.78	0.578
377.24	0.576
377.70	0.575
378.16	0.568
378.63	0.569
379.09	0.565
379.55	0.566
380.01	0.566
380.48	0.563
380.94	0.563
381.40	0.558
381.87	0.556
382.33	0.552
382.79	0.554
383.25	0.553
383.72	0.553
384.18	0.550
384.64	0.547
385.10	0.546
385.56	0.544
386.03	0.543
386.49	0.541
386.95	0.537
387.41	0.537
387.88	0.536
388.34	0.532
388.80	0.532
389.26	0.532
389.72	0.527
390.19	0.531
390.65	0.528
391.11	0.524
391.57	0.524
392.04	0.521
392.50	0.521
392.96	0.520
393.42	0.517
393.88	0.521
394.34	0.510
394.81	0.512
395.27	0.512
395.73	0.512
396.19	0.510
396.65	0.505
397.12	0.506
397.58	0.504
398.04	0.503
398.50	0.502
398.96	0.499
399.42	0.501
399.89	0.497
400.35	0.498
400.81	0.496
401.27	0.492
401.73	0.496
402.19	0.490
402.65	0.487
403.12	0.484
403.58	0.486
404.04	0.488
404.50	0.486
404.96	0.480
405.42	0.481
405.88	0.478
406.34	0.479
406.81	0.478
407.27	0.477
407.73	0.474
408.19	0.474
408.65	0.472
409.11	0.472
409.57	0.473
410.03	0.466
410.49	0.470
410.96	0.466
411.42	0.465
411.88	0.466
412.34	0.459
412.80	0.463
413.26	0.459
413.72	0.457
414.18	0.454
414.64	0.455
415.10	0.458
415.56	0.455
416.02	0.456
416.48	0.452
416.95	0.451
417.41	0.448
417.87	0.450
418.33	0.449
418.79	0.441
419.25	0.443
419.71	0.442
420.17	0.444
420.63	0.441
421.09	0.439
421.55	0.436
422.01	0.440
422.47	0.437
422.93	0.437
423.39	0.436
423.85	0.439
424.31	0.437
424.77	0.432
425.23	0.432
425.69	0.433
426.15	0.431
426.61	0.429
427.07	0.426
427.53	0.426
427.99	0.422
428.45	0.422
428.91	0.424
429.37	0.424
429.83	0.420
430.29	0.420
430.75	0.421
431.21	0.420
431.67	0.422
432.13	0.422
432.59	0.414
433.05	0.413
433.51	0.410
433.97	0.414
434.43	0.412
434.89	0.411
435.35	0.410
435.81	0.409
436.27	0.408
436.73	0.410
437.19	0.404
437.65	0.405
438.11	0.407
438.57	0.406
439.03	0.405
439.48	0.401
439.94	0.404
440.40	0.401
440.86	0.402
441.32	0.396
441.78	0.396
442.24	0.395
442.70	0.397
443.16	0.394
443.62	0.393
444.08	0.391
444.54	0.393
444.99	0.392
445.45	0.389
445.91	0.388
446.37	0.386
446.83	0.386
447.29	0.385
447.75	0.386
448.21	0.386
448.67	0.383
449.12	0.382
449.58	0.380
450.04	0.380
450.50	0.381
450.96	0.379
451.42	0.377
451.88	0.376
452.34	0.377
452.79	0.374
453.25	0.378
453.71	0.375
454.17	0.370
454.63	0.374
455.09	0.371
455.55	0.374
456.00	0.369
456.46	0.368
456.92	0.374
457.38	0.369
457.84	0.363
458.30	0.363
458.75	0.368
459.21	0.359
459.67	0.366
460.13	0.360
460.59	0.364
461.04	0.356
461.50	0.358
461.96	0.358
462.42	0.358
462.88	0.356
463.33	0.357
463.79	0.354
464.25	0.356
464.71	0.354
465.17	0.354
465.62	0.352
466.08	0.354
466.54	0.353
467.00	0.352
467.46	0.352
467.91	0.347
468.37	0.351
468.83	0.350
469.29	0.347
469.74	0.347
470.20	0.346
470.66	0.345
471.12	0.343
471.57	0.343
472.03	0.341
472.49	0.342
472.95	0.342
473.40	0.342
473.86	0.337
474.32	0.336
474.78	0.337
475.23	0.338
475.69	0.338
476.15	0.337
476.60	0.338
477.06	0.335
477.52	0.335
477.98	0.331
478.43	0.333
478.89	0.330
479.35	0.328
479.80	0.331
480.26	0.330
480.72	0.330
481.18	0.330
481.63	0.327
482.09	0.328
482.55	0.331
483.00	0.326
483.46	0.325
483.92	0.323
484.37	0.324
484.83	0.321
485.29	0.321
485.74	0.323
486.20	0.324
486.66	0.320
487.11	0.319
487.57	0.318
488.03	0.319
488.48	0.318
488.94	0.317
489.40	0.317
489.85	0.317
490.31	0.317
490.77	0.318
491.22	0.316
491.68	0.314
492.13	0.312
492.59	0.315
493.05	0.313
493.50	0.312
493.96	0.310
494.42	0.310
494.87	0.309
495.33	0.308
495.78	0.310
496.24	0.309
496.70	0.307
497.15	0.307
497.61	0.308
498.06	0.305
498.52	0.305
498.98	0.302
499.43	0.306
499.89	0.305
500.34	0.304
500.80	0.302
501.25	0.303
501.71	0.299
502.17	0.300
502.62	0.304
503.08	0.299
503.53	0.297
503.99	0.297
504.44	0.298
504.90	0.298
505.36	0.295
505.81	0.297
506.27	0.296
506.72	0.295
507.18	0.295
507.63	0.294
508.09	0.294
508.54	0.292
509.00	0.293
509.45	0.293
509.91	0.290
510.36	0.291
510.82	0.291
511.27	0.290
511.73	0.288
512.19	0.289
512.64	0.289
513.10	0.288
513.55	0.288
514.01	0.285
514.46	0.286
514.92	0.284
515.37	0.286
515.83	0.286
516.28	0.284
516.73	0.281
517.19	0.284
517.64	0.282
518.10	0.281
518.55	0.281
519.01	0.280
519.46	0.282
519.92	0.280
520.37	0.276
520.83	0.279
521.28	0.276
521.74	0.280
522.19	0.277
522.65	0.276
523.10	0.274
523.55	0.275
524.01	0.278
524.46	0.274
524.92	0.273
525.37	0.273
525.83	0.273
526.28	0.273
526.73	0.274
527.19	0.273
527.64	0.271
528.10	0.270
528.55	0.269
529.01	0.272
529.46	0.271
529.91	0.269
530.37	0.269
530.82	0.268
531.28	0.267
531.73	0.267
532.18	0.267
532.64	0.264
533.09	0.264
533.54	0.266
534.00	0.265
534.45	0.264
534.91	0.266
535.36	0.265
535.81	0.263
536.27	0.258
536.72	0.263
537.17	0.260
537.63	0.261
538.08	0.258
538.54	0.260
538.99	0.261
539.44	0.262
539.90	0.259
540.35	0.258
540.80	0.259
541.26	0.258
541.71	0.257
542.16	0.257
542.62	0.258
543.07	0.256
543.52	0.257
543.98	0.256
544.43	0.252
544.88	0.255
545.34	0.253
545.79	0.253
546.24	0.250
546.69	0.255
547.15	0.252
547.60	0.251
548.05	0.254
548.51	0.251
548.96	0.251
549.41	0.254
549.86	0.247
550.32	0.250
550.77	0.251
551.22	0.250
551.68	0.246
552.13	0.245
552.58	0.243
553.03	0.246
553.49	0.245
553.94	0.245
554.39	0.245
554.84	0.244
555.30	0.245
555.75	0.244
556.20	0.245
556.65	0.244
557.11	0.244
557.56	0.243
558.01	0.245
558.46	0.245
558.92	0.242
559.37	0.243
559.82	0.242
560.27	0.240
560.72	0.238
561.18	0.238
561.63	0.239
562.08	0.237
562.53	0.240
562.99	0.240
563.44	0.238
563.89	0.237
564.34	0.235
564.79	0.237
565.25	0.235
565.70	0.235
566.15	0.234
566.60	0.233
567.05	0.234
567.50	0.236
567.96	0.233
568.41	0.231
568.86	0.232
569.31	0.231
569.76	0.230
570.21	0.232
570.67	0.232
571.12	0.232
571.57	0.231
572.02	0.229
572.47	0.230
572.92	0.231
573.37	0.227
573.83	0.227
574.28	0.230
574.73	0.228
575.18	0.227
575.63	0.229
576.08	0.223
576.53	0.226
576.98	0.226
577.44	0.223
577.89	0.224
578.34	0.223
578.79	0.223
579.24	0.225
579.69	0.224
580.14	0.220
580.59	0.222
581.04	0.220
581.49	0.221
581.95	0.220
582.40	0.220
582.85	0.219
583.30	0.219
583.75	0.219
584.20	0.218
584.65	0.218
585.10	0.218
585.55	0.218
586.00	0.219
586.45	0.217
586.90	0.219
587.35	0.217
587.80	0.218
588.25	0.218
588.71	0.216
589.16	0.217
589.61	0.216
590.06	0.216
590.51	0.217
590.96	0.216
591.41	0.214
591.86	0.216
592.31	0.212
592.76	0.213
593.21	0.214
593.66	0.214
594.11	0.214
594.56	0.212
595.01	0.213
595.46	0.211
595.91	0.212
596.36	0.210
596.81	0.211
597.26	0.212
597.71	0.210
598.16	0.209
598.61	0.208
599.06	0.211
599.51	0.211
599.96	0.209
600.41	0.209
600.86	0.211
601.31	0.208
601.76	0.207
602.21	0.209
602.65	0.209
603.10	0.207
603.55	0.207
604.00	0.207
604.45	0.205
604.90	0.207
605.35	0.205
605.80	0.205
606.25	0.205
606.70	0.206
607.15	0.204
607.60	0.203
608.05	0.204
608.50	0.204
608.95	0.203
609.39	0.204
609.84	0.204
610.29	0.202
610.74	0.203
611.19	0.200
611.64	0.202
612.09	0.200
612.54	0.202
612.99	0.201
613.44	0.199
613.88	0.201
614.33	0.199
614.78	0.199
615.23	0.198
615.68	0.198
616.13	0.199
616.58	0.197
617.03	0.200
617.47	0.198
617.92	0.199
618.37	0.196
618.82	0.196
619.27	0.197
619.72	0.195
620.17	0.193
620.61	0.195
621.06	0.196
621.51	0.195
621.96	0.194
622.41	0.193
622.86	0.193
623.30	0.194
623.75	0.195
624.20	0.194
624.65	0.191
625.10	0.191
625.54	0.193
625.99	0.193
626.44	0.192
626.89	0.192
627.34	0.192
627.78	0.190
628.23	0.191
628.68	0.191
629.13	0.191
629.58	0.191
630.02	0.189
630.47	0.189
630.92	0.190
631.37	0.190
631.81	0.188
632.26	0.188
632.71	0.188
633.16	0.188
633.61	0.187
634.05	0.186
634.50	0.187
634.95	0.186
635.40	0.187
635.84	0.186
636.29	0.186
636.74	0.187
637.18	0.189
637.63	0.187
638.08	0.185
638.53	0.186
638.97	0.185
639.42	0.185
639.87	0.185
640.32	0.183
640.76	0.185
641.21	0.186
641.66	0.186
642.10	0.183
642.55	0.184
643.00	0.183
643.44	0.185
643.89	0.183
644.34	0.184
644.79	0.182
645.23	0.183
645.68	0.183
646.13	0.181
646.57	0.181
647.02	0.180
647.47	0.184
647.91	0.181
648.36	0.180
648.81	0.182
649.25	0.181
649.70	0.180
650.15	0.179
650.59	0.179
651.04	0.179
651.48	0.183
651.93	0.180
652.38	0.178
652.82	0.179
653.27	0.178
653.72	0.179
654.16	0.178
654.61	0.178
655.06	0.177
655.50	0.176
655.95	0.176
656.39	0.171
656.84	0.174
657.29	0.180
657.73	0.176
658.18	0.177
658.62	0.174
659.07	0.176
659.52	0.176
659.96	0.176
660.41	0.177
660.85	0.174
661.30	0.175
661.74	0.177
662.19	0.175
662.64	0.174
663.08	0.174
663.53	0.175
663.97	0.173
664.42	0.173
664.86	0.174
665.31	0.174
665.75	0.171
666.20	0.173
666.65	0.174
667.09	0.173
667.54	0.172
667.98	0.171
668.43	0.171
668.87	0.171
669.32	0.172
669.76	0.172
670.21	0.171
670.65	0.168
671.10	0.170
671.54	0.171
671.99	0.168
672.43	0.168
672.88	0.170
673.32	0.169
673.77	0.168
674.21	0.166
674.66	0.168
675.10	0.167
675.55	0.166
675.99	0.167
676.44	0.167
676.88	0.168
677.33	0.167
677.77	0.166
678.22	0.165
678.66	0.166
679.11	0.165
679.55	0.166
679.99	0.163
680.44	0.165
680.88	0.165
681.33	0.164
681.77	0.164
682.22	0.165
682.66	0.164
683.11	0.165
683.55	0.164
683.99	0.162
684.44	0.161
684.88	0.162
685.33	0.162
685.77	0.162
686.21	0.161
686.66	0.160
687.10	0.161
687.55	0.160
687.99	0.163
688.44	0.162
688.88	0.160
689.32	0.161
689.77	0.161
690.21	0.158
690.65	0.161
691.10	0.160
691.54	0.160
691.99	0.158
692.43	0.156
692.87	0.157
693.32	0.158
693.76	0.158
694.20	0.158
694.65	0.156
695.09	0.159
695.53	0.156
695.98	0.156
696.42	0.158
696.86	0.158
697.31	0.155
697.75	0.156
698.19	0.156
698.64	0.157
699.08	0.156
699.52	0.154
699.97	0.155
700.41	0.156
700.85	0.157
701.30	0.154
701.74	0.156
702.18	0.155
702.63	0.154
703.07	0.157
703.51	0.156
703.96	0.156
704.40	0.155
704.84	0.155
705.28	0.154
705.73	0.155
706.17	0.153
706.61	0.151
707.06	0.152
707.50	0.153
707.94	0.151
708.38	0.151
708.83	0.156
709.27	0.152
709.71	0.153
710.15	0.154
710.60	0.152
711.04	0.149
711.48	0.154
711.92	0.154
712.37	0.151
712.81	0.154
713.25	0.151
713.69	0.151
714.13	0.154
714.58	0.151
715.02	0.150
715.46	0.150
715.90	0.150
716.35	0.151
716.79	0.152
717.23	0.151
717.67	0.151
718.11	0.153
718.56	0.150
719.00	0.153
719.44	0.152
719.88	0.150
720.32	0.148
720.76	0.151
721.21	0.148
721.65	0.149
722.09	0.151
722.53	0.149
722.97	0.151
723.41	0.150
723.86	0.152
724.30	0.151
724.74	0.151
725.18	0.148
725.62	0.149
726.06	0.151
726.50	0.149
726.95	0.148
727.39	0.149
727.83	0.150
728.27	0.150
728.71	0.149
729.15	0.149
729.59	0.152
730.03	0.148
730.48	0.153
730.92	0.149
731.36	0.149
731.80	0.151
732.24	0.153
732.68	0.149
733.12	0.148
733.56	0.148
734.00	0.148
734.44	0.150
734.89	0.147
735.33	0.151
735.77	0.153
736.21	0.150
736.65	0.148
737.09	0.151
737.53	0.153
737.97	0.152
738.41	0.150
738.85	0.152
739.29	0.152
739.73	0.149
740.17	0.149
740.61	0.150
741.05	0.149
741.49	0.149
741.93	0.147
742.37	0.145
742.81	0.148
743.26	0.149
743.70	0.150
744.14	0.150
744.58	0.148
745.02	0.147
745.46	0.148
745.90	0.149
746.34	0.150
746.78	0.148
747.22	0.149
747.66	0.148
748.10	0.146
748.54	0.148
748.98	0.145
749.42	0.146
749.86	0.149
750.29	0.146
750.73	0.147
751.17	0.145
751.61	0.145
752.05	0.145
752.49	0.142
752.93	0.143
753.37	0.146
753.81	0.146
754.25	0.143
754.69	0.144
755.13	0.142
755.57	0.146
756.01	0.144
756.45	0.145
756.89	0.144
757.33	0.147
757.77	0.143
758.21	0.144
758.64	0.143
759.08	0.138
759.52	0.143
759.96	0.145
760.40	0.143
760.84	0.140
761.28	0.144
761.72	0.145
762.16	0.143
762.60	0.143
763.03	0.141
763.47	0.139
763.91	0.142
764.35	0.140
764.79	0.139
765.23	0.140
765.67	0.138
766.11	0.139
766.54	0.136
766.98	0.143
767.42	0.141
767.86	0.141
768.30	0.143
768.74	0.138
769.17	0.142
769.61	0.141
770.05	0.140
770.49	0.140
770.93	0.141
771.37	0.138
771.80	0.139
772.24	0.139
772.68	0.141
773.12	0.138
773.56	0.137
774.00	0.137
774.43	0.138
774.87	0.135
775.31	0.136
775.75	0.138
776.19	0.137
776.62	0.136
777.06	0.139
777.50	0.136
777.94	0.137
778.37	0.137
778.81	0.137
779.25	0.139
779.69	0.138
780.13	0.139
780.56	0.135
781.00	0.136
781.44	0.136
781.88	0.139
782.31	0.135
782.75	0.136
783.19	0.139
783.63	0.135
784.06	0.137
784.50	0.138
784.94	0.134
785.37	0.137
785.81	0.140
786.25	0.136
786.69	0.133
787.12	0.133
787.56	0.132
788.00	0.137
788.43	0.138
788.87	0.134
789.31	0.135
789.75	0.138
790.18	0.131
790.62	0.133
791.06	0.134
791.49	0.133
791.93	0.132
792.37	0.135
792.80	0.135
793.24	0.130
793.68	0.137
794.11	0.134
794.55	0.134
794.99	0.135
795.42	0.133
795.86	0.136
796.30	0.132
796.73	0.135
797.17	0.134
797.61	0.133
798.04	0.132
798.48	0.132
798.91	0.131
799.35	0.132
799.79	0.137
800.22	0.134
800.66	0.130
801.10	0.133
801.53	0.131
801.97	0.134
802.40	0.136
802.84	0.134
803.28	0.129
803.71	0.133
804.15	0.131
804.58	0.129
805.02	0.134
805.46	0.130
805.89	0.130
806.33	0.129
806.76	0.131
807.20	0.133
807.63	0.128
808.07	0.133
808.51	0.133
808.94	0.129
809.38	0.129
809.81	0.130
810.25	0.134
810.68	0.133
811.12	0.131
811.55	0.134
811.99	0.129
812.42	0.128
812.86	0.127
813.29	0.129
813.73	0.130
814.17	0.129
814.60	0.129
815.04	0.134
