SpectraSuite Data File
++++++++++++++++++++++++++++++++++++
Date: Sun Apr 24 17:11:08 CEST 2016
User: spectrasuite
Dark Spectrum Present: Yes
Reference Spectrum Present: Yes
Number of Sampled Component Spectra: 1
Spectrometers: HR+C0708
Integration Time (usec): 1000 (HR+C0708)
Spectra Averaged: 10 (HR+C0708)
Boxcar Smoothing: 0 (HR+C0708)
Correct for Electrical Dark: No (HR+C0708)
Strobe/Lamp Enabled: No (HR+C0708)
Correct for Detector Non-linearity: No (HR+C0708)
Correct for Stray Light: No (HR+C0708)
Number of Pixels in Processed Spectrum: 2048
>>>>>Begin Processed Spectral Data<<<<<
188.76	-0.000
189.23	-0.000
189.70	-0.000
190.17	-0.000
190.64	-0.000
191.12	-0.000
191.59	-0.000
192.06	-0.000
192.53	-0.000
193.01	-0.000
193.48	-0.000
193.95	-0.000
194.42	-0.000
194.90	-0.000
195.37	-0.000
195.84	-0.000
196.31	-0.000
196.78	-0.000
197.26	-0.000
197.73	-0.000
198.20	-0.000
198.67	-0.000
199.14	-0.000
199.62	-0.000
200.09	-0.000
200.56	-0.000
201.03	-0.000
201.50	1.395
201.97	-0.000
202.45	-0.000
202.92	1.268
203.39	1.533
203.86	-0.000
204.33	1.668
204.80	-0.000
205.28	-0.000
205.75	-0.000
206.22	-0.000
206.69	1.224
207.16	2.346
207.63	-0.000
208.11	1.049
208.58	1.084
209.05	-0.000
209.52	-0.000
209.99	1.508
210.46	-0.000
210.93	-0.000
211.41	1.273
211.88	1.470
212.35	-0.000
212.82	-0.000
213.29	1.464
213.76	1.042
214.23	1.521
214.70	0.969
215.18	-0.000
215.65	1.329
216.12	1.374
216.59	-0.000
217.06	1.356
217.53	1.563
218.00	-0.000
218.47	1.583
218.94	-0.000
219.41	-0.000
219.89	-0.000
220.36	-0.000
220.83	-0.000
221.30	-0.000
221.77	-0.000
222.24	-0.000
222.71	-0.000
223.18	-0.000
223.65	-0.000
224.12	-0.000
224.59	-0.000
225.06	-0.000
225.54	2.815
226.01	1.523
226.48	-0.000
226.95	2.891
227.42	1.488
227.89	-0.000
228.36	2.251
228.83	-0.000
229.30	1.608
229.77	2.481
230.24	1.577
230.71	2.838
231.18	-0.000
231.65	2.138
232.12	2.161
232.59	-0.000
233.06	-0.000
233.53	2.275
234.00	2.384
234.47	-0.000
234.94	-0.000
235.41	2.820
235.88	-0.000
236.35	-0.000
236.82	2.275
237.29	2.521
237.76	2.498
238.23	2.832
238.70	2.586
239.17	2.642
239.64	-0.000
240.11	-0.000
240.58	3.186
241.05	-0.000
241.52	3.244
241.99	3.315
242.46	3.318
242.93	-0.000
243.40	2.875
243.87	2.731
244.34	2.608
244.81	3.214
245.28	-0.000
245.75	-0.000
246.22	-0.000
246.69	3.598
247.16	3.483
247.63	3.006
248.10	3.125
248.57	-0.000
249.04	-0.000
249.51	-0.000
249.98	-0.000
250.45	3.111
250.92	2.916
251.39	-0.000
251.85	-0.000
252.32	-0.000
252.79	3.930
253.26	-0.000
253.73	-0.000
254.20	3.077
254.67	2.991
255.14	3.268
255.61	-0.000
256.08	3.212
256.55	3.460
257.02	3.071
257.49	3.212
257.95	2.904
258.42	2.890
258.89	2.956
259.36	2.653
259.83	2.874
260.30	2.851
260.77	3.272
261.24	2.613
261.71	2.839
262.17	2.770
262.64	2.607
263.11	2.652
263.58	2.886
264.05	2.556
264.52	2.465
264.99	2.498
265.46	2.600
265.92	2.508
266.39	2.523
266.86	2.483
267.33	2.595
267.80	2.377
268.27	2.450
268.74	2.463
269.20	2.421
269.67	2.381
270.14	2.306
270.61	2.298
271.08	2.334
271.55	2.301
272.01	2.225
272.48	2.262
272.95	2.224
273.42	2.224
273.89	2.243
274.36	2.187
274.82	2.163
275.29	2.134
275.76	2.115
276.23	2.129
276.70	2.160
277.16	2.097
277.63	2.115
278.10	2.048
278.57	2.029
279.04	2.056
279.50	2.018
279.97	2.032
280.44	1.972
280.91	1.971
281.38	1.947
281.84	2.004
282.31	1.950
282.78	1.981
283.25	1.931
283.72	1.904
284.18	1.952
284.65	1.907
285.12	1.869
285.59	1.899
286.05	1.883
286.52	1.868
286.99	1.842
287.46	1.836
287.92	1.820
288.39	1.823
288.86	1.808
289.33	1.791
289.79	1.791
290.26	1.790
290.73	1.786
291.20	1.754
291.66	1.762
292.13	1.752
292.60	1.727
293.07	1.723
293.53	1.694
294.00	1.713
294.47	1.704
294.93	1.712
295.40	1.693
295.87	1.669
296.34	1.690
296.80	1.663
297.27	1.668
297.74	1.629
298.20	1.636
298.67	1.639
299.14	1.655
299.60	1.620
300.07	1.610
300.54	1.597
301.01	1.597
301.47	1.593
301.94	1.577
302.41	1.573
302.87	1.579
303.34	1.582
303.81	1.545
304.27	1.555
304.74	1.537
305.21	1.533
305.67	1.537
306.14	1.520
306.61	1.531
307.07	1.503
307.54	1.513
308.01	1.498
308.47	1.490
308.94	1.500
309.40	1.479
309.87	1.477
310.34	1.449
310.80	1.475
311.27	1.472
311.74	1.441
312.20	1.445
312.67	1.437
313.13	1.403
313.60	1.436
314.07	1.418
314.53	1.408
315.00	1.396
315.47	1.407
315.93	1.393
316.40	1.390
316.86	1.388
317.33	1.385
317.80	1.370
318.26	1.366
318.73	1.374
319.19	1.359
319.66	1.354
320.13	1.353
320.59	1.344
321.06	1.339
321.52	1.346
321.99	1.333
322.45	1.324
322.92	1.303
323.39	1.310
323.85	1.310
324.32	1.313
324.78	1.293
325.25	1.295
325.71	1.284
326.18	1.278
326.64	1.293
327.11	1.287
327.58	1.266
328.04	1.264
328.51	1.253
328.97	1.252
329.44	1.245
329.90	1.236
330.37	1.244
330.83	1.227
331.30	1.234
331.76	1.222
332.23	1.220
332.69	1.213
333.16	1.207
333.62	1.196
334.09	1.187
334.56	1.185
335.02	1.181
335.49	1.171
335.95	1.170
336.42	1.162
336.88	1.149
337.35	1.149
337.81	1.133
338.28	1.129
338.74	1.123
339.20	1.114
339.67	1.104
340.13	1.106
340.60	1.093
341.06	1.081
341.53	1.073
341.99	1.077
342.46	1.058
342.92	1.045
343.39	1.040
343.85	1.024
344.32	1.021
344.78	1.015
345.25	1.006
345.71	0.997
346.17	0.988
346.64	0.979
347.10	0.962
347.57	0.958
348.03	0.944
348.50	0.933
348.96	0.921
349.43	0.914
349.89	0.900
350.35	0.886
350.82	0.880
351.28	0.877
351.75	0.859
352.21	0.851
352.67	0.839
353.14	0.829
353.60	0.828
354.07	0.808
354.53	0.796
355.00	0.797
355.46	0.784
355.92	0.764
356.39	0.754
356.85	0.753
357.31	0.745
357.78	0.736
358.24	0.725
358.71	0.719
359.17	0.717
359.63	0.708
360.10	0.707
360.56	0.699
361.03	0.694
361.49	0.691
361.95	0.684
362.42	0.680
362.88	0.675
363.34	0.667
363.81	0.665
364.27	0.662
364.73	0.658
365.20	0.654
365.66	0.652
366.12	0.645
366.59	0.646
367.05	0.641
367.51	0.638
367.98	0.633
368.44	0.633
368.90	0.631
369.37	0.624
369.83	0.623
370.29	0.623
370.76	0.616
371.22	0.617
371.68	0.621
372.15	0.610
372.61	0.606
373.07	0.604
373.54	0.601
374.00	0.602
374.46	0.600
374.92	0.599
375.39	0.600
375.85	0.594
376.31	0.596
376.78	0.592
377.24	0.592
377.70	0.588
378.16	0.583
378.63	0.587
379.09	0.583
379.55	0.581
380.01	0.578
380.48	0.579
380.94	0.576
381.40	0.573
381.87	0.570
382.33	0.570
382.79	0.571
383.25	0.569
383.72	0.565
384.18	0.563
384.64	0.561
385.10	0.562
385.56	0.558
386.03	0.557
386.49	0.554
386.95	0.552
387.41	0.553
387.88	0.547
388.34	0.547
388.80	0.544
389.26	0.544
389.72	0.542
390.19	0.542
390.65	0.539
391.11	0.540
391.57	0.535
392.04	0.534
392.50	0.534
392.96	0.532
393.42	0.528
393.88	0.532
394.34	0.529
394.81	0.525
395.27	0.525
395.73	0.521
396.19	0.519
396.65	0.522
397.12	0.517
397.58	0.518
398.04	0.517
398.50	0.516
398.96	0.514
399.42	0.515
399.89	0.513
400.35	0.510
400.81	0.508
401.27	0.510
401.73	0.508
402.19	0.505
402.65	0.504
403.12	0.499
403.58	0.497
404.04	0.496
404.50	0.499
404.96	0.491
405.42	0.493
405.88	0.492
406.34	0.492
406.81	0.486
407.27	0.487
407.73	0.486
408.19	0.483
408.65	0.485
409.11	0.482
409.57	0.483
410.03	0.479
410.49	0.481
410.96	0.481
411.42	0.477
411.88	0.477
412.34	0.473
412.80	0.475
413.26	0.470
413.72	0.470
414.18	0.473
414.64	0.469
415.10	0.468
415.56	0.464
416.02	0.467
416.48	0.465
416.95	0.460
417.41	0.461
417.87	0.461
418.33	0.458
418.79	0.457
419.25	0.456
419.71	0.453
420.17	0.455
420.63	0.451
421.09	0.449
421.55	0.449
422.01	0.449
422.47	0.453
422.93	0.448
423.39	0.445
423.85	0.448
424.31	0.443
424.77	0.441
425.23	0.444
425.69	0.443
426.15	0.439
426.61	0.440
427.07	0.437
427.53	0.434
427.99	0.433
428.45	0.433
428.91	0.434
429.37	0.430
429.83	0.431
430.29	0.430
430.75	0.431
431.21	0.429
431.67	0.431
432.13	0.429
432.59	0.424
433.05	0.426
433.51	0.423
433.97	0.422
434.43	0.421
434.89	0.425
435.35	0.420
435.81	0.419
436.27	0.414
436.73	0.413
437.19	0.410
437.65	0.417
438.11	0.412
438.57	0.414
439.03	0.413
439.48	0.415
439.94	0.409
440.40	0.408
440.86	0.405
441.32	0.407
441.78	0.407
442.24	0.402
442.70	0.409
443.16	0.401
443.62	0.397
444.08	0.402
444.54	0.398
444.99	0.398
445.45	0.396
445.91	0.396
446.37	0.396
446.83	0.393
447.29	0.395
447.75	0.397
448.21	0.395
448.67	0.392
449.12	0.388
449.58	0.394
450.04	0.386
450.50	0.387
450.96	0.389
451.42	0.383
451.88	0.384
452.34	0.385
452.79	0.386
453.25	0.383
453.71	0.383
454.17	0.376
454.63	0.382
455.09	0.381
455.55	0.382
456.00	0.379
456.46	0.378
456.92	0.377
457.38	0.375
457.84	0.374
458.30	0.369
458.75	0.373
459.21	0.370
459.67	0.373
460.13	0.370
460.59	0.367
461.04	0.368
461.50	0.368
461.96	0.368
462.42	0.366
462.88	0.364
463.33	0.362
463.79	0.364
464.25	0.364
464.71	0.363
465.17	0.362
465.62	0.357
466.08	0.360
466.54	0.359
467.00	0.360
467.46	0.358
467.91	0.356
468.37	0.358
468.83	0.356
469.29	0.356
469.74	0.355
470.20	0.354
470.66	0.352
471.12	0.349
471.57	0.351
472.03	0.352
472.49	0.349
472.95	0.348
473.40	0.348
473.86	0.344
474.32	0.344
474.78	0.345
475.23	0.344
475.69	0.346
476.15	0.345
476.60	0.344
477.06	0.343
477.52	0.344
477.98	0.339
478.43	0.337
478.89	0.338
479.35	0.338
479.80	0.339
480.26	0.336
480.72	0.336
481.18	0.336
481.63	0.336
482.09	0.335
482.55	0.335
483.00	0.333
483.46	0.331
483.92	0.330
484.37	0.330
484.83	0.328
485.29	0.328
485.74	0.326
486.20	0.328
486.66	0.324
487.11	0.327
487.57	0.327
488.03	0.325
488.48	0.323
488.94	0.323
489.40	0.323
489.85	0.324
490.31	0.324
490.77	0.323
491.22	0.325
491.68	0.320
492.13	0.319
492.59	0.319
493.05	0.318
493.50	0.320
493.96	0.316
494.42	0.317
494.87	0.314
495.33	0.314
495.78	0.317
496.24	0.312
496.70	0.313
497.15	0.313
497.61	0.314
498.06	0.312
498.52	0.309
498.98	0.309
499.43	0.312
499.89	0.310
500.34	0.308
500.80	0.309
501.25	0.310
501.71	0.307
502.17	0.306
502.62	0.308
503.08	0.304
503.53	0.303
503.99	0.303
504.44	0.304
504.90	0.303
505.36	0.302
505.81	0.303
506.27	0.303
506.72	0.303
507.18	0.302
507.63	0.300
508.09	0.300
508.54	0.297
509.00	0.298
509.45	0.301
509.91	0.296
510.36	0.297
510.82	0.295
511.27	0.296
511.73	0.295
512.19	0.291
512.64	0.292
513.10	0.293
513.55	0.296
514.01	0.292
514.46	0.292
514.92	0.290
515.37	0.288
515.83	0.289
516.28	0.288
516.73	0.286
517.19	0.287
517.64	0.285
518.10	0.286
518.55	0.286
519.01	0.289
519.46	0.286
519.92	0.285
520.37	0.282
520.83	0.283
521.28	0.285
521.74	0.282
522.19	0.283
522.65	0.281
523.10	0.282
523.55	0.281
524.01	0.281
524.46	0.279
524.92	0.278
525.37	0.279
525.83	0.278
526.28	0.278
526.73	0.277
527.19	0.279
527.64	0.278
528.10	0.275
528.55	0.275
529.01	0.274
529.46	0.273
529.91	0.274
530.37	0.272
530.82	0.272
531.28	0.272
531.73	0.270
532.18	0.270
532.64	0.273
533.09	0.270
533.54	0.271
534.00	0.268
534.45	0.271
534.91	0.270
535.36	0.270
535.81	0.269
536.27	0.267
536.72	0.268
537.17	0.267
537.63	0.265
538.08	0.263
538.54	0.266
538.99	0.265
539.44	0.266
539.90	0.262
540.35	0.262
540.80	0.262
541.26	0.263
541.71	0.260
542.16	0.262
542.62	0.261
543.07	0.261
543.52	0.262
543.98	0.261
544.43	0.258
544.88	0.257
545.34	0.258
545.79	0.259
546.24	0.257
546.69	0.258
547.15	0.257
547.60	0.257
548.05	0.256
548.51	0.255
548.96	0.255
549.41	0.257
549.86	0.254
550.32	0.256
550.77	0.256
551.22	0.253
551.68	0.252
552.13	0.253
552.58	0.252
553.03	0.251
553.49	0.252
553.94	0.252
554.39	0.249
554.84	0.251
555.30	0.251
555.75	0.251
556.20	0.250
556.65	0.249
557.11	0.248
557.56	0.247
558.01	0.246
558.46	0.248
558.92	0.247
559.37	0.245
559.82	0.246
560.27	0.245
560.72	0.244
561.18	0.245
561.63	0.244
562.08	0.241
562.53	0.242
562.99	0.245
563.44	0.242
563.89	0.242
564.34	0.243
564.79	0.241
565.25	0.241
565.70	0.240
566.15	0.237
566.60	0.240
567.05	0.239
567.50	0.239
567.96	0.239
568.41	0.236
568.86	0.238
569.31	0.236
569.76	0.238
570.21	0.237
570.67	0.234
571.12	0.236
571.57	0.236
572.02	0.236
572.47	0.234
572.92	0.237
573.37	0.233
573.83	0.232
574.28	0.233
574.73	0.232
575.18	0.232
575.63	0.234
576.08	0.229
576.53	0.231
576.98	0.230
577.44	0.228
577.89	0.229
578.34	0.229
578.79	0.228
579.24	0.229
579.69	0.228
580.14	0.226
580.59	0.225
581.04	0.226
581.49	0.226
581.95	0.225
582.40	0.226
582.85	0.226
583.30	0.223
583.75	0.223
584.20	0.224
584.65	0.224
585.10	0.224
585.55	0.224
586.00	0.223
586.45	0.222
586.90	0.223
587.35	0.223
587.80	0.222
588.25	0.222
588.71	0.222
589.16	0.220
589.61	0.220
590.06	0.219
590.51	0.222
590.96	0.220
591.41	0.219
591.86	0.221
592.31	0.218
592.76	0.220
593.21	0.219
593.66	0.217
594.11	0.218
594.56	0.216
595.01	0.218
595.46	0.216
595.91	0.218
596.36	0.217
596.81	0.217
597.26	0.215
597.71	0.217
598.16	0.216
598.61	0.216
599.06	0.215
599.51	0.216
599.96	0.218
600.41	0.215
600.86	0.215
601.31	0.213
601.76	0.214
602.21	0.214
602.65	0.214
603.10	0.212
603.55	0.214
604.00	0.212
604.45	0.212
604.90	0.213
605.35	0.210
605.80	0.211
606.25	0.213
606.70	0.211
607.15	0.209
607.60	0.211
608.05	0.208
608.50	0.209
608.95	0.207
609.39	0.211
609.84	0.210
610.29	0.209
610.74	0.209
611.19	0.207
611.64	0.207
612.09	0.208
612.54	0.210
612.99	0.207
613.44	0.205
613.88	0.207
614.33	0.205
614.78	0.204
615.23	0.204
615.68	0.206
616.13	0.203
616.58	0.202
617.03	0.204
617.47	0.204
617.92	0.201
618.37	0.203
618.82	0.204
619.27	0.203
619.72	0.202
620.17	0.200
620.61	0.200
621.06	0.202
621.51	0.201
621.96	0.199
622.41	0.201
622.86	0.200
623.30	0.198
623.75	0.201
624.20	0.199
624.65	0.198
625.10	0.200
625.54	0.199
625.99	0.198
626.44	0.198
626.89	0.198
627.34	0.198
627.78	0.196
628.23	0.195
628.68	0.196
629.13	0.197
629.58	0.196
630.02	0.197
630.47	0.194
630.92	0.196
631.37	0.195
631.81	0.195
632.26	0.195
632.71	0.194
633.16	0.195
633.61	0.194
634.05	0.192
634.50	0.193
634.95	0.195
635.40	0.195
635.84	0.194
636.29	0.193
636.74	0.195
637.18	0.193
637.63	0.193
638.08	0.191
638.53	0.193
638.97	0.193
639.42	0.192
639.87	0.191
640.32	0.191
640.76	0.190
641.21	0.189
641.66	0.191
642.10	0.190
642.55	0.188
643.00	0.190
643.44	0.190
643.89	0.190
644.34	0.189
644.79	0.189
645.23	0.188
645.68	0.189
646.13	0.189
646.57	0.189
647.02	0.186
647.47	0.192
647.91	0.190
648.36	0.188
648.81	0.189
649.25	0.188
649.70	0.187
650.15	0.186
650.59	0.188
651.04	0.185
651.48	0.187
651.93	0.188
652.38	0.184
652.82	0.187
653.27	0.186
653.72	0.187
654.16	0.185
654.61	0.187
655.06	0.183
655.50	0.185
655.95	0.183
656.39	0.176
656.84	0.182
657.29	0.186
657.73	0.182
658.18	0.184
658.62	0.183
659.07	0.182
659.52	0.183
659.96	0.183
660.41	0.184
660.85	0.181
661.30	0.182
661.74	0.184
662.19	0.181
662.64	0.180
663.08	0.182
663.53	0.180
663.97	0.180
664.42	0.179
664.86	0.180
665.31	0.180
665.75	0.178
666.20	0.180
666.65	0.180
667.09	0.180
667.54	0.179
667.98	0.176
668.43	0.178
668.87	0.177
669.32	0.176
669.76	0.175
670.21	0.177
670.65	0.174
671.10	0.177
671.54	0.176
671.99	0.175
672.43	0.174
672.88	0.173
673.32	0.174
673.77	0.173
674.21	0.174
674.66	0.172
675.10	0.173
675.55	0.171
675.99	0.172
676.44	0.171
676.88	0.173
677.33	0.171
677.77	0.171
678.22	0.170
678.66	0.170
679.11	0.170
679.55	0.171
679.99	0.168
680.44	0.170
680.88	0.169
681.33	0.168
681.77	0.168
682.22	0.170
682.66	0.169
683.11	0.167
683.55	0.168
683.99	0.168
684.44	0.166
684.88	0.164
685.33	0.164
685.77	0.164
686.21	0.165
686.66	0.164
687.10	0.166
687.55	0.164
687.99	0.165
688.44	0.166
688.88	0.165
689.32	0.164
689.77	0.162
690.21	0.164
690.65	0.162
691.10	0.164
691.54	0.163
691.99	0.162
692.43	0.162
692.87	0.161
693.32	0.162
693.76	0.162
694.20	0.162
694.65	0.161
695.09	0.161
695.53	0.160
695.98	0.161
696.42	0.160
696.86	0.160
697.31	0.157
697.75	0.158
698.19	0.159
698.64	0.159
699.08	0.158
699.52	0.158
699.97	0.159
700.41	0.159
700.85	0.158
701.30	0.158
701.74	0.157
702.18	0.157
702.63	0.157
703.07	0.158
703.51	0.157
703.96	0.157
704.40	0.156
704.84	0.158
705.28	0.155
705.73	0.159
706.17	0.156
706.61	0.155
707.06	0.157
707.50	0.155
707.94	0.156
708.38	0.154
708.83	0.155
709.27	0.155
709.71	0.153
710.15	0.156
710.60	0.152
711.04	0.155
711.48	0.156
711.92	0.156
712.37	0.154
712.81	0.156
713.25	0.153
713.69	0.154
714.13	0.156
714.58	0.152
715.02	0.153
715.46	0.152
715.90	0.154
716.35	0.153
716.79	0.153
717.23	0.153
717.67	0.153
718.11	0.155
718.56	0.155
719.00	0.153
719.44	0.154
719.88	0.153
720.32	0.151
720.76	0.153
721.21	0.152
721.65	0.150
722.09	0.152
722.53	0.152
722.97	0.152
723.41	0.151
723.86	0.155
724.30	0.153
724.74	0.154
725.18	0.153
725.62	0.151
726.06	0.152
726.50	0.149
726.95	0.150
727.39	0.154
727.83	0.151
728.27	0.152
728.71	0.151
729.15	0.153
729.59	0.152
730.03	0.149
730.48	0.152
730.92	0.149
731.36	0.151
731.80	0.151
732.24	0.151
732.68	0.149
733.12	0.149
733.56	0.149
734.00	0.151
734.44	0.153
734.89	0.152
735.33	0.152
735.77	0.154
736.21	0.150
736.65	0.151
737.09	0.154
737.53	0.152
737.97	0.153
738.41	0.151
738.85	0.153
739.29	0.154
739.73	0.150
740.17	0.151
740.61	0.153
741.05	0.152
741.49	0.150
741.93	0.151
742.37	0.146
742.81	0.152
743.26	0.149
743.70	0.150
744.14	0.149
744.58	0.150
745.02	0.151
745.46	0.149
745.90	0.152
746.34	0.150
746.78	0.149
747.22	0.151
747.66	0.149
748.10	0.151
748.54	0.149
748.98	0.146
749.42	0.147
749.86	0.149
750.29	0.149
750.73	0.147
751.17	0.147
751.61	0.143
752.05	0.149
752.49	0.146
752.93	0.146
753.37	0.144
753.81	0.147
754.25	0.145
754.69	0.146
755.13	0.143
755.57	0.147
756.01	0.148
756.45	0.144
756.89	0.147
757.33	0.149
757.77	0.145
758.21	0.147
758.64	0.145
759.08	0.139
759.52	0.145
759.96	0.146
760.40	0.143
760.84	0.144
761.28	0.145
761.72	0.144
762.16	0.146
762.60	0.143
763.03	0.145
763.47	0.141
763.91	0.143
764.35	0.142
764.79	0.141
765.23	0.140
765.67	0.141
766.11	0.140
766.54	0.141
766.98	0.143
767.42	0.143
767.86	0.139
768.30	0.143
768.74	0.144
769.17	0.145
769.61	0.144
770.05	0.140
770.49	0.143
770.93	0.143
771.37	0.140
771.80	0.141
772.24	0.139
772.68	0.138
773.12	0.141
773.56	0.139
774.00	0.139
774.43	0.138
774.87	0.139
775.31	0.142
775.75	0.138
776.19	0.139
776.62	0.138
777.06	0.140
777.50	0.139
777.94	0.137
778.37	0.136
778.81	0.138
779.25	0.139
779.69	0.138
780.13	0.141
780.56	0.138
781.00	0.138
781.44	0.138
781.88	0.135
782.31	0.137
782.75	0.138
783.19	0.141
783.63	0.137
784.06	0.135
784.50	0.137
784.94	0.136
785.37	0.135
785.81	0.139
786.25	0.140
786.69	0.136
787.12	0.134
787.56	0.138
788.00	0.137
788.43	0.139
788.87	0.137
789.31	0.138
789.75	0.138
790.18	0.134
790.62	0.137
791.06	0.135
791.49	0.132
791.93	0.135
792.37	0.138
792.80	0.135
793.24	0.135
793.68	0.135
794.11	0.134
794.55	0.137
794.99	0.137
795.42	0.135
795.86	0.138
796.30	0.133
796.73	0.134
797.17	0.135
797.61	0.136
798.04	0.134
798.48	0.132
798.91	0.131
799.35	0.134
799.79	0.137
800.22	0.133
800.66	0.131
801.10	0.136
801.53	0.134
801.97	0.137
802.40	0.135
802.84	0.132
803.28	0.127
803.71	0.133
804.15	0.132
804.58	0.132
805.02	0.136
805.46	0.131
805.89	0.131
806.33	0.132
806.76	0.131
807.20	0.130
807.63	0.131
808.07	0.136
808.51	0.131
808.94	0.131
809.38	0.131
809.81	0.129
810.25	0.135
810.68	0.135
811.12	0.128
811.55	0.134
811.99	0.132
812.42	0.132
812.86	0.133
813.29	0.130
813.73	0.130
814.17	0.130
814.60	0.133
815.04	0.129
