SpectraSuite Data File
++++++++++++++++++++++++++++++++++++
Date: Sun Apr 24 13:37:09 CEST 2016
User: spectrasuite
Dark Spectrum Present: Yes
Reference Spectrum Present: Yes
Number of Sampled Component Spectra: 1
Spectrometers: HR+C0708
Integration Time (usec): 1000 (HR+C0708)
Spectra Averaged: 10 (HR+C0708)
Boxcar Smoothing: 0 (HR+C0708)
Correct for Electrical Dark: No (HR+C0708)
Strobe/Lamp Enabled: No (HR+C0708)
Correct for Detector Non-linearity: No (HR+C0708)
Correct for Stray Light: No (HR+C0708)
Number of Pixels in Processed Spectrum: 2048
>>>>>Begin Processed Spectral Data<<<<<
188.76	1.550
189.23	-0.000
189.70	-0.000
190.17	-0.000
190.64	-0.000
191.12	-0.000
191.59	-0.000
192.06	-0.000
192.53	-0.000
193.01	-0.000
193.48	-0.000
193.95	-0.000
194.42	-0.000
194.90	1.512
195.37	-0.000
195.84	-0.000
196.31	-0.000
196.78	-0.000
197.26	-0.000
197.73	-0.000
198.20	-0.000
198.67	-0.000
199.14	-0.000
199.62	-0.000
200.09	-0.000
200.56	-0.000
201.03	1.625
201.50	1.142
201.97	0.980
202.45	1.065
202.92	0.992
203.39	0.966
203.86	0.981
204.33	-0.000
204.80	1.504
205.28	-0.000
205.75	-0.000
206.22	-0.000
206.69	0.785
207.16	1.116
207.63	0.777
208.11	0.827
208.58	1.291
209.05	-0.000
209.52	1.099
209.99	0.923
210.46	1.122
210.93	1.050
211.41	2.243
211.88	0.671
212.35	1.726
212.82	1.753
213.29	0.893
213.76	1.105
214.23	1.336
214.70	1.395
215.18	-0.000
215.65	0.819
216.12	0.820
216.59	-0.000
217.06	-0.000
217.53	1.660
218.00	0.984
218.47	0.791
218.94	1.549
219.41	1.492
219.89	1.846
220.36	-0.000
220.83	-0.000
221.30	0.846
221.77	1.368
222.24	1.051
222.71	-0.000
223.18	-0.000
223.65	-0.000
224.12	1.517
224.59	-0.000
225.06	2.253
225.54	1.453
226.01	1.325
226.48	2.193
226.95	1.452
227.42	1.761
227.89	-0.000
228.36	1.401
228.83	1.428
229.30	1.679
229.77	1.774
230.24	1.599
230.71	1.647
231.18	1.729
231.65	1.783
232.12	1.744
232.59	1.781
233.06	2.403
233.53	2.005
234.00	2.147
234.47	2.023
234.94	2.893
235.41	-0.000
235.88	3.071
236.35	-0.000
236.82	2.337
237.29	2.191
237.76	2.553
238.23	2.880
238.70	2.513
239.17	2.203
239.64	2.519
240.11	3.338
240.58	2.584
241.05	3.995
241.52	2.700
241.99	3.177
242.46	2.558
242.93	3.787
243.40	2.725
243.87	2.671
244.34	2.387
244.81	2.603
245.28	3.126
245.75	2.855
246.22	3.588
246.69	2.738
247.16	2.939
247.63	2.818
248.10	2.715
248.57	-0.000
249.04	3.626
249.51	2.836
249.98	3.099
250.45	2.649
250.92	3.001
251.39	3.093
251.85	2.843
252.32	3.754
252.79	3.453
253.26	3.036
253.73	-0.000
254.20	2.999
254.67	2.843
255.14	2.659
255.61	3.122
256.08	2.972
256.55	3.195
257.02	3.365
257.49	-0.000
257.95	3.210
258.42	3.112
258.89	2.990
259.36	2.885
259.83	3.122
260.30	3.205
260.77	4.467
261.24	2.874
261.71	3.232
262.17	3.109
262.64	2.957
263.11	3.064
263.58	-0.000
264.05	3.027
264.52	3.092
264.99	3.034
265.46	2.779
265.92	3.163
266.39	3.181
266.86	3.526
267.33	3.416
267.80	2.774
268.27	-0.000
268.74	3.392
269.20	3.100
269.67	3.208
270.14	2.837
270.61	2.966
271.08	3.066
271.55	2.701
272.01	2.800
272.48	3.378
272.95	3.037
273.42	3.068
273.89	2.992
274.36	2.948
274.82	2.703
275.29	2.789
275.76	2.840
276.23	2.893
276.70	2.826
277.16	2.769
277.63	2.716
278.10	2.833
278.57	2.752
279.04	2.794
279.50	3.010
279.97	2.807
280.44	2.594
280.91	2.648
281.38	2.664
281.84	2.685
282.31	2.641
282.78	3.256
283.25	2.774
283.72	2.718
284.18	2.585
284.65	2.753
285.12	2.684
285.59	2.527
286.05	2.725
286.52	2.637
286.99	2.684
287.46	2.595
287.92	2.693
288.39	2.498
288.86	2.615
289.33	2.588
289.79	2.670
290.26	2.657
290.73	2.520
291.20	2.591
291.66	2.509
292.13	2.498
292.60	2.441
293.07	2.550
293.53	2.415
294.00	2.504
294.47	2.476
294.93	2.482
295.40	2.556
295.87	2.443
296.34	2.492
296.80	2.345
297.27	2.531
297.74	2.336
298.20	2.490
298.67	2.349
299.14	2.549
299.60	2.404
300.07	2.402
300.54	2.359
301.01	2.309
301.47	2.262
301.94	2.272
302.41	2.308
302.87	2.382
303.34	2.372
303.81	2.316
304.27	2.292
304.74	2.261
305.21	2.261
305.67	2.252
306.14	2.185
306.61	2.302
307.07	2.244
307.54	2.207
308.01	2.238
308.47	2.255
308.94	2.389
309.40	2.303
309.87	2.207
310.34	2.193
310.80	2.187
311.27	2.256
311.74	2.223
312.20	2.205
312.67	2.201
313.13	2.164
313.60	2.270
314.07	2.222
314.53	2.152
315.00	2.152
315.47	2.254
315.93	2.216
316.40	2.148
316.86	2.218
317.33	2.157
317.80	2.118
318.26	2.194
318.73	2.165
319.19	2.196
319.66	2.104
320.13	2.137
320.59	2.129
321.06	2.111
321.52	2.129
321.99	2.129
322.45	2.090
322.92	2.033
323.39	2.096
323.85	2.131
324.32	2.074
324.78	2.046
325.25	2.064
325.71	2.016
326.18	1.998
326.64	2.080
327.11	2.005
327.58	1.967
328.04	1.947
328.51	2.003
328.97	2.001
329.44	1.953
329.90	1.948
330.37	1.905
330.83	1.858
331.30	1.885
331.76	1.833
332.23	1.807
332.69	1.790
333.16	1.729
333.62	1.729
334.09	1.696
334.56	1.660
335.02	1.618
335.49	1.598
335.95	1.552
336.42	1.501
336.88	1.504
337.35	1.446
337.81	1.417
338.28	1.379
338.74	1.340
339.20	1.303
339.67	1.268
340.13	1.233
340.60	1.188
341.06	1.142
341.53	1.109
341.99	1.075
342.46	1.044
342.92	1.010
343.39	0.983
343.85	0.946
344.32	0.916
344.78	0.894
345.25	0.874
345.71	0.850
346.17	0.819
346.64	0.790
347.10	0.758
347.57	0.724
348.03	0.696
348.50	0.672
348.96	0.651
349.43	0.630
349.89	0.605
350.35	0.581
350.82	0.575
351.28	0.555
351.75	0.536
352.21	0.524
352.67	0.502
353.14	0.487
353.60	0.475
354.07	0.460
354.53	0.444
355.00	0.437
355.46	0.425
355.92	0.416
356.39	0.403
356.85	0.401
357.31	0.389
357.78	0.384
358.24	0.369
358.71	0.365
359.17	0.358
359.63	0.358
360.10	0.350
360.56	0.347
361.03	0.343
361.49	0.337
361.95	0.336
362.42	0.331
362.88	0.326
363.34	0.322
363.81	0.323
364.27	0.322
364.73	0.317
365.20	0.317
365.66	0.313
366.12	0.311
366.59	0.309
367.05	0.308
367.51	0.309
367.98	0.305
368.44	0.302
368.90	0.302
369.37	0.301
369.83	0.298
370.29	0.300
370.76	0.297
371.22	0.294
371.68	0.292
372.15	0.293
372.61	0.288
373.07	0.289
373.54	0.289
374.00	0.287
374.46	0.285
374.92	0.283
375.39	0.282
375.85	0.282
376.31	0.282
376.78	0.280
377.24	0.278
377.70	0.280
378.16	0.275
378.63	0.276
379.09	0.277
379.55	0.274
380.01	0.274
380.48	0.272
380.94	0.270
381.40	0.266
381.87	0.268
382.33	0.270
382.79	0.267
383.25	0.265
383.72	0.266
384.18	0.263
384.64	0.263
385.10	0.261
385.56	0.265
386.03	0.261
386.49	0.261
386.95	0.259
387.41	0.258
387.88	0.259
388.34	0.258
388.80	0.256
389.26	0.257
389.72	0.255
390.19	0.255
390.65	0.255
391.11	0.254
391.57	0.253
392.04	0.250
392.50	0.246
392.96	0.248
393.42	0.248
393.88	0.249
394.34	0.246
394.81	0.245
395.27	0.244
395.73	0.247
396.19	0.244
396.65	0.240
397.12	0.240
397.58	0.241
398.04	0.241
398.50	0.240
398.96	0.238
399.42	0.239
399.89	0.240
400.35	0.238
400.81	0.235
401.27	0.238
401.73	0.232
402.19	0.231
402.65	0.231
403.12	0.231
403.58	0.230
404.04	0.232
404.50	0.233
404.96	0.230
405.42	0.228
405.88	0.229
406.34	0.228
406.81	0.226
407.27	0.226
407.73	0.224
408.19	0.226
408.65	0.223
409.11	0.225
409.57	0.226
410.03	0.222
410.49	0.221
410.96	0.220
411.42	0.222
411.88	0.220
412.34	0.217
412.80	0.220
413.26	0.215
413.72	0.218
414.18	0.216
414.64	0.216
415.10	0.215
415.56	0.216
416.02	0.216
416.48	0.212
416.95	0.211
417.41	0.210
417.87	0.209
418.33	0.211
418.79	0.209
419.25	0.210
419.71	0.207
420.17	0.210
420.63	0.207
421.09	0.206
421.55	0.203
422.01	0.207
422.47	0.208
422.93	0.206
423.39	0.206
423.85	0.205
424.31	0.205
424.77	0.202
425.23	0.205
425.69	0.203
426.15	0.202
426.61	0.201
427.07	0.198
427.53	0.200
427.99	0.199
428.45	0.201
428.91	0.201
429.37	0.199
429.83	0.196
430.29	0.199
430.75	0.200
431.21	0.199
431.67	0.197
432.13	0.196
432.59	0.194
433.05	0.197
433.51	0.192
433.97	0.197
434.43	0.193
434.89	0.197
435.35	0.193
435.81	0.191
436.27	0.192
436.73	0.190
437.19	0.191
437.65	0.193
438.11	0.192
438.57	0.190
439.03	0.191
439.48	0.192
439.94	0.191
440.40	0.190
440.86	0.193
441.32	0.187
441.78	0.193
442.24	0.186
442.70	0.187
443.16	0.184
443.62	0.184
444.08	0.184
444.54	0.186
444.99	0.185
445.45	0.181
445.91	0.184
446.37	0.184
446.83	0.182
447.29	0.183
447.75	0.183
448.21	0.185
448.67	0.181
449.12	0.180
449.58	0.182
450.04	0.178
450.50	0.180
450.96	0.181
451.42	0.179
451.88	0.178
452.34	0.179
452.79	0.179
453.25	0.181
453.71	0.178
454.17	0.179
454.63	0.179
455.09	0.177
455.55	0.176
456.00	0.175
456.46	0.174
456.92	0.176
457.38	0.174
457.84	0.172
458.30	0.173
458.75	0.174
459.21	0.170
459.67	0.176
460.13	0.171
460.59	0.173
461.04	0.171
461.50	0.172
461.96	0.172
462.42	0.173
462.88	0.172
463.33	0.171
463.79	0.169
464.25	0.170
464.71	0.168
465.17	0.168
465.62	0.168
466.08	0.169
466.54	0.169
467.00	0.167
467.46	0.169
467.91	0.168
468.37	0.167
468.83	0.168
469.29	0.166
469.74	0.167
470.20	0.168
470.66	0.166
471.12	0.164
471.57	0.167
472.03	0.164
472.49	0.165
472.95	0.165
473.40	0.166
473.86	0.165
474.32	0.162
474.78	0.163
475.23	0.162
475.69	0.165
476.15	0.163
476.60	0.164
477.06	0.161
477.52	0.160
477.98	0.162
478.43	0.161
478.89	0.162
479.35	0.158
479.80	0.162
480.26	0.161
480.72	0.159
481.18	0.161
481.63	0.158
482.09	0.161
482.55	0.162
483.00	0.157
483.46	0.158
483.92	0.157
484.37	0.159
484.83	0.155
485.29	0.154
485.74	0.156
486.20	0.156
486.66	0.156
487.11	0.155
487.57	0.154
488.03	0.154
488.48	0.155
488.94	0.155
489.40	0.153
489.85	0.156
490.31	0.155
490.77	0.152
491.22	0.153
491.68	0.153
492.13	0.153
492.59	0.152
493.05	0.153
493.50	0.151
493.96	0.151
494.42	0.151
494.87	0.149
495.33	0.149
495.78	0.152
496.24	0.151
496.70	0.150
497.15	0.151
497.61	0.149
498.06	0.149
498.52	0.148
498.98	0.148
499.43	0.149
499.89	0.149
500.34	0.146
500.80	0.149
501.25	0.148
501.71	0.144
502.17	0.145
502.62	0.149
503.08	0.146
503.53	0.144
503.99	0.146
504.44	0.145
504.90	0.144
505.36	0.143
505.81	0.145
506.27	0.145
506.72	0.145
507.18	0.144
507.63	0.143
508.09	0.144
508.54	0.142
509.00	0.142
509.45	0.145
509.91	0.142
510.36	0.142
510.82	0.142
511.27	0.142
511.73	0.141
512.19	0.142
512.64	0.143
513.10	0.142
513.55	0.141
514.01	0.140
514.46	0.140
514.92	0.141
515.37	0.142
515.83	0.140
516.28	0.139
516.73	0.138
517.19	0.140
517.64	0.136
518.10	0.137
518.55	0.139
519.01	0.136
519.46	0.138
519.92	0.139
520.37	0.134
520.83	0.137
521.28	0.137
521.74	0.137
522.19	0.138
522.65	0.135
523.10	0.136
523.55	0.135
524.01	0.137
524.46	0.135
524.92	0.133
525.37	0.135
525.83	0.132
526.28	0.134
526.73	0.136
527.19	0.136
527.64	0.136
528.10	0.133
528.55	0.135
529.01	0.135
529.46	0.134
529.91	0.134
530.37	0.132
530.82	0.132
531.28	0.133
531.73	0.132
532.18	0.132
532.64	0.134
533.09	0.131
533.54	0.131
534.00	0.131
534.45	0.134
534.91	0.132
535.36	0.134
535.81	0.132
536.27	0.129
536.72	0.133
537.17	0.130
537.63	0.134
538.08	0.130
538.54	0.132
538.99	0.130
539.44	0.132
539.90	0.128
540.35	0.131
540.80	0.130
541.26	0.130
541.71	0.129
542.16	0.129
542.62	0.129
543.07	0.131
543.52	0.131
543.98	0.130
544.43	0.127
544.88	0.127
545.34	0.129
545.79	0.130
546.24	0.126
546.69	0.130
547.15	0.127
547.60	0.128
548.05	0.128
548.51	0.127
548.96	0.126
549.41	0.128
549.86	0.129
550.32	0.129
550.77	0.130
551.22	0.127
551.68	0.126
552.13	0.127
552.58	0.126
553.03	0.127
553.49	0.127
553.94	0.128
554.39	0.126
554.84	0.127
555.30	0.128
555.75	0.128
556.20	0.127
556.65	0.125
557.11	0.127
557.56	0.127
558.01	0.130
558.46	0.130
558.92	0.126
559.37	0.127
559.82	0.128
560.27	0.130
560.72	0.126
561.18	0.125
561.63	0.127
562.08	0.125
562.53	0.128
562.99	0.128
563.44	0.128
563.89	0.125
564.34	0.128
564.79	0.128
565.25	0.126
565.70	0.127
566.15	0.126
566.60	0.126
567.05	0.127
567.50	0.126
567.96	0.128
568.41	0.126
568.86	0.127
569.31	0.126
569.76	0.125
570.21	0.128
570.67	0.127
571.12	0.128
571.57	0.127
572.02	0.127
572.47	0.128
572.92	0.128
573.37	0.126
573.83	0.126
574.28	0.129
574.73	0.128
575.18	0.129
575.63	0.130
576.08	0.127
576.53	0.128
576.98	0.130
577.44	0.126
577.89	0.127
578.34	0.128
578.79	0.128
579.24	0.128
579.69	0.130
580.14	0.127
580.59	0.128
581.04	0.127
581.49	0.128
581.95	0.128
582.40	0.128
582.85	0.130
583.30	0.128
583.75	0.128
584.20	0.130
584.65	0.129
585.10	0.132
585.55	0.133
586.00	0.131
586.45	0.132
586.90	0.134
587.35	0.133
587.80	0.133
588.25	0.133
588.71	0.134
589.16	0.135
589.61	0.134
590.06	0.133
590.51	0.135
590.96	0.135
591.41	0.137
591.86	0.137
592.31	0.135
592.76	0.138
593.21	0.137
593.66	0.138
594.11	0.138
594.56	0.137
595.01	0.140
595.46	0.138
595.91	0.140
596.36	0.141
596.81	0.142
597.26	0.141
597.71	0.141
598.16	0.142
598.61	0.141
599.06	0.144
599.51	0.146
599.96	0.144
600.41	0.145
600.86	0.144
601.31	0.146
601.76	0.148
602.21	0.148
602.65	0.149
603.10	0.148
603.55	0.149
604.00	0.149
604.45	0.149
604.90	0.149
605.35	0.148
605.80	0.149
606.25	0.153
606.70	0.151
607.15	0.150
607.60	0.150
608.05	0.150
608.50	0.151
608.95	0.152
609.39	0.153
609.84	0.153
610.29	0.153
610.74	0.153
611.19	0.153
611.64	0.154
612.09	0.155
612.54	0.153
612.99	0.155
613.44	0.155
613.88	0.156
614.33	0.157
614.78	0.153
615.23	0.154
615.68	0.154
616.13	0.156
616.58	0.154
617.03	0.155
617.47	0.155
617.92	0.155
618.37	0.153
618.82	0.155
619.27	0.154
619.72	0.154
620.17	0.152
620.61	0.155
621.06	0.155
621.51	0.154
621.96	0.155
622.41	0.156
622.86	0.156
623.30	0.155
623.75	0.156
624.20	0.156
624.65	0.154
625.10	0.156
625.54	0.155
625.99	0.155
626.44	0.154
626.89	0.155
627.34	0.158
627.78	0.157
628.23	0.154
628.68	0.156
629.13	0.156
629.58	0.157
630.02	0.158
630.47	0.158
630.92	0.157
631.37	0.158
631.81	0.159
632.26	0.157
632.71	0.159
633.16	0.159
633.61	0.160
634.05	0.159
634.50	0.161
634.95	0.162
635.40	0.163
635.84	0.164
636.29	0.162
636.74	0.165
637.18	0.165
637.63	0.165
638.08	0.163
638.53	0.166
638.97	0.165
639.42	0.167
639.87	0.169
640.32	0.167
640.76	0.170
641.21	0.172
641.66	0.172
642.10	0.174
642.55	0.172
643.00	0.172
643.44	0.176
643.89	0.176
644.34	0.175
644.79	0.178
645.23	0.178
645.68	0.180
646.13	0.181
646.57	0.180
647.02	0.182
647.47	0.184
647.91	0.184
648.36	0.185
648.81	0.186
649.25	0.185
649.70	0.185
650.15	0.189
650.59	0.188
651.04	0.190
651.48	0.194
651.93	0.193
652.38	0.193
652.82	0.194
653.27	0.193
653.72	0.196
654.16	0.195
654.61	0.196
655.06	0.194
655.50	0.197
655.95	0.195
656.39	0.194
656.84	0.197
657.29	0.201
657.73	0.199
658.18	0.201
658.62	0.202
659.07	0.204
659.52	0.204
659.96	0.206
660.41	0.206
660.85	0.204
661.30	0.206
661.74	0.207
662.19	0.207
662.64	0.208
663.08	0.207
663.53	0.206
663.97	0.207
664.42	0.208
664.86	0.209
665.31	0.208
665.75	0.207
666.20	0.209
666.65	0.208
667.09	0.207
667.54	0.209
667.98	0.207
668.43	0.206
668.87	0.206
669.32	0.206
669.76	0.204
670.21	0.204
670.65	0.201
671.10	0.202
671.54	0.200
671.99	0.198
672.43	0.198
672.88	0.195
673.32	0.192
673.77	0.191
674.21	0.189
674.66	0.188
675.10	0.184
675.55	0.183
675.99	0.183
676.44	0.179
676.88	0.178
677.33	0.175
677.77	0.173
678.22	0.170
678.66	0.168
679.11	0.164
679.55	0.164
679.99	0.160
680.44	0.159
680.88	0.156
681.33	0.151
681.77	0.148
682.22	0.149
682.66	0.146
683.11	0.141
683.55	0.140
683.99	0.137
684.44	0.133
684.88	0.131
685.33	0.130
685.77	0.129
686.21	0.127
686.66	0.124
687.10	0.122
687.55	0.120
687.99	0.118
688.44	0.118
688.88	0.114
689.32	0.114
689.77	0.112
690.21	0.109
690.65	0.109
691.10	0.107
691.54	0.104
691.99	0.103
692.43	0.102
692.87	0.100
693.32	0.100
693.76	0.100
694.20	0.097
694.65	0.097
695.09	0.096
695.53	0.094
695.98	0.094
696.42	0.094
696.86	0.092
697.31	0.089
697.75	0.090
698.19	0.088
698.64	0.089
699.08	0.090
699.52	0.087
699.97	0.087
700.41	0.087
700.85	0.086
701.30	0.083
701.74	0.085
702.18	0.084
702.63	0.085
703.07	0.084
703.51	0.084
703.96	0.083
704.40	0.082
704.84	0.083
705.28	0.081
705.73	0.082
706.17	0.081
706.61	0.079
707.06	0.081
707.50	0.079
707.94	0.080
708.38	0.081
708.83	0.080
709.27	0.080
709.71	0.080
710.15	0.080
710.60	0.078
711.04	0.077
711.48	0.080
711.92	0.079
712.37	0.077
712.81	0.078
713.25	0.079
713.69	0.079
714.13	0.080
714.58	0.078
715.02	0.075
715.46	0.077
715.90	0.077
716.35	0.075
716.79	0.078
717.23	0.079
717.67	0.078
718.11	0.080
718.56	0.076
719.00	0.077
719.44	0.078
719.88	0.076
720.32	0.077
720.76	0.079
721.21	0.077
721.65	0.076
722.09	0.079
722.53	0.077
722.97	0.078
723.41	0.077
723.86	0.079
724.30	0.078
724.74	0.080
725.18	0.078
725.62	0.076
726.06	0.077
726.50	0.077
726.95	0.075
727.39	0.077
727.83	0.077
728.27	0.079
728.71	0.077
729.15	0.077
729.59	0.079
730.03	0.078
730.48	0.077
730.92	0.076
731.36	0.077
731.80	0.078
732.24	0.080
732.68	0.077
733.12	0.077
733.56	0.079
734.00	0.081
734.44	0.079
734.89	0.077
735.33	0.080
735.77	0.080
736.21	0.081
736.65	0.078
737.09	0.082
737.53	0.081
737.97	0.083
738.41	0.080
738.85	0.083
739.29	0.081
739.73	0.080
740.17	0.081
740.61	0.080
741.05	0.082
741.49	0.082
741.93	0.082
742.37	0.078
742.81	0.079
743.26	0.079
743.70	0.079
744.14	0.080
744.58	0.078
745.02	0.081
745.46	0.078
745.90	0.078
746.34	0.081
746.78	0.081
747.22	0.081
747.66	0.080
748.10	0.079
748.54	0.081
748.98	0.077
749.42	0.079
749.86	0.080
750.29	0.080
750.73	0.078
751.17	0.078
751.61	0.076
752.05	0.081
752.49	0.077
752.93	0.077
753.37	0.077
753.81	0.077
754.25	0.077
754.69	0.076
755.13	0.077
755.57	0.080
756.01	0.079
756.45	0.078
756.89	0.078
757.33	0.077
757.77	0.079
758.21	0.076
758.64	0.077
759.08	0.073
759.52	0.078
759.96	0.081
760.40	0.078
760.84	0.078
761.28	0.078
761.72	0.078
762.16	0.076
762.60	0.077
763.03	0.076
763.47	0.076
763.91	0.076
764.35	0.077
764.79	0.076
765.23	0.074
765.67	0.078
766.11	0.075
766.54	0.073
766.98	0.078
767.42	0.077
767.86	0.074
768.30	0.079
768.74	0.078
769.17	0.076
769.61	0.077
770.05	0.075
770.49	0.077
770.93	0.078
771.37	0.074
771.80	0.074
772.24	0.073
772.68	0.074
773.12	0.077
773.56	0.074
774.00	0.074
774.43	0.073
774.87	0.075
775.31	0.075
775.75	0.075
776.19	0.076
776.62	0.073
777.06	0.073
777.50	0.073
777.94	0.074
778.37	0.072
778.81	0.074
779.25	0.074
779.69	0.075
780.13	0.078
780.56	0.075
781.00	0.075
781.44	0.073
781.88	0.074
782.31	0.074
782.75	0.075
783.19	0.077
783.63	0.071
784.06	0.074
784.50	0.076
784.94	0.074
785.37	0.077
785.81	0.077
786.25	0.076
786.69	0.072
787.12	0.073
787.56	0.073
788.00	0.075
788.43	0.074
788.87	0.073
789.31	0.074
789.75	0.073
790.18	0.070
790.62	0.072
791.06	0.072
791.49	0.071
791.93	0.071
792.37	0.077
792.80	0.071
793.24	0.074
793.68	0.074
794.11	0.072
794.55	0.075
794.99	0.075
795.42	0.074
795.86	0.076
796.30	0.072
796.73	0.075
797.17	0.075
797.61	0.074
798.04	0.071
798.48	0.074
798.91	0.073
799.35	0.071
799.79	0.076
800.22	0.074
800.66	0.072
801.10	0.074
801.53	0.073
801.97	0.077
802.40	0.073
802.84	0.071
803.28	0.071
803.71	0.073
804.15	0.073
804.58	0.073
805.02	0.076
805.46	0.073
805.89	0.073
806.33	0.072
806.76	0.069
807.20	0.073
807.63	0.072
808.07	0.075
808.51	0.075
808.94	0.070
809.38	0.073
809.81	0.075
810.25	0.073
810.68	0.072
811.12	0.076
811.55	0.078
811.99	0.073
812.42	0.073
812.86	0.070
813.29	0.075
813.73	0.072
814.17	0.071
814.60	0.071
815.04	0.074
815.47	0.072
815.91	0.070
816.34	0.075
