SpectraSuite Data File
++++++++++++++++++++++++++++++++++++
Date: Sun Apr 24 16:48:02 CEST 2016
User: spectrasuite
Dark Spectrum Present: Yes
Reference Spectrum Present: Yes
Number of Sampled Component Spectra: 1
Spectrometers: HR+C0708
Integration Time (usec): 1000 (HR+C0708)
Spectra Averaged: 10 (HR+C0708)
Boxcar Smoothing: 0 (HR+C0708)
Correct for Electrical Dark: No (HR+C0708)
Strobe/Lamp Enabled: No (HR+C0708)
Correct for Detector Non-linearity: No (HR+C0708)
Correct for Stray Light: No (HR+C0708)
Number of Pixels in Processed Spectrum: 2048
>>>>>Begin Processed Spectral Data<<<<<
188.76	-0.000
189.23	-0.000
189.70	-0.000
190.17	-0.000
190.64	-0.000
191.12	-0.000
191.59	-0.000
192.06	-0.000
192.53	-0.000
193.01	-0.000
193.48	-0.000
193.95	-0.000
194.42	-0.000
194.90	-0.000
195.37	-0.000
195.84	-0.000
196.31	-0.000
196.78	-0.000
197.26	-0.000
197.73	-0.000
198.20	-0.000
198.67	-0.000
199.14	-0.000
199.62	-0.000
200.09	-0.000
200.56	-0.000
201.03	-0.000
201.50	1.021
201.97	2.360
202.45	-0.000
202.92	-0.000
203.39	1.375
203.86	-0.000
204.33	-0.000
204.80	-0.000
205.28	2.117
205.75	-0.000
206.22	-0.000
206.69	-0.000
207.16	-0.000
207.63	1.095
208.11	1.016
208.58	1.828
209.05	-0.000
209.52	-0.000
209.99	0.898
210.46	-0.000
210.93	-0.000
211.41	-0.000
211.88	-0.000
212.35	-0.000
212.82	-0.000
213.29	1.321
213.76	-0.000
214.23	-0.000
214.70	2.019
215.18	-0.000
215.65	1.131
216.12	1.326
216.59	-0.000
217.06	-0.000
217.53	1.785
218.00	1.361
218.47	1.355
218.94	2.225
219.41	-0.000
219.89	-0.000
220.36	-0.000
220.83	1.283
221.30	-0.000
221.77	1.303
222.24	-0.000
222.71	-0.000
223.18	-0.000
223.65	2.328
224.12	-0.000
224.59	-0.000
225.06	-0.000
225.54	1.754
226.01	1.206
226.48	3.147
226.95	-0.000
227.42	-0.000
227.89	-0.000
228.36	2.762
228.83	2.118
229.30	1.542
229.77	-0.000
230.24	2.794
230.71	-0.000
231.18	-0.000
231.65	1.977
232.12	2.327
232.59	2.146
233.06	-0.000
233.53	2.285
234.00	2.050
234.47	-0.000
234.94	-0.000
235.41	-0.000
235.88	-0.000
236.35	-0.000
236.82	2.235
237.29	2.458
237.76	-0.000
238.23	-0.000
238.70	-0.000
239.17	2.309
239.64	3.087
240.11	-0.000
240.58	-0.000
241.05	-0.000
241.52	-0.000
241.99	2.795
242.46	2.624
242.93	-0.000
243.40	3.260
243.87	-0.000
244.34	2.457
244.81	2.850
245.28	-0.000
245.75	-0.000
246.22	-0.000
246.69	-0.000
247.16	4.085
247.63	2.615
248.10	3.113
248.57	3.208
249.04	-0.000
249.51	-0.000
249.98	-0.000
250.45	2.856
250.92	3.407
251.39	3.354
251.85	-0.000
252.32	-0.000
252.79	-0.000
253.26	3.302
253.73	-0.000
254.20	2.947
254.67	2.598
255.14	3.508
255.61	-0.000
256.08	3.358
256.55	-0.000
257.02	3.007
257.49	3.271
257.95	3.175
258.42	3.073
258.89	2.903
259.36	2.968
259.83	3.005
260.30	2.929
260.77	-0.000
261.24	2.742
261.71	3.323
262.17	3.190
262.64	2.635
263.11	2.669
263.58	2.852
264.05	2.832
264.52	2.609
264.99	2.562
265.46	2.779
265.92	2.755
266.39	2.565
266.86	2.748
267.33	2.703
267.80	2.491
268.27	2.604
268.74	2.644
269.20	2.584
269.67	2.475
270.14	2.407
270.61	2.460
271.08	2.464
271.55	2.352
272.01	2.423
272.48	2.414
272.95	2.306
273.42	2.328
273.89	2.402
274.36	2.256
274.82	2.209
275.29	2.237
275.76	2.264
276.23	2.276
276.70	2.182
277.16	2.228
277.63	2.222
278.10	2.140
278.57	2.105
279.04	2.195
279.50	2.162
279.97	2.116
280.44	2.033
280.91	2.053
281.38	2.037
281.84	2.071
282.31	2.075
282.78	2.140
283.25	2.029
283.72	2.003
284.18	2.029
284.65	2.033
285.12	1.991
285.59	1.997
286.05	1.996
286.52	1.973
286.99	1.954
287.46	1.971
287.92	1.940
288.39	1.919
288.86	1.935
289.33	1.923
289.79	1.903
290.26	1.916
290.73	1.899
291.20	1.880
291.66	1.897
292.13	1.861
292.60	1.854
293.07	1.854
293.53	1.807
294.00	1.838
294.47	1.841
294.93	1.810
295.40	1.818
295.87	1.795
296.34	1.812
296.80	1.794
297.27	1.779
297.74	1.753
298.20	1.769
298.67	1.743
299.14	1.771
299.60	1.739
300.07	1.716
300.54	1.713
301.01	1.707
301.47	1.678
301.94	1.693
302.41	1.667
302.87	1.674
303.34	1.706
303.81	1.641
304.27	1.656
304.74	1.649
305.21	1.624
305.67	1.628
306.14	1.613
306.61	1.616
307.07	1.607
307.54	1.584
308.01	1.575
308.47	1.576
308.94	1.596
309.40	1.599
309.87	1.578
310.34	1.555
310.80	1.568
311.27	1.556
311.74	1.546
312.20	1.542
312.67	1.532
313.13	1.522
313.60	1.536
314.07	1.515
314.53	1.505
315.00	1.496
315.47	1.487
315.93	1.479
316.40	1.465
316.86	1.473
317.33	1.463
317.80	1.459
318.26	1.454
318.73	1.464
319.19	1.448
319.66	1.432
320.13	1.438
320.59	1.420
321.06	1.428
321.52	1.425
321.99	1.417
322.45	1.410
322.92	1.409
323.39	1.396
323.85	1.384
324.32	1.395
324.78	1.395
325.25	1.389
325.71	1.364
326.18	1.366
326.64	1.378
327.11	1.364
327.58	1.352
328.04	1.350
328.51	1.353
328.97	1.340
329.44	1.338
329.90	1.336
330.37	1.325
330.83	1.302
331.30	1.317
331.76	1.296
332.23	1.293
332.69	1.286
333.16	1.279
333.62	1.282
334.09	1.260
334.56	1.273
335.02	1.259
335.49	1.247
335.95	1.234
336.42	1.239
336.88	1.228
337.35	1.224
337.81	1.215
338.28	1.198
338.74	1.204
339.20	1.184
339.67	1.177
340.13	1.174
340.60	1.161
341.06	1.147
341.53	1.147
341.99	1.142
342.46	1.127
342.92	1.116
343.39	1.107
343.85	1.099
344.32	1.084
344.78	1.071
345.25	1.073
345.71	1.067
346.17	1.057
346.64	1.036
347.10	1.021
347.57	1.000
348.03	0.996
348.50	0.982
348.96	0.972
349.43	0.963
349.89	0.948
350.35	0.935
350.82	0.932
351.28	0.915
351.75	0.897
352.21	0.895
352.67	0.874
353.14	0.874
353.60	0.857
354.07	0.840
354.53	0.830
355.00	0.810
355.46	0.809
355.92	0.789
356.39	0.778
356.85	0.777
357.31	0.766
357.78	0.753
358.24	0.741
358.71	0.736
359.17	0.723
359.63	0.722
360.10	0.717
360.56	0.712
361.03	0.701
361.49	0.692
361.95	0.689
362.42	0.682
362.88	0.677
363.34	0.672
363.81	0.671
364.27	0.666
364.73	0.666
365.20	0.655
365.66	0.654
366.12	0.654
366.59	0.648
367.05	0.646
367.51	0.643
367.98	0.636
368.44	0.634
368.90	0.634
369.37	0.630
369.83	0.627
370.29	0.620
370.76	0.624
371.22	0.623
371.68	0.617
372.15	0.613
372.61	0.613
373.07	0.611
373.54	0.612
374.00	0.611
374.46	0.603
374.92	0.604
375.39	0.598
375.85	0.601
376.31	0.598
376.78	0.593
377.24	0.592
377.70	0.592
378.16	0.582
378.63	0.587
379.09	0.586
379.55	0.582
380.01	0.582
380.48	0.579
380.94	0.576
381.40	0.572
381.87	0.573
382.33	0.571
382.79	0.573
383.25	0.572
383.72	0.574
384.18	0.567
384.64	0.562
385.10	0.562
385.56	0.564
386.03	0.559
386.49	0.560
386.95	0.555
387.41	0.550
387.88	0.554
388.34	0.551
388.80	0.551
389.26	0.548
389.72	0.547
390.19	0.545
390.65	0.546
391.11	0.543
391.57	0.542
392.04	0.539
392.50	0.536
392.96	0.535
393.42	0.531
393.88	0.539
394.34	0.533
394.81	0.527
395.27	0.531
395.73	0.528
396.19	0.523
396.65	0.525
397.12	0.521
397.58	0.520
398.04	0.518
398.50	0.516
398.96	0.516
399.42	0.520
399.89	0.517
400.35	0.513
400.81	0.511
401.27	0.509
401.73	0.510
402.19	0.505
402.65	0.506
403.12	0.502
403.58	0.505
404.04	0.503
404.50	0.503
404.96	0.494
405.42	0.497
405.88	0.498
406.34	0.493
406.81	0.492
407.27	0.492
407.73	0.491
408.19	0.487
408.65	0.483
409.11	0.486
409.57	0.487
410.03	0.485
410.49	0.486
410.96	0.483
411.42	0.481
411.88	0.480
412.34	0.477
412.80	0.477
413.26	0.470
413.72	0.473
414.18	0.469
414.64	0.468
415.10	0.476
415.56	0.474
416.02	0.475
416.48	0.469
416.95	0.464
417.41	0.462
417.87	0.461
418.33	0.461
418.79	0.460
419.25	0.459
419.71	0.458
420.17	0.458
420.63	0.455
421.09	0.454
421.55	0.454
422.01	0.455
422.47	0.455
422.93	0.450
423.39	0.449
423.85	0.451
424.31	0.445
424.77	0.447
425.23	0.451
425.69	0.450
426.15	0.445
426.61	0.444
427.07	0.441
427.53	0.441
427.99	0.438
428.45	0.438
428.91	0.437
429.37	0.436
429.83	0.434
430.29	0.437
430.75	0.436
431.21	0.435
431.67	0.433
432.13	0.433
432.59	0.427
433.05	0.428
433.51	0.424
433.97	0.425
434.43	0.428
434.89	0.425
435.35	0.423
435.81	0.423
436.27	0.418
436.73	0.420
437.19	0.420
437.65	0.421
438.11	0.416
438.57	0.417
439.03	0.413
439.48	0.414
439.94	0.413
440.40	0.411
440.86	0.413
441.32	0.414
441.78	0.412
442.24	0.408
442.70	0.408
443.16	0.407
443.62	0.402
444.08	0.406
444.54	0.403
444.99	0.403
445.45	0.404
445.91	0.401
446.37	0.401
446.83	0.396
447.29	0.396
447.75	0.395
448.21	0.397
448.67	0.392
449.12	0.396
449.58	0.393
450.04	0.390
450.50	0.395
450.96	0.394
451.42	0.387
451.88	0.387
452.34	0.391
452.79	0.389
453.25	0.392
453.71	0.388
454.17	0.384
454.63	0.384
455.09	0.385
455.55	0.381
456.00	0.382
456.46	0.379
456.92	0.379
457.38	0.381
457.84	0.378
458.30	0.378
458.75	0.374
459.21	0.375
459.67	0.379
460.13	0.375
460.59	0.373
461.04	0.371
461.50	0.370
461.96	0.369
462.42	0.372
462.88	0.368
463.33	0.368
463.79	0.367
464.25	0.367
464.71	0.367
465.17	0.367
465.62	0.367
466.08	0.365
466.54	0.364
467.00	0.365
467.46	0.365
467.91	0.361
468.37	0.364
468.83	0.360
469.29	0.358
469.74	0.359
470.20	0.357
470.66	0.355
471.12	0.354
471.57	0.353
472.03	0.354
472.49	0.355
472.95	0.352
473.40	0.353
473.86	0.351
474.32	0.348
474.78	0.352
475.23	0.348
475.69	0.350
476.15	0.348
476.60	0.349
477.06	0.346
477.52	0.345
477.98	0.346
478.43	0.343
478.89	0.342
479.35	0.342
479.80	0.344
480.26	0.342
480.72	0.341
481.18	0.341
481.63	0.338
482.09	0.338
482.55	0.339
483.00	0.337
483.46	0.337
483.92	0.337
484.37	0.336
484.83	0.334
485.29	0.332
485.74	0.335
486.20	0.334
486.66	0.334
487.11	0.333
487.57	0.330
488.03	0.330
488.48	0.329
488.94	0.328
489.40	0.328
489.85	0.331
490.31	0.329
490.77	0.327
491.22	0.326
491.68	0.325
492.13	0.325
492.59	0.323
493.05	0.324
493.50	0.322
493.96	0.323
494.42	0.319
494.87	0.320
495.33	0.318
495.78	0.321
496.24	0.317
496.70	0.318
497.15	0.318
497.61	0.317
498.06	0.316
498.52	0.314
498.98	0.316
499.43	0.317
499.89	0.313
500.34	0.315
500.80	0.314
501.25	0.313
501.71	0.311
502.17	0.313
502.62	0.312
503.08	0.310
503.53	0.309
503.99	0.307
504.44	0.309
504.90	0.307
505.36	0.308
505.81	0.307
506.27	0.308
506.72	0.307
507.18	0.307
507.63	0.304
508.09	0.305
508.54	0.303
509.00	0.302
509.45	0.303
509.91	0.304
510.36	0.304
510.82	0.301
511.27	0.301
511.73	0.300
512.19	0.298
512.64	0.300
513.10	0.298
513.55	0.297
514.01	0.297
514.46	0.296
514.92	0.295
515.37	0.297
515.83	0.298
516.28	0.294
516.73	0.291
517.19	0.293
517.64	0.291
518.10	0.292
518.55	0.289
519.01	0.291
519.46	0.290
519.92	0.289
520.37	0.287
520.83	0.289
521.28	0.287
521.74	0.287
522.19	0.288
522.65	0.285
523.10	0.285
523.55	0.287
524.01	0.288
524.46	0.286
524.92	0.284
525.37	0.284
525.83	0.286
526.28	0.283
526.73	0.285
527.19	0.284
527.64	0.284
528.10	0.282
528.55	0.281
529.01	0.280
529.46	0.280
529.91	0.279
530.37	0.279
530.82	0.278
531.28	0.277
531.73	0.276
532.18	0.275
532.64	0.277
533.09	0.275
533.54	0.275
534.00	0.274
534.45	0.277
534.91	0.275
535.36	0.275
535.81	0.275
536.27	0.274
536.72	0.274
537.17	0.273
537.63	0.274
538.08	0.273
538.54	0.271
538.99	0.269
539.44	0.272
539.90	0.271
540.35	0.269
540.80	0.271
541.26	0.269
541.71	0.267
542.16	0.268
542.62	0.267
543.07	0.268
543.52	0.269
543.98	0.267
544.43	0.265
544.88	0.265
545.34	0.267
545.79	0.263
546.24	0.263
546.69	0.265
547.15	0.263
547.60	0.265
548.05	0.265
548.51	0.262
548.96	0.263
549.41	0.262
549.86	0.263
550.32	0.263
550.77	0.263
551.22	0.261
551.68	0.259
552.13	0.259
552.58	0.257
553.03	0.260
553.49	0.260
553.94	0.258
554.39	0.258
554.84	0.258
555.30	0.257
555.75	0.258
556.20	0.256
556.65	0.255
557.11	0.259
557.56	0.255
558.01	0.257
558.46	0.256
558.92	0.255
559.37	0.257
559.82	0.257
560.27	0.254
560.72	0.253
561.18	0.252
561.63	0.251
562.08	0.250
562.53	0.251
562.99	0.252
563.44	0.251
563.89	0.252
564.34	0.251
564.79	0.252
565.25	0.250
565.70	0.250
566.15	0.248
566.60	0.247
567.05	0.249
567.50	0.249
567.96	0.249
568.41	0.248
568.86	0.249
569.31	0.245
569.76	0.248
570.21	0.246
570.67	0.246
571.12	0.247
571.57	0.247
572.02	0.243
572.47	0.245
572.92	0.244
573.37	0.241
573.83	0.244
574.28	0.244
574.73	0.243
575.18	0.243
575.63	0.245
576.08	0.242
576.53	0.240
576.98	0.242
577.44	0.239
577.89	0.243
578.34	0.240
578.79	0.240
579.24	0.241
579.69	0.242
580.14	0.239
580.59	0.239
581.04	0.239
581.49	0.240
581.95	0.238
582.40	0.240
582.85	0.237
583.30	0.237
583.75	0.237
584.20	0.239
584.65	0.238
585.10	0.236
585.55	0.237
586.00	0.237
586.45	0.236
586.90	0.237
587.35	0.236
587.80	0.237
588.25	0.236
588.71	0.237
589.16	0.235
589.61	0.235
590.06	0.236
590.51	0.236
590.96	0.236
591.41	0.236
591.86	0.237
592.31	0.236
592.76	0.236
593.21	0.235
593.66	0.237
594.11	0.234
594.56	0.236
595.01	0.236
595.46	0.235
595.91	0.236
596.36	0.236
596.81	0.236
597.26	0.234
597.71	0.233
598.16	0.232
598.61	0.233
599.06	0.234
599.51	0.237
599.96	0.236
600.41	0.235
600.86	0.234
601.31	0.235
601.76	0.235
602.21	0.234
602.65	0.235
603.10	0.233
603.55	0.233
604.00	0.234
604.45	0.233
604.90	0.233
605.35	0.232
605.80	0.233
606.25	0.234
606.70	0.232
607.15	0.229
607.60	0.231
608.05	0.230
608.50	0.233
608.95	0.231
609.39	0.233
609.84	0.232
610.29	0.231
610.74	0.233
611.19	0.230
611.64	0.230
612.09	0.230
612.54	0.231
612.99	0.231
613.44	0.230
613.88	0.232
614.33	0.230
614.78	0.228
615.23	0.227
615.68	0.228
616.13	0.229
616.58	0.226
617.03	0.228
617.47	0.227
617.92	0.228
618.37	0.226
618.82	0.228
619.27	0.226
619.72	0.227
620.17	0.225
620.61	0.228
621.06	0.226
621.51	0.226
621.96	0.226
622.41	0.227
622.86	0.223
623.30	0.224
623.75	0.227
624.20	0.226
624.65	0.224
625.10	0.225
625.54	0.224
625.99	0.226
626.44	0.222
626.89	0.224
627.34	0.226
627.78	0.224
628.23	0.223
628.68	0.223
629.13	0.224
629.58	0.224
630.02	0.224
630.47	0.222
630.92	0.224
631.37	0.223
631.81	0.224
632.26	0.222
632.71	0.223
633.16	0.224
633.61	0.224
634.05	0.220
634.50	0.221
634.95	0.222
635.40	0.223
635.84	0.222
636.29	0.222
636.74	0.224
637.18	0.224
637.63	0.225
638.08	0.221
638.53	0.222
638.97	0.222
639.42	0.223
639.87	0.223
640.32	0.224
640.76	0.222
641.21	0.223
641.66	0.223
642.10	0.224
642.55	0.221
643.00	0.223
643.44	0.223
643.89	0.223
644.34	0.223
644.79	0.222
645.23	0.225
645.68	0.224
646.13	0.223
646.57	0.224
647.02	0.222
647.47	0.225
647.91	0.222
648.36	0.224
648.81	0.226
649.25	0.222
649.70	0.224
650.15	0.225
650.59	0.223
651.04	0.223
651.48	0.224
651.93	0.225
652.38	0.222
652.82	0.223
653.27	0.222
653.72	0.225
654.16	0.222
654.61	0.225
655.06	0.223
655.50	0.221
655.95	0.220
656.39	0.215
656.84	0.220
657.29	0.225
657.73	0.222
658.18	0.223
658.62	0.223
659.07	0.223
659.52	0.223
659.96	0.221
660.41	0.223
660.85	0.220
661.30	0.221
661.74	0.222
662.19	0.219
662.64	0.220
663.08	0.219
663.53	0.219
663.97	0.218
664.42	0.219
664.86	0.220
665.31	0.218
665.75	0.216
666.20	0.219
666.65	0.218
667.09	0.217
667.54	0.218
667.98	0.213
668.43	0.213
668.87	0.213
669.32	0.213
669.76	0.212
670.21	0.212
670.65	0.210
671.10	0.210
671.54	0.208
671.99	0.207
672.43	0.207
672.88	0.206
673.32	0.205
673.77	0.205
674.21	0.205
674.66	0.206
675.10	0.203
675.55	0.201
675.99	0.202
676.44	0.200
676.88	0.199
677.33	0.198
677.77	0.196
678.22	0.197
678.66	0.194
679.11	0.193
679.55	0.194
679.99	0.193
680.44	0.194
680.88	0.189
681.33	0.188
681.77	0.189
682.22	0.187
682.66	0.189
683.11	0.187
683.55	0.186
683.99	0.182
684.44	0.182
684.88	0.181
685.33	0.182
685.77	0.180
686.21	0.179
686.66	0.179
687.10	0.179
687.55	0.176
687.99	0.178
688.44	0.177
688.88	0.176
689.32	0.176
689.77	0.173
690.21	0.172
690.65	0.173
691.10	0.172
691.54	0.170
691.99	0.172
692.43	0.168
692.87	0.168
693.32	0.168
693.76	0.170
694.20	0.169
694.65	0.166
695.09	0.168
695.53	0.167
695.98	0.165
696.42	0.166
696.86	0.165
697.31	0.163
697.75	0.164
698.19	0.164
698.64	0.162
699.08	0.164
699.52	0.163
699.97	0.163
700.41	0.163
700.85	0.164
701.30	0.161
701.74	0.161
702.18	0.162
702.63	0.159
703.07	0.161
703.51	0.161
703.96	0.159
704.40	0.161
704.84	0.164
705.28	0.161
705.73	0.161
706.17	0.160
706.61	0.158
707.06	0.158
707.50	0.157
707.94	0.158
708.38	0.157
708.83	0.159
709.27	0.157
709.71	0.157
710.15	0.158
710.60	0.156
711.04	0.156
711.48	0.157
711.92	0.159
712.37	0.157
712.81	0.159
713.25	0.158
713.69	0.157
714.13	0.158
714.58	0.155
715.02	0.157
715.46	0.154
715.90	0.155
716.35	0.153
716.79	0.156
717.23	0.156
717.67	0.156
718.11	0.158
718.56	0.155
719.00	0.156
719.44	0.154
719.88	0.155
720.32	0.154
720.76	0.154
721.21	0.155
721.65	0.153
722.09	0.155
722.53	0.154
722.97	0.155
723.41	0.151
723.86	0.156
724.30	0.156
724.74	0.156
725.18	0.154
725.62	0.154
726.06	0.153
726.50	0.153
726.95	0.152
727.39	0.153
727.83	0.151
728.27	0.154
728.71	0.154
729.15	0.153
729.59	0.154
730.03	0.149
730.48	0.154
730.92	0.152
731.36	0.153
731.80	0.153
732.24	0.154
732.68	0.153
733.12	0.151
733.56	0.154
734.00	0.150
734.44	0.153
734.89	0.152
735.33	0.154
735.77	0.154
736.21	0.156
736.65	0.151
737.09	0.155
737.53	0.153
737.97	0.153
738.41	0.153
738.85	0.157
739.29	0.155
739.73	0.151
740.17	0.154
740.61	0.152
741.05	0.155
741.49	0.152
741.93	0.151
742.37	0.151
742.81	0.151
743.26	0.153
743.70	0.153
744.14	0.151
744.58	0.149
745.02	0.148
745.46	0.152
745.90	0.151
746.34	0.152
746.78	0.150
747.22	0.152
747.66	0.153
748.10	0.151
748.54	0.149
748.98	0.152
749.42	0.149
749.86	0.151
750.29	0.151
750.73	0.149
751.17	0.147
751.61	0.147
752.05	0.150
752.49	0.148
752.93	0.146
753.37	0.147
753.81	0.148
754.25	0.148
754.69	0.147
755.13	0.148
755.57	0.149
756.01	0.149
756.45	0.148
756.89	0.149
757.33	0.148
757.77	0.147
758.21	0.146
758.64	0.146
759.08	0.142
759.52	0.145
759.96	0.148
760.40	0.144
760.84	0.145
761.28	0.147
761.72	0.145
762.16	0.146
762.60	0.144
763.03	0.143
763.47	0.143
763.91	0.145
764.35	0.144
764.79	0.145
765.23	0.142
765.67	0.141
766.11	0.141
766.54	0.140
766.98	0.144
767.42	0.145
767.86	0.143
768.30	0.141
768.74	0.145
769.17	0.145
769.61	0.146
770.05	0.143
770.49	0.144
770.93	0.144
771.37	0.139
771.80	0.140
772.24	0.142
772.68	0.142
773.12	0.141
773.56	0.141
774.00	0.137
774.43	0.139
774.87	0.139
775.31	0.141
775.75	0.140
776.19	0.141
776.62	0.140
777.06	0.142
777.50	0.139
777.94	0.141
778.37	0.141
778.81	0.140
779.25	0.141
779.69	0.144
780.13	0.142
780.56	0.141
781.00	0.137
781.44	0.142
781.88	0.139
782.31	0.140
782.75	0.138
783.19	0.140
783.63	0.138
784.06	0.136
784.50	0.137
784.94	0.140
785.37	0.139
785.81	0.139
786.25	0.138
786.69	0.137
787.12	0.137
787.56	0.136
788.00	0.139
788.43	0.139
788.87	0.136
789.31	0.136
789.75	0.140
790.18	0.136
790.62	0.135
791.06	0.138
791.49	0.135
791.93	0.134
792.37	0.139
792.80	0.132
793.24	0.138
793.68	0.135
794.11	0.137
794.55	0.138
794.99	0.137
795.42	0.135
795.86	0.139
796.30	0.137
796.73	0.138
797.17	0.138
797.61	0.131
798.04	0.135
798.48	0.136
798.91	0.138
799.35	0.135
799.79	0.136
800.22	0.133
800.66	0.133
801.10	0.135
801.53	0.138
801.97	0.140
802.40	0.135
802.84	0.135
803.28	0.134
803.71	0.134
804.15	0.135
804.58	0.132
805.02	0.133
805.46	0.134
805.89	0.134
806.33	0.133
806.76	0.135
807.20	0.133
807.63	0.136
808.07	0.133
808.51	0.133
808.94	0.131
809.38	0.131
809.81	0.133
810.25	0.136
810.68	0.135
811.12	0.132
811.55	0.138
811.99	0.134
812.42	0.136
812.86	0.130
813.29	0.131
813.73	0.133
814.17	0.130
814.60	0.134
815.04	0.131
