SpectraSuite Data File
++++++++++++++++++++++++++++++++++++
Date: Sun Apr 24 15:43:44 CEST 2016
User: spectrasuite
Dark Spectrum Present: Yes
Reference Spectrum Present: Yes
Number of Sampled Component Spectra: 1
Spectrometers: HR+C0708
Integration Time (usec): 1000 (HR+C0708)
Spectra Averaged: 10 (HR+C0708)
Boxcar Smoothing: 0 (HR+C0708)
Correct for Electrical Dark: No (HR+C0708)
Strobe/Lamp Enabled: No (HR+C0708)
Correct for Detector Non-linearity: No (HR+C0708)
Correct for Stray Light: No (HR+C0708)
Number of Pixels in Processed Spectrum: 2048
>>>>>Begin Processed Spectral Data<<<<<
188.76	-0.000
189.23	-0.000
189.70	-0.000
190.17	-0.000
190.64	-0.000
191.12	-0.000
191.59	-0.000
192.06	-0.000
192.53	-0.000
193.01	-0.000
193.48	-0.000
193.95	-0.000
194.42	-0.000
194.90	0.591
195.37	-0.000
195.84	-0.000
196.31	-0.000
196.78	-0.000
197.26	-0.000
197.73	-0.000
198.20	-0.000
198.67	-0.000
199.14	-0.000
199.62	-0.000
200.09	-0.000
200.56	-0.000
201.03	-0.000
201.50	-0.000
201.97	-0.000
202.45	-0.000
202.92	-0.000
203.39	0.945
203.86	-0.000
204.33	-0.000
204.80	1.777
205.28	1.321
205.75	-0.000
206.22	-0.000
206.69	-0.000
207.16	-0.000
207.63	-0.000
208.11	0.887
208.58	1.606
209.05	-0.000
209.52	-0.000
209.99	1.091
210.46	-0.000
210.93	-0.000
211.41	1.322
211.88	-0.000
212.35	1.402
212.82	-0.000
213.29	1.464
213.76	1.396
214.23	-0.000
214.70	-0.000
215.18	-0.000
215.65	1.131
216.12	-0.000
216.59	-0.000
217.06	-0.000
217.53	-0.000
218.00	-0.000
218.47	1.230
218.94	-0.000
219.41	-0.000
219.89	-0.000
220.36	-0.000
220.83	1.322
221.30	-0.000
221.77	1.002
222.24	-0.000
222.71	-0.000
223.18	-0.000
223.65	-0.000
224.12	-0.000
224.59	-0.000
225.06	-0.000
225.54	1.754
226.01	1.332
226.48	-0.000
226.95	-0.000
227.42	-0.000
227.89	-0.000
228.36	2.519
228.83	-0.000
229.30	1.781
229.77	3.045
230.24	2.230
230.71	-0.000
231.18	-0.000
231.65	-0.000
232.12	2.075
232.59	2.048
233.06	-0.000
233.53	2.218
234.00	2.538
234.47	-0.000
234.94	-0.000
235.41	2.714
235.88	-0.000
236.35	-0.000
236.82	-0.000
237.29	2.973
237.76	-0.000
238.23	-0.000
238.70	2.627
239.17	2.333
239.64	-0.000
240.11	-0.000
240.58	3.487
241.05	2.819
241.52	2.846
241.99	3.616
242.46	2.793
242.93	-0.000
243.40	-0.000
243.87	2.567
244.34	2.583
244.81	3.151
245.28	-0.000
245.75	-0.000
246.22	3.024
246.69	-0.000
247.16	-0.000
247.63	3.182
248.10	2.842
248.57	-0.000
249.04	3.200
249.51	3.243
249.98	3.934
250.45	3.060
250.92	3.152
251.39	-0.000
251.85	-0.000
252.32	-0.000
252.79	-0.000
253.26	-0.000
253.73	-0.000
254.20	2.842
254.67	2.838
255.14	3.309
255.61	3.771
256.08	-0.000
256.55	-0.000
257.02	2.990
257.49	-0.000
257.95	3.136
258.42	3.497
258.89	3.597
259.36	2.839
259.83	2.855
260.30	-0.000
260.77	-0.000
261.24	2.885
261.71	3.400
262.17	4.359
262.64	3.381
263.11	3.103
263.58	-0.000
264.05	3.379
264.52	3.075
264.99	3.015
265.46	3.707
265.92	3.053
266.39	2.890
266.86	3.758
267.33	3.623
267.80	2.777
268.27	3.032
268.74	2.824
269.20	3.332
269.67	2.919
270.14	2.699
270.61	2.847
271.08	2.754
271.55	2.645
272.01	2.806
272.48	2.684
272.95	2.759
273.42	2.667
273.89	2.830
274.36	2.962
274.82	2.595
275.29	2.552
275.76	2.780
276.23	2.567
276.70	2.497
277.16	2.479
277.63	2.515
278.10	2.501
278.57	2.449
279.04	2.480
279.50	2.550
279.97	2.395
280.44	2.405
280.91	2.379
281.38	2.293
281.84	2.368
282.31	2.482
282.78	2.616
283.25	2.359
283.72	2.310
284.18	2.409
284.65	2.365
285.12	2.308
285.59	2.232
286.05	2.334
286.52	2.266
286.99	2.263
287.46	2.285
287.92	2.256
288.39	2.226
288.86	2.261
289.33	2.263
289.79	2.272
290.26	2.241
290.73	2.155
291.20	2.210
291.66	2.193
292.13	2.159
292.60	2.167
293.07	2.148
293.53	2.117
294.00	2.174
294.47	2.132
294.93	2.126
295.40	2.153
295.87	2.111
296.34	2.167
296.80	2.066
297.27	2.065
297.74	2.091
298.20	2.094
298.67	2.088
299.14	2.083
299.60	2.044
300.07	2.042
300.54	2.027
301.01	2.011
301.47	1.952
301.94	1.964
302.41	1.983
302.87	2.030
303.34	2.004
303.81	1.944
304.27	1.975
304.74	1.939
305.21	1.939
305.67	1.952
306.14	1.942
306.61	1.930
307.07	1.898
307.54	1.939
308.01	1.919
308.47	1.915
308.94	1.922
309.40	1.915
309.87	1.880
310.34	1.899
310.80	1.889
311.27	1.874
311.74	1.836
312.20	1.872
312.67	1.879
313.13	1.858
313.60	1.866
314.07	1.864
314.53	1.814
315.00	1.800
315.47	1.826
315.93	1.815
316.40	1.790
316.86	1.801
317.33	1.777
317.80	1.778
318.26	1.807
318.73	1.791
319.19	1.777
319.66	1.776
320.13	1.773
320.59	1.753
321.06	1.758
321.52	1.744
321.99	1.740
322.45	1.711
322.92	1.690
323.39	1.716
323.85	1.709
324.32	1.700
324.78	1.726
325.25	1.695
325.71	1.659
326.18	1.655
326.64	1.701
327.11	1.656
327.58	1.628
328.04	1.629
328.51	1.628
328.97	1.618
329.44	1.605
329.90	1.590
330.37	1.593
330.83	1.563
331.30	1.576
331.76	1.564
332.23	1.549
332.69	1.528
333.16	1.510
333.62	1.523
334.09	1.494
334.56	1.468
335.02	1.474
335.49	1.454
335.95	1.418
336.42	1.416
336.88	1.405
337.35	1.394
337.81	1.379
338.28	1.353
338.74	1.351
339.20	1.321
339.67	1.303
340.13	1.304
340.60	1.272
341.06	1.246
341.53	1.233
341.99	1.215
342.46	1.193
342.92	1.175
343.39	1.158
343.85	1.153
344.32	1.125
344.78	1.111
345.25	1.098
345.71	1.077
346.17	1.061
346.64	1.042
347.10	1.023
347.57	0.996
348.03	0.975
348.50	0.960
348.96	0.940
349.43	0.921
349.89	0.911
350.35	0.901
350.82	0.883
351.28	0.871
351.75	0.863
352.21	0.848
352.67	0.819
353.14	0.820
353.60	0.805
354.07	0.790
354.53	0.773
355.00	0.761
355.46	0.762
355.92	0.745
356.39	0.728
356.85	0.724
357.31	0.720
357.78	0.709
358.24	0.695
358.71	0.692
359.17	0.680
359.63	0.684
360.10	0.675
360.56	0.668
361.03	0.660
361.49	0.656
361.95	0.652
362.42	0.644
362.88	0.642
363.34	0.640
363.81	0.632
364.27	0.632
364.73	0.624
365.20	0.625
365.66	0.620
366.12	0.622
366.59	0.613
367.05	0.617
367.51	0.609
367.98	0.608
368.44	0.604
368.90	0.602
369.37	0.599
369.83	0.597
370.29	0.597
370.76	0.590
371.22	0.592
371.68	0.588
372.15	0.586
372.61	0.581
373.07	0.578
373.54	0.579
374.00	0.576
374.46	0.577
374.92	0.577
375.39	0.573
375.85	0.565
376.31	0.567
376.78	0.569
377.24	0.566
377.70	0.564
378.16	0.559
378.63	0.559
379.09	0.557
379.55	0.554
380.01	0.553
380.48	0.555
380.94	0.551
381.40	0.549
381.87	0.544
382.33	0.545
382.79	0.543
383.25	0.539
383.72	0.545
384.18	0.538
384.64	0.534
385.10	0.536
385.56	0.536
386.03	0.527
386.49	0.529
386.95	0.526
387.41	0.529
387.88	0.524
388.34	0.523
388.80	0.524
389.26	0.519
389.72	0.523
390.19	0.521
390.65	0.516
391.11	0.519
391.57	0.515
392.04	0.512
392.50	0.509
392.96	0.508
393.42	0.508
393.88	0.510
394.34	0.504
394.81	0.500
395.27	0.502
395.73	0.503
396.19	0.499
396.65	0.498
397.12	0.495
397.58	0.494
398.04	0.492
398.50	0.491
398.96	0.492
399.42	0.493
399.89	0.485
400.35	0.488
400.81	0.484
401.27	0.482
401.73	0.486
402.19	0.480
402.65	0.478
403.12	0.477
403.58	0.479
404.04	0.473
404.50	0.477
404.96	0.471
405.42	0.471
405.88	0.469
406.34	0.472
406.81	0.468
407.27	0.467
407.73	0.467
408.19	0.464
408.65	0.463
409.11	0.462
409.57	0.462
410.03	0.458
410.49	0.461
410.96	0.456
411.42	0.455
411.88	0.454
412.34	0.451
412.80	0.452
413.26	0.448
413.72	0.450
414.18	0.448
414.64	0.445
415.10	0.447
415.56	0.446
416.02	0.448
416.48	0.444
416.95	0.441
417.41	0.441
417.87	0.440
418.33	0.439
418.79	0.437
419.25	0.437
419.71	0.433
420.17	0.434
420.63	0.433
421.09	0.434
421.55	0.428
422.01	0.431
422.47	0.430
422.93	0.429
423.39	0.426
423.85	0.429
424.31	0.426
424.77	0.425
425.23	0.422
425.69	0.424
426.15	0.423
426.61	0.424
427.07	0.418
427.53	0.417
427.99	0.414
428.45	0.416
428.91	0.417
429.37	0.411
429.83	0.411
430.29	0.412
430.75	0.412
431.21	0.411
431.67	0.412
432.13	0.410
432.59	0.407
433.05	0.407
433.51	0.405
433.97	0.405
434.43	0.406
434.89	0.407
435.35	0.403
435.81	0.397
436.27	0.397
436.73	0.397
437.19	0.397
437.65	0.398
438.11	0.393
438.57	0.396
439.03	0.394
439.48	0.392
439.94	0.390
440.40	0.388
440.86	0.389
441.32	0.390
441.78	0.389
442.24	0.388
442.70	0.388
443.16	0.384
443.62	0.385
444.08	0.385
444.54	0.382
444.99	0.382
445.45	0.381
445.91	0.382
446.37	0.381
446.83	0.379
447.29	0.378
447.75	0.376
448.21	0.379
448.67	0.374
449.12	0.374
449.58	0.375
450.04	0.373
450.50	0.376
450.96	0.371
451.42	0.367
451.88	0.365
452.34	0.373
452.79	0.369
453.25	0.368
453.71	0.368
454.17	0.363
454.63	0.366
455.09	0.366
455.55	0.363
456.00	0.359
456.46	0.361
456.92	0.362
457.38	0.360
457.84	0.358
458.30	0.355
458.75	0.361
459.21	0.356
459.67	0.359
460.13	0.355
460.59	0.354
461.04	0.352
461.50	0.353
461.96	0.351
462.42	0.353
462.88	0.349
463.33	0.348
463.79	0.347
464.25	0.348
464.71	0.347
465.17	0.346
465.62	0.345
466.08	0.346
466.54	0.344
467.00	0.346
467.46	0.345
467.91	0.345
468.37	0.345
468.83	0.341
469.29	0.340
469.74	0.341
470.20	0.338
470.66	0.337
471.12	0.335
471.57	0.338
472.03	0.337
472.49	0.339
472.95	0.335
473.40	0.334
473.86	0.332
474.32	0.331
474.78	0.332
475.23	0.329
475.69	0.331
476.15	0.329
476.60	0.329
477.06	0.330
477.52	0.329
477.98	0.328
478.43	0.328
478.89	0.326
479.35	0.325
479.80	0.326
480.26	0.324
480.72	0.322
481.18	0.322
481.63	0.322
482.09	0.320
482.55	0.321
483.00	0.319
483.46	0.319
483.92	0.319
484.37	0.318
484.83	0.315
485.29	0.315
485.74	0.315
486.20	0.315
486.66	0.316
487.11	0.314
487.57	0.313
488.03	0.312
488.48	0.313
488.94	0.309
489.40	0.312
489.85	0.311
490.31	0.310
490.77	0.311
491.22	0.310
491.68	0.308
492.13	0.307
492.59	0.307
493.05	0.307
493.50	0.306
493.96	0.303
494.42	0.304
494.87	0.303
495.33	0.302
495.78	0.303
496.24	0.304
496.70	0.302
497.15	0.299
497.61	0.301
498.06	0.298
498.52	0.299
498.98	0.296
499.43	0.299
499.89	0.298
500.34	0.296
500.80	0.298
501.25	0.295
501.71	0.293
502.17	0.295
502.62	0.295
503.08	0.294
503.53	0.292
503.99	0.289
504.44	0.292
504.90	0.291
505.36	0.289
505.81	0.290
506.27	0.290
506.72	0.291
507.18	0.291
507.63	0.288
508.09	0.289
508.54	0.287
509.00	0.286
509.45	0.288
509.91	0.286
510.36	0.285
510.82	0.287
511.27	0.285
511.73	0.283
512.19	0.284
512.64	0.281
513.10	0.283
513.55	0.282
514.01	0.279
514.46	0.279
514.92	0.279
515.37	0.279
515.83	0.278
516.28	0.278
516.73	0.277
517.19	0.277
517.64	0.274
518.10	0.274
518.55	0.274
519.01	0.275
519.46	0.276
519.92	0.275
520.37	0.271
520.83	0.271
521.28	0.273
521.74	0.272
522.19	0.272
522.65	0.269
523.10	0.273
523.55	0.270
524.01	0.272
524.46	0.269
524.92	0.269
525.37	0.268
525.83	0.266
526.28	0.268
526.73	0.268
527.19	0.268
527.64	0.268
528.10	0.265
528.55	0.264
529.01	0.267
529.46	0.265
529.91	0.262
530.37	0.262
530.82	0.261
531.28	0.262
531.73	0.261
532.18	0.260
532.64	0.261
533.09	0.260
533.54	0.259
534.00	0.257
534.45	0.263
534.91	0.258
535.36	0.259
535.81	0.258
536.27	0.256
536.72	0.260
537.17	0.256
537.63	0.253
538.08	0.254
538.54	0.255
538.99	0.253
539.44	0.255
539.90	0.254
540.35	0.255
540.80	0.251
541.26	0.253
541.71	0.251
542.16	0.250
542.62	0.250
543.07	0.252
543.52	0.253
543.98	0.251
544.43	0.249
544.88	0.249
545.34	0.250
545.79	0.250
546.24	0.247
546.69	0.251
547.15	0.247
547.60	0.246
548.05	0.249
548.51	0.245
548.96	0.244
549.41	0.245
549.86	0.246
550.32	0.245
550.77	0.246
551.22	0.243
551.68	0.242
552.13	0.242
552.58	0.241
553.03	0.241
553.49	0.243
553.94	0.238
554.39	0.240
554.84	0.243
555.30	0.241
555.75	0.239
556.20	0.238
556.65	0.238
557.11	0.239
557.56	0.238
558.01	0.239
558.46	0.239
558.92	0.237
559.37	0.237
559.82	0.237
560.27	0.235
560.72	0.235
561.18	0.235
561.63	0.233
562.08	0.233
562.53	0.233
562.99	0.235
563.44	0.232
563.89	0.232
564.34	0.233
564.79	0.232
565.25	0.229
565.70	0.231
566.15	0.229
566.60	0.229
567.05	0.230
567.50	0.230
567.96	0.229
568.41	0.228
568.86	0.229
569.31	0.228
569.76	0.225
570.21	0.225
570.67	0.226
571.12	0.226
571.57	0.225
572.02	0.224
572.47	0.223
572.92	0.225
573.37	0.223
573.83	0.224
574.28	0.223
574.73	0.221
575.18	0.220
575.63	0.222
576.08	0.220
576.53	0.221
576.98	0.221
577.44	0.218
577.89	0.220
578.34	0.219
578.79	0.218
579.24	0.219
579.69	0.217
580.14	0.216
580.59	0.216
581.04	0.215
581.49	0.215
581.95	0.214
582.40	0.216
582.85	0.215
583.30	0.213
583.75	0.214
584.20	0.214
584.65	0.214
585.10	0.213
585.55	0.214
586.00	0.213
586.45	0.213
586.90	0.212
587.35	0.214
587.80	0.211
588.25	0.209
588.71	0.212
589.16	0.211
589.61	0.208
590.06	0.210
590.51	0.211
590.96	0.209
591.41	0.208
591.86	0.207
592.31	0.208
592.76	0.209
593.21	0.208
593.66	0.207
594.11	0.209
594.56	0.206
595.01	0.206
595.46	0.207
595.91	0.205
596.36	0.206
596.81	0.206
597.26	0.206
597.71	0.205
598.16	0.205
598.61	0.204
599.06	0.204
599.51	0.205
599.96	0.206
600.41	0.205
600.86	0.204
601.31	0.203
601.76	0.203
602.21	0.203
602.65	0.203
603.10	0.200
603.55	0.199
604.00	0.202
604.45	0.201
604.90	0.200
605.35	0.200
605.80	0.200
606.25	0.203
606.70	0.201
607.15	0.198
607.60	0.197
608.05	0.199
608.50	0.199
608.95	0.197
609.39	0.200
609.84	0.198
610.29	0.197
610.74	0.196
611.19	0.194
611.64	0.197
612.09	0.196
612.54	0.196
612.99	0.197
613.44	0.193
613.88	0.196
614.33	0.194
614.78	0.193
615.23	0.194
615.68	0.192
616.13	0.193
616.58	0.192
617.03	0.192
617.47	0.192
617.92	0.192
618.37	0.190
618.82	0.191
619.27	0.190
619.72	0.191
620.17	0.187
620.61	0.190
621.06	0.190
621.51	0.191
621.96	0.188
622.41	0.190
622.86	0.190
623.30	0.188
623.75	0.188
624.20	0.188
624.65	0.188
625.10	0.188
625.54	0.186
625.99	0.187
626.44	0.185
626.89	0.186
627.34	0.186
627.78	0.186
628.23	0.185
628.68	0.184
629.13	0.184
629.58	0.184
630.02	0.184
630.47	0.184
630.92	0.182
631.37	0.184
631.81	0.183
632.26	0.184
632.71	0.183
633.16	0.182
633.61	0.183
634.05	0.182
634.50	0.181
634.95	0.180
635.40	0.183
635.84	0.184
636.29	0.181
636.74	0.181
637.18	0.182
637.63	0.181
638.08	0.179
638.53	0.180
638.97	0.178
639.42	0.179
639.87	0.180
640.32	0.178
640.76	0.179
641.21	0.179
641.66	0.180
642.10	0.180
642.55	0.177
643.00	0.176
643.44	0.178
643.89	0.179
644.34	0.176
644.79	0.177
645.23	0.177
645.68	0.177
646.13	0.176
646.57	0.176
647.02	0.175
647.47	0.176
647.91	0.175
648.36	0.175
648.81	0.176
649.25	0.175
649.70	0.175
650.15	0.173
650.59	0.174
651.04	0.174
651.48	0.174
651.93	0.174
652.38	0.173
652.82	0.173
653.27	0.171
653.72	0.174
654.16	0.169
654.61	0.172
655.06	0.170
655.50	0.169
655.95	0.168
656.39	0.164
656.84	0.168
657.29	0.174
657.73	0.170
658.18	0.170
658.62	0.171
659.07	0.171
659.52	0.170
659.96	0.170
660.41	0.172
660.85	0.168
661.30	0.167
661.74	0.169
662.19	0.169
662.64	0.169
663.08	0.167
663.53	0.167
663.97	0.167
664.42	0.167
664.86	0.167
665.31	0.166
665.75	0.166
666.20	0.167
666.65	0.166
667.09	0.165
667.54	0.166
667.98	0.165
668.43	0.165
668.87	0.166
669.32	0.163
669.76	0.164
670.21	0.165
670.65	0.164
671.10	0.165
671.54	0.165
671.99	0.162
672.43	0.164
672.88	0.163
673.32	0.163
673.77	0.160
674.21	0.162
674.66	0.162
675.10	0.162
675.55	0.160
675.99	0.161
676.44	0.162
676.88	0.163
677.33	0.162
677.77	0.162
678.22	0.161
678.66	0.159
679.11	0.159
679.55	0.162
679.99	0.161
680.44	0.160
680.88	0.159
681.33	0.160
681.77	0.159
682.22	0.159
682.66	0.160
683.11	0.159
683.55	0.158
683.99	0.159
684.44	0.158
684.88	0.156
685.33	0.158
685.77	0.159
686.21	0.157
686.66	0.156
687.10	0.157
687.55	0.156
687.99	0.158
688.44	0.157
688.88	0.156
689.32	0.158
689.77	0.155
690.21	0.156
690.65	0.155
691.10	0.158
691.54	0.154
691.99	0.156
692.43	0.154
692.87	0.154
693.32	0.156
693.76	0.155
694.20	0.156
694.65	0.154
695.09	0.156
695.53	0.153
695.98	0.154
696.42	0.155
696.86	0.153
697.31	0.153
697.75	0.154
698.19	0.154
698.64	0.154
699.08	0.152
699.52	0.154
699.97	0.153
700.41	0.155
700.85	0.154
701.30	0.153
701.74	0.152
702.18	0.153
702.63	0.151
703.07	0.152
703.51	0.152
703.96	0.152
704.40	0.151
704.84	0.152
705.28	0.150
705.73	0.154
706.17	0.153
706.61	0.150
707.06	0.150
707.50	0.151
707.94	0.149
708.38	0.149
708.83	0.152
709.27	0.151
709.71	0.148
710.15	0.151
710.60	0.149
711.04	0.148
711.48	0.150
711.92	0.151
712.37	0.147
712.81	0.151
713.25	0.150
713.69	0.150
714.13	0.150
714.58	0.148
715.02	0.150
715.46	0.149
715.90	0.148
716.35	0.148
716.79	0.150
717.23	0.150
717.67	0.148
718.11	0.151
718.56	0.149
719.00	0.150
719.44	0.148
719.88	0.150
720.32	0.148
720.76	0.149
721.21	0.147
721.65	0.148
722.09	0.148
722.53	0.147
722.97	0.149
723.41	0.148
723.86	0.149
724.30	0.148
724.74	0.150
725.18	0.147
725.62	0.146
726.06	0.148
726.50	0.145
726.95	0.145
727.39	0.148
727.83	0.147
728.27	0.147
728.71	0.150
729.15	0.149
729.59	0.149
730.03	0.145
730.48	0.146
730.92	0.147
731.36	0.147
731.80	0.148
732.24	0.148
732.68	0.146
733.12	0.146
733.56	0.146
734.00	0.146
734.44	0.148
734.89	0.148
735.33	0.148
735.77	0.151
736.21	0.146
736.65	0.146
737.09	0.148
737.53	0.148
737.97	0.147
738.41	0.147
738.85	0.151
739.29	0.149
739.73	0.147
740.17	0.147
740.61	0.147
741.05	0.148
741.49	0.149
741.93	0.148
742.37	0.145
742.81	0.145
743.26	0.147
743.70	0.148
744.14	0.145
744.58	0.145
745.02	0.148
745.46	0.148
745.90	0.145
746.34	0.147
746.78	0.146
747.22	0.147
747.66	0.146
748.10	0.146
748.54	0.146
748.98	0.144
749.42	0.144
749.86	0.147
750.29	0.144
750.73	0.141
751.17	0.141
751.61	0.143
752.05	0.145
752.49	0.142
752.93	0.139
753.37	0.142
753.81	0.141
754.25	0.142
754.69	0.142
755.13	0.139
755.57	0.142
756.01	0.143
756.45	0.141
756.89	0.142
757.33	0.142
757.77	0.142
758.21	0.140
758.64	0.139
759.08	0.139
759.52	0.142
759.96	0.144
760.40	0.141
760.84	0.140
761.28	0.140
761.72	0.139
762.16	0.141
762.60	0.140
763.03	0.139
763.47	0.141
763.91	0.140
764.35	0.141
764.79	0.138
765.23	0.136
765.67	0.140
766.11	0.136
766.54	0.133
766.98	0.138
767.42	0.142
767.86	0.137
768.30	0.138
768.74	0.137
769.17	0.143
769.61	0.140
770.05	0.138
770.49	0.139
770.93	0.143
771.37	0.136
771.80	0.140
772.24	0.136
772.68	0.138
773.12	0.138
773.56	0.134
774.00	0.135
774.43	0.136
774.87	0.137
775.31	0.137
775.75	0.138
776.19	0.137
776.62	0.135
777.06	0.137
777.50	0.136
777.94	0.136
778.37	0.133
778.81	0.135
779.25	0.136
779.69	0.136
780.13	0.136
780.56	0.134
781.00	0.133
781.44	0.134
781.88	0.134
782.31	0.130
782.75	0.132
783.19	0.135
783.63	0.134
784.06	0.129
784.50	0.135
784.94	0.133
785.37	0.135
785.81	0.136
786.25	0.134
786.69	0.132
787.12	0.132
787.56	0.131
788.00	0.135
788.43	0.134
788.87	0.134
789.31	0.133
789.75	0.134
790.18	0.134
790.62	0.134
791.06	0.132
791.49	0.131
791.93	0.129
792.37	0.131
792.80	0.132
793.24	0.130
793.68	0.132
794.11	0.133
794.55	0.135
794.99	0.132
795.42	0.131
795.86	0.135
796.30	0.131
796.73	0.131
797.17	0.129
797.61	0.129
798.04	0.131
798.48	0.131
798.91	0.130
799.35	0.129
799.79	0.132
800.22	0.131
800.66	0.128
801.10	0.133
801.53	0.130
801.97	0.134
802.40	0.134
802.84	0.131
803.28	0.128
803.71	0.128
804.15	0.130
804.58	0.131
805.02	0.135
805.46	0.131
805.89	0.127
806.33	0.129
806.76	0.128
807.20	0.132
807.63	0.127
808.07	0.133
808.51	0.127
808.94	0.126
809.38	0.126
809.81	0.126
810.25	0.131
810.68	0.130
811.12	0.129
811.55	0.130
811.99	0.128
812.42	0.131
812.86	0.129
813.29	0.128
813.73	0.129
814.17	0.128
814.60	0.128
