SpectraSuite Data File
++++++++++++++++++++++++++++++++++++
Date: Sun Apr 24 15:42:44 CEST 2016
User: spectrasuite
Dark Spectrum Present: Yes
Reference Spectrum Present: Yes
Number of Sampled Component Spectra: 1
Spectrometers: HR+C0708
Integration Time (usec): 1000 (HR+C0708)
Spectra Averaged: 10 (HR+C0708)
Boxcar Smoothing: 0 (HR+C0708)
Correct for Electrical Dark: No (HR+C0708)
Strobe/Lamp Enabled: No (HR+C0708)
Correct for Detector Non-linearity: No (HR+C0708)
Correct for Stray Light: No (HR+C0708)
Number of Pixels in Processed Spectrum: 2048
>>>>>Begin Processed Spectral Data<<<<<
188.76	-0.000
189.23	0.265
189.70	-0.000
190.17	-0.000
190.64	-0.000
191.12	-0.000
191.59	-0.000
192.06	-0.000
192.53	-0.000
193.01	-0.000
193.48	-0.000
193.95	-0.000
194.42	-0.000
194.90	-0.000
195.37	-0.000
195.84	-0.000
196.31	-0.000
196.78	-0.000
197.26	-0.000
197.73	-0.000
198.20	-0.000
198.67	-0.000
199.14	-0.000
199.62	-0.000
200.09	-0.000
200.56	-0.000
201.03	1.098
201.50	1.142
201.97	1.661
202.45	-0.000
202.92	0.628
203.39	1.074
203.86	1.483
204.33	1.464
204.80	-0.000
205.28	1.029
205.75	-0.000
206.22	-0.000
206.69	-0.000
207.16	-0.000
207.63	1.731
208.11	2.757
208.58	1.092
209.05	-0.000
209.52	1.332
209.99	-0.000
210.46	1.672
210.93	-0.000
211.41	1.077
211.88	1.701
212.35	-0.000
212.82	-0.000
213.29	1.086
213.76	1.758
214.23	-0.000
214.70	1.255
215.18	-0.000
215.65	0.752
216.12	0.914
216.59	1.274
217.06	-0.000
217.53	1.292
218.00	0.998
218.47	-0.000
218.94	1.572
219.41	1.470
219.89	-0.000
220.36	-0.000
220.83	1.111
221.30	1.655
221.77	1.216
222.24	1.968
222.71	-0.000
223.18	-0.000
223.65	-0.000
224.12	-0.000
224.59	-0.000
225.06	1.378
225.54	1.536
226.01	1.216
226.48	1.278
226.95	-0.000
227.42	-0.000
227.89	-0.000
228.36	1.360
228.83	2.698
229.30	2.009
229.77	1.850
230.24	1.675
230.71	-0.000
231.18	-0.000
231.65	1.866
232.12	1.625
232.59	2.250
233.06	-0.000
233.53	1.964
234.00	2.572
234.47	3.394
234.94	-0.000
235.41	2.131
235.88	-0.000
236.35	-0.000
236.82	2.270
237.29	2.409
237.76	3.031
238.23	-0.000
238.70	2.520
239.17	2.472
239.64	3.689
240.11	3.303
240.58	2.862
241.05	2.508
241.52	2.919
241.99	3.343
242.46	2.503
242.93	3.021
243.40	3.327
243.87	2.656
244.34	2.501
244.81	-0.000
245.28	3.498
245.75	3.123
246.22	-0.000
246.69	3.005
247.16	3.085
247.63	3.156
248.10	-0.000
248.57	-0.000
249.04	-0.000
249.51	-0.000
249.98	-0.000
250.45	3.080
250.92	2.857
251.39	3.871
251.85	-0.000
252.32	-0.000
252.79	2.960
253.26	3.126
253.73	-0.000
254.20	3.196
254.67	2.881
255.14	3.163
255.61	3.150
256.08	3.233
256.55	-0.000
257.02	2.849
257.49	2.770
257.95	3.408
258.42	2.948
258.89	3.120
259.36	2.963
259.83	3.554
260.30	3.558
260.77	-0.000
261.24	3.068
261.71	-0.000
262.17	3.404
262.64	2.746
263.11	3.282
263.58	-0.000
264.05	3.032
264.52	2.953
264.99	2.922
265.46	2.995
265.92	2.966
266.39	3.052
266.86	-0.000
267.33	3.007
267.80	2.751
268.27	3.223
268.74	2.945
269.20	3.061
269.67	2.804
270.14	2.783
270.61	2.771
271.08	2.804
271.55	2.656
272.01	2.773
272.48	2.725
272.95	2.560
273.42	2.857
273.89	2.784
274.36	2.685
274.82	2.563
275.29	2.632
275.76	2.633
276.23	2.613
276.70	2.607
277.16	2.446
277.63	2.411
278.10	2.600
278.57	2.545
279.04	2.549
279.50	2.562
279.97	2.508
280.44	2.388
280.91	2.382
281.38	2.313
281.84	2.395
282.31	2.387
282.78	2.514
283.25	2.351
283.72	2.336
284.18	2.309
284.65	2.382
285.12	2.366
285.59	2.263
286.05	2.278
286.52	2.280
286.99	2.281
287.46	2.250
287.92	2.252
288.39	2.259
288.86	2.264
289.33	2.236
289.79	2.220
290.26	2.275
290.73	2.194
291.20	2.161
291.66	2.193
292.13	2.176
292.60	2.148
293.07	2.126
293.53	2.130
294.00	2.134
294.47	2.131
294.93	2.132
295.40	2.156
295.87	2.098
296.34	2.110
296.80	2.084
297.27	2.101
297.74	2.039
298.20	2.080
298.67	2.036
299.14	2.079
299.60	2.039
300.07	2.044
300.54	2.040
301.01	2.010
301.47	1.994
301.94	2.009
302.41	1.987
302.87	1.984
303.34	2.018
303.81	1.981
304.27	1.981
304.74	1.943
305.21	1.940
305.67	1.954
306.14	1.907
306.61	1.972
307.07	1.902
307.54	1.926
308.01	1.934
308.47	1.889
308.94	1.910
309.40	1.920
309.87	1.887
310.34	1.875
310.80	1.902
311.27	1.864
311.74	1.841
312.20	1.874
312.67	1.869
313.13	1.818
313.60	1.838
314.07	1.850
314.53	1.813
315.00	1.781
315.47	1.837
315.93	1.826
316.40	1.775
316.86	1.809
317.33	1.796
317.80	1.791
318.26	1.797
318.73	1.790
319.19	1.796
319.66	1.758
320.13	1.761
320.59	1.746
321.06	1.749
321.52	1.741
321.99	1.734
322.45	1.741
322.92	1.710
323.39	1.711
323.85	1.708
324.32	1.723
324.78	1.706
325.25	1.702
325.71	1.692
326.18	1.654
326.64	1.689
327.11	1.678
327.58	1.642
328.04	1.642
328.51	1.658
328.97	1.647
329.44	1.633
329.90	1.618
330.37	1.599
330.83	1.578
331.30	1.605
331.76	1.586
332.23	1.572
332.69	1.566
333.16	1.530
333.62	1.517
334.09	1.506
334.56	1.490
335.02	1.485
335.49	1.458
335.95	1.442
336.42	1.434
336.88	1.415
337.35	1.413
337.81	1.388
338.28	1.368
338.74	1.353
339.20	1.349
339.67	1.321
340.13	1.315
340.60	1.292
341.06	1.264
341.53	1.247
341.99	1.233
342.46	1.218
342.92	1.197
343.39	1.174
343.85	1.162
344.32	1.141
344.78	1.127
345.25	1.117
345.71	1.084
346.17	1.073
346.64	1.049
347.10	1.028
347.57	1.008
348.03	0.988
348.50	0.958
348.96	0.954
349.43	0.939
349.89	0.923
350.35	0.895
350.82	0.890
351.28	0.880
351.75	0.859
352.21	0.850
352.67	0.832
353.14	0.826
353.60	0.811
354.07	0.794
354.53	0.784
355.00	0.762
355.46	0.751
355.92	0.737
356.39	0.731
356.85	0.734
357.31	0.714
357.78	0.714
358.24	0.696
358.71	0.688
359.17	0.687
359.63	0.678
360.10	0.674
360.56	0.670
361.03	0.666
361.49	0.657
361.95	0.653
362.42	0.646
362.88	0.645
363.34	0.637
363.81	0.635
364.27	0.631
364.73	0.629
365.20	0.627
365.66	0.622
366.12	0.620
366.59	0.615
367.05	0.611
367.51	0.611
367.98	0.606
368.44	0.603
368.90	0.600
369.37	0.600
369.83	0.598
370.29	0.593
370.76	0.592
371.22	0.590
371.68	0.587
372.15	0.582
372.61	0.583
373.07	0.580
373.54	0.576
374.00	0.573
374.46	0.574
374.92	0.571
375.39	0.573
375.85	0.568
376.31	0.568
376.78	0.562
377.24	0.566
377.70	0.566
378.16	0.557
378.63	0.556
379.09	0.557
379.55	0.556
380.01	0.556
380.48	0.550
380.94	0.550
381.40	0.544
381.87	0.544
382.33	0.546
382.79	0.541
383.25	0.541
383.72	0.543
384.18	0.536
384.64	0.539
385.10	0.534
385.56	0.532
386.03	0.532
386.49	0.529
386.95	0.526
387.41	0.529
387.88	0.526
388.34	0.522
388.80	0.521
389.26	0.520
389.72	0.520
390.19	0.517
390.65	0.517
391.11	0.519
391.57	0.515
392.04	0.513
392.50	0.509
392.96	0.509
393.42	0.505
393.88	0.503
394.34	0.504
394.81	0.502
395.27	0.498
395.73	0.501
396.19	0.499
396.65	0.498
397.12	0.494
397.58	0.495
398.04	0.492
398.50	0.492
398.96	0.491
399.42	0.491
399.89	0.487
400.35	0.486
400.81	0.483
401.27	0.487
401.73	0.482
402.19	0.479
402.65	0.478
403.12	0.478
403.58	0.473
404.04	0.474
404.50	0.476
404.96	0.474
405.42	0.470
405.88	0.469
406.34	0.472
406.81	0.468
407.27	0.463
407.73	0.464
408.19	0.465
408.65	0.462
409.11	0.459
409.57	0.462
410.03	0.459
410.49	0.456
410.96	0.457
411.42	0.455
411.88	0.455
412.34	0.452
412.80	0.457
413.26	0.451
413.72	0.451
414.18	0.447
414.64	0.448
415.10	0.448
415.56	0.447
416.02	0.449
416.48	0.442
416.95	0.441
417.41	0.442
417.87	0.439
418.33	0.440
418.79	0.436
419.25	0.435
419.71	0.434
420.17	0.435
420.63	0.431
421.09	0.432
421.55	0.429
422.01	0.427
422.47	0.428
422.93	0.430
423.39	0.430
423.85	0.431
424.31	0.424
424.77	0.425
425.23	0.423
425.69	0.426
426.15	0.422
426.61	0.420
427.07	0.415
427.53	0.416
427.99	0.416
428.45	0.419
428.91	0.415
429.37	0.413
429.83	0.413
430.29	0.412
430.75	0.410
431.21	0.412
431.67	0.410
432.13	0.411
432.59	0.402
433.05	0.407
433.51	0.402
433.97	0.405
434.43	0.405
434.89	0.406
435.35	0.403
435.81	0.398
436.27	0.399
436.73	0.400
437.19	0.396
437.65	0.397
438.11	0.399
438.57	0.396
439.03	0.391
439.48	0.389
439.94	0.394
440.40	0.390
440.86	0.396
441.32	0.391
441.78	0.390
442.24	0.389
442.70	0.390
443.16	0.385
443.62	0.377
444.08	0.384
444.54	0.384
444.99	0.381
445.45	0.381
445.91	0.380
446.37	0.379
446.83	0.379
447.29	0.383
447.75	0.379
448.21	0.380
448.67	0.378
449.12	0.371
449.58	0.374
450.04	0.371
450.50	0.373
450.96	0.370
451.42	0.373
451.88	0.367
452.34	0.370
452.79	0.368
453.25	0.369
453.71	0.363
454.17	0.365
454.63	0.368
455.09	0.364
455.55	0.361
456.00	0.362
456.46	0.364
456.92	0.358
457.38	0.361
457.84	0.360
458.30	0.358
458.75	0.359
459.21	0.354
459.67	0.357
460.13	0.355
460.59	0.351
461.04	0.351
461.50	0.354
461.96	0.352
462.42	0.349
462.88	0.349
463.33	0.349
463.79	0.347
464.25	0.347
464.71	0.346
465.17	0.348
465.62	0.346
466.08	0.347
466.54	0.348
467.00	0.345
467.46	0.342
467.91	0.342
468.37	0.343
468.83	0.343
469.29	0.341
469.74	0.341
470.20	0.341
470.66	0.339
471.12	0.336
471.57	0.337
472.03	0.336
472.49	0.335
472.95	0.334
473.40	0.331
473.86	0.331
474.32	0.329
474.78	0.334
475.23	0.331
475.69	0.333
476.15	0.332
476.60	0.334
477.06	0.327
477.52	0.331
477.98	0.328
478.43	0.324
478.89	0.328
479.35	0.324
479.80	0.327
480.26	0.325
480.72	0.325
481.18	0.323
481.63	0.320
482.09	0.321
482.55	0.321
483.00	0.318
483.46	0.320
483.92	0.318
484.37	0.320
484.83	0.315
485.29	0.316
485.74	0.317
486.20	0.315
486.66	0.314
487.11	0.314
487.57	0.312
488.03	0.313
488.48	0.311
488.94	0.311
489.40	0.311
489.85	0.311
490.31	0.312
490.77	0.310
491.22	0.311
491.68	0.306
492.13	0.307
492.59	0.308
493.05	0.307
493.50	0.307
493.96	0.304
494.42	0.303
494.87	0.302
495.33	0.300
495.78	0.305
496.24	0.304
496.70	0.304
497.15	0.300
497.61	0.302
498.06	0.301
498.52	0.295
498.98	0.297
499.43	0.301
499.89	0.298
500.34	0.298
500.80	0.297
501.25	0.296
501.71	0.294
502.17	0.295
502.62	0.298
503.08	0.292
503.53	0.292
503.99	0.291
504.44	0.292
504.90	0.292
505.36	0.290
505.81	0.290
506.27	0.290
506.72	0.290
507.18	0.289
507.63	0.287
508.09	0.289
508.54	0.288
509.00	0.287
509.45	0.288
509.91	0.286
510.36	0.286
510.82	0.284
511.27	0.284
511.73	0.286
512.19	0.285
512.64	0.283
513.10	0.281
513.55	0.283
514.01	0.280
514.46	0.280
514.92	0.278
515.37	0.279
515.83	0.278
516.28	0.278
516.73	0.277
517.19	0.279
517.64	0.276
518.10	0.276
518.55	0.275
519.01	0.274
519.46	0.272
519.92	0.273
520.37	0.270
520.83	0.272
521.28	0.274
521.74	0.272
522.19	0.272
522.65	0.270
523.10	0.270
523.55	0.270
524.01	0.272
524.46	0.272
524.92	0.267
525.37	0.269
525.83	0.268
526.28	0.268
526.73	0.268
527.19	0.267
527.64	0.267
528.10	0.266
528.55	0.266
529.01	0.264
529.46	0.264
529.91	0.265
530.37	0.262
530.82	0.261
531.28	0.261
531.73	0.259
532.18	0.262
532.64	0.263
533.09	0.259
533.54	0.259
534.00	0.257
534.45	0.262
534.91	0.261
535.36	0.260
535.81	0.260
536.27	0.257
536.72	0.257
537.17	0.254
537.63	0.257
538.08	0.255
538.54	0.256
538.99	0.253
539.44	0.255
539.90	0.252
540.35	0.252
540.80	0.253
541.26	0.257
541.71	0.252
542.16	0.254
542.62	0.252
543.07	0.251
543.52	0.252
543.98	0.250
544.43	0.249
544.88	0.249
545.34	0.249
545.79	0.247
546.24	0.245
546.69	0.247
547.15	0.247
547.60	0.247
548.05	0.247
548.51	0.246
548.96	0.246
549.41	0.246
549.86	0.245
550.32	0.245
550.77	0.246
551.22	0.246
551.68	0.241
552.13	0.242
552.58	0.240
553.03	0.242
553.49	0.240
553.94	0.242
554.39	0.240
554.84	0.241
555.30	0.240
555.75	0.242
556.20	0.238
556.65	0.236
557.11	0.241
557.56	0.237
558.01	0.239
558.46	0.236
558.92	0.234
559.37	0.235
559.82	0.235
560.27	0.238
560.72	0.235
561.18	0.235
561.63	0.235
562.08	0.231
562.53	0.232
562.99	0.236
563.44	0.232
563.89	0.231
564.34	0.230
564.79	0.233
565.25	0.230
565.70	0.231
566.15	0.229
566.60	0.228
567.05	0.230
567.50	0.229
567.96	0.228
568.41	0.228
568.86	0.228
569.31	0.227
569.76	0.226
570.21	0.227
570.67	0.226
571.12	0.226
571.57	0.227
572.02	0.226
572.47	0.224
572.92	0.222
573.37	0.223
573.83	0.221
574.28	0.223
574.73	0.222
575.18	0.222
575.63	0.224
576.08	0.219
576.53	0.222
576.98	0.221
577.44	0.217
577.89	0.220
578.34	0.220
578.79	0.218
579.24	0.219
579.69	0.219
580.14	0.217
580.59	0.217
581.04	0.215
581.49	0.217
581.95	0.216
582.40	0.214
582.85	0.214
583.30	0.214
583.75	0.213
584.20	0.213
584.65	0.213
585.10	0.211
585.55	0.212
586.00	0.210
586.45	0.213
586.90	0.213
587.35	0.212
587.80	0.211
588.25	0.210
588.71	0.211
589.16	0.211
589.61	0.211
590.06	0.209
590.51	0.211
590.96	0.210
591.41	0.210
591.86	0.207
592.31	0.208
592.76	0.209
593.21	0.209
593.66	0.210
594.11	0.208
594.56	0.206
595.01	0.208
595.46	0.207
595.91	0.205
596.36	0.206
596.81	0.206
597.26	0.207
597.71	0.205
598.16	0.204
598.61	0.202
599.06	0.205
599.51	0.206
599.96	0.206
600.41	0.205
600.86	0.204
601.31	0.202
601.76	0.205
602.21	0.204
602.65	0.203
603.10	0.204
603.55	0.200
604.00	0.202
604.45	0.200
604.90	0.201
605.35	0.199
605.80	0.200
606.25	0.201
606.70	0.199
607.15	0.199
607.60	0.199
608.05	0.197
608.50	0.198
608.95	0.196
609.39	0.199
609.84	0.197
610.29	0.197
610.74	0.198
611.19	0.195
611.64	0.197
612.09	0.196
612.54	0.197
612.99	0.196
613.44	0.193
613.88	0.196
614.33	0.195
614.78	0.192
615.23	0.195
615.68	0.194
616.13	0.194
616.58	0.193
617.03	0.192
617.47	0.193
617.92	0.192
618.37	0.191
618.82	0.191
619.27	0.192
619.72	0.191
620.17	0.188
620.61	0.189
621.06	0.189
621.51	0.191
621.96	0.188
622.41	0.189
622.86	0.188
623.30	0.189
623.75	0.189
624.20	0.188
624.65	0.186
625.10	0.188
625.54	0.188
625.99	0.187
626.44	0.187
626.89	0.187
627.34	0.188
627.78	0.184
628.23	0.183
628.68	0.183
629.13	0.185
629.58	0.185
630.02	0.185
630.47	0.184
630.92	0.184
631.37	0.183
631.81	0.185
632.26	0.183
632.71	0.185
633.16	0.183
633.61	0.182
634.05	0.180
634.50	0.182
634.95	0.181
635.40	0.182
635.84	0.183
636.29	0.180
636.74	0.181
637.18	0.181
637.63	0.181
638.08	0.179
638.53	0.179
638.97	0.179
639.42	0.179
639.87	0.181
640.32	0.177
640.76	0.178
641.21	0.179
641.66	0.180
642.10	0.178
642.55	0.178
643.00	0.176
643.44	0.178
643.89	0.179
644.34	0.177
644.79	0.175
645.23	0.176
645.68	0.178
646.13	0.178
646.57	0.175
647.02	0.174
647.47	0.178
647.91	0.176
648.36	0.176
648.81	0.175
649.25	0.176
649.70	0.174
650.15	0.172
650.59	0.175
651.04	0.173
651.48	0.175
651.93	0.173
652.38	0.172
652.82	0.173
653.27	0.173
653.72	0.173
654.16	0.172
654.61	0.174
655.06	0.171
655.50	0.171
655.95	0.170
656.39	0.164
656.84	0.168
657.29	0.172
657.73	0.170
658.18	0.170
658.62	0.170
659.07	0.169
659.52	0.170
659.96	0.171
660.41	0.170
660.85	0.169
661.30	0.170
661.74	0.169
662.19	0.168
662.64	0.167
663.08	0.169
663.53	0.169
663.97	0.166
664.42	0.166
664.86	0.171
665.31	0.168
665.75	0.165
666.20	0.167
666.65	0.169
667.09	0.167
667.54	0.168
667.98	0.164
668.43	0.164
668.87	0.165
669.32	0.164
669.76	0.166
670.21	0.165
670.65	0.163
671.10	0.165
671.54	0.164
671.99	0.163
672.43	0.164
672.88	0.163
673.32	0.164
673.77	0.161
674.21	0.163
674.66	0.163
675.10	0.161
675.55	0.159
675.99	0.162
676.44	0.162
676.88	0.163
677.33	0.162
677.77	0.162
678.22	0.160
678.66	0.161
679.11	0.159
679.55	0.162
679.99	0.160
680.44	0.163
680.88	0.160
681.33	0.159
681.77	0.158
682.22	0.161
682.66	0.159
683.11	0.160
683.55	0.159
683.99	0.159
684.44	0.156
684.88	0.156
685.33	0.159
685.77	0.159
686.21	0.157
686.66	0.157
687.10	0.157
687.55	0.156
687.99	0.159
688.44	0.158
688.88	0.158
689.32	0.156
689.77	0.157
690.21	0.157
690.65	0.156
691.10	0.156
691.54	0.155
691.99	0.156
692.43	0.155
692.87	0.154
693.32	0.157
693.76	0.155
694.20	0.155
694.65	0.154
695.09	0.154
695.53	0.154
695.98	0.155
696.42	0.155
696.86	0.154
697.31	0.152
697.75	0.155
698.19	0.152
698.64	0.153
699.08	0.151
699.52	0.152
699.97	0.154
700.41	0.152
700.85	0.152
701.30	0.152
701.74	0.152
702.18	0.153
702.63	0.151
703.07	0.151
703.51	0.153
703.96	0.151
704.40	0.151
704.84	0.153
705.28	0.151
705.73	0.153
706.17	0.151
706.61	0.149
707.06	0.148
707.50	0.149
707.94	0.148
708.38	0.149
708.83	0.152
709.27	0.150
709.71	0.147
710.15	0.152
710.60	0.149
711.04	0.146
711.48	0.150
711.92	0.150
712.37	0.149
712.81	0.151
713.25	0.150
713.69	0.150
714.13	0.150
714.58	0.150
715.02	0.149
715.46	0.148
715.90	0.148
716.35	0.148
716.79	0.150
717.23	0.150
717.67	0.149
718.11	0.149
718.56	0.148
719.00	0.148
719.44	0.148
719.88	0.147
720.32	0.147
720.76	0.150
721.21	0.148
721.65	0.147
722.09	0.147
722.53	0.148
722.97	0.147
723.41	0.149
723.86	0.150
724.30	0.150
724.74	0.151
725.18	0.148
725.62	0.147
726.06	0.148
726.50	0.147
726.95	0.146
727.39	0.146
727.83	0.147
728.27	0.148
728.71	0.148
729.15	0.147
729.59	0.150
730.03	0.145
730.48	0.148
730.92	0.147
731.36	0.148
731.80	0.148
732.24	0.150
732.68	0.146
733.12	0.145
733.56	0.144
734.00	0.145
734.44	0.146
734.89	0.148
735.33	0.147
735.77	0.148
736.21	0.147
736.65	0.145
737.09	0.147
737.53	0.146
737.97	0.148
738.41	0.150
738.85	0.150
739.29	0.150
739.73	0.148
740.17	0.148
740.61	0.149
741.05	0.146
741.49	0.148
741.93	0.147
742.37	0.145
742.81	0.144
743.26	0.147
743.70	0.147
744.14	0.147
744.58	0.145
745.02	0.146
745.46	0.148
745.90	0.147
746.34	0.147
746.78	0.145
747.22	0.146
747.66	0.146
748.10	0.144
748.54	0.143
748.98	0.145
749.42	0.144
749.86	0.146
750.29	0.144
750.73	0.141
751.17	0.141
751.61	0.142
752.05	0.145
752.49	0.143
752.93	0.141
753.37	0.141
753.81	0.142
754.25	0.141
754.69	0.138
755.13	0.140
755.57	0.142
756.01	0.142
756.45	0.141
756.89	0.142
757.33	0.141
757.77	0.140
758.21	0.143
758.64	0.139
759.08	0.137
759.52	0.142
759.96	0.142
760.40	0.140
760.84	0.137
761.28	0.139
761.72	0.140
762.16	0.142
762.60	0.142
763.03	0.138
763.47	0.140
763.91	0.140
764.35	0.139
764.79	0.138
765.23	0.136
765.67	0.137
766.11	0.135
766.54	0.134
766.98	0.137
767.42	0.138
767.86	0.137
768.30	0.140
768.74	0.141
769.17	0.138
769.61	0.138
770.05	0.138
770.49	0.137
770.93	0.138
771.37	0.136
771.80	0.138
772.24	0.136
772.68	0.134
773.12	0.136
773.56	0.137
774.00	0.135
774.43	0.133
774.87	0.138
775.31	0.136
775.75	0.136
776.19	0.137
776.62	0.136
777.06	0.136
777.50	0.135
777.94	0.134
778.37	0.135
778.81	0.133
779.25	0.138
779.69	0.137
780.13	0.133
780.56	0.133
781.00	0.136
781.44	0.134
781.88	0.134
782.31	0.134
782.75	0.132
783.19	0.132
783.63	0.130
784.06	0.134
784.50	0.134
784.94	0.132
785.37	0.133
785.81	0.138
786.25	0.136
786.69	0.129
787.12	0.133
787.56	0.132
788.00	0.132
788.43	0.135
788.87	0.134
789.31	0.136
789.75	0.132
790.18	0.132
790.62	0.134
791.06	0.134
791.49	0.130
791.93	0.131
792.37	0.132
792.80	0.129
793.24	0.131
793.68	0.131
794.11	0.133
794.55	0.132
794.99	0.130
795.42	0.132
795.86	0.136
796.30	0.131
796.73	0.129
797.17	0.132
797.61	0.130
798.04	0.128
798.48	0.132
798.91	0.132
799.35	0.128
799.79	0.133
800.22	0.133
800.66	0.129
801.10	0.132
801.53	0.132
801.97	0.133
802.40	0.131
802.84	0.131
803.28	0.125
803.71	0.128
804.15	0.130
804.58	0.130
805.02	0.130
805.46	0.130
805.89	0.128
806.33	0.132
806.76	0.128
807.20	0.129
807.63	0.129
808.07	0.131
808.51	0.128
808.94	0.124
809.38	0.128
809.81	0.128
810.25	0.128
810.68	0.129
811.12	0.127
811.55	0.133
811.99	0.126
812.42	0.130
812.86	0.126
813.29	0.130
813.73	0.130
814.17	0.126
814.60	0.129
815.04	0.128
815.47	0.125
