SpectraSuite Data File
++++++++++++++++++++++++++++++++++++
Date: Sun Apr 24 14:24:22 CEST 2016
User: spectrasuite
Dark Spectrum Present: Yes
Reference Spectrum Present: Yes
Number of Sampled Component Spectra: 1
Spectrometers: HR+C0708
Integration Time (usec): 1000 (HR+C0708)
Spectra Averaged: 10 (HR+C0708)
Boxcar Smoothing: 0 (HR+C0708)
Correct for Electrical Dark: No (HR+C0708)
Strobe/Lamp Enabled: No (HR+C0708)
Correct for Detector Non-linearity: No (HR+C0708)
Correct for Stray Light: No (HR+C0708)
Number of Pixels in Processed Spectrum: 2048
>>>>>Begin Processed Spectral Data<<<<<
188.76	-0.000
189.23	-0.000
189.70	-0.000
190.17	-0.000
190.64	-0.000
191.12	-0.000
191.59	-0.000
192.06	-0.000
192.53	-0.000
193.01	-0.000
193.48	-0.000
193.95	-0.000
194.42	-0.000
194.90	-0.000
195.37	-0.000
195.84	-0.000
196.31	-0.000
196.78	-0.000
197.26	-0.000
197.73	-0.000
198.20	-0.000
198.67	-0.000
199.14	-0.000
199.62	-0.000
200.09	0.597
200.56	-0.000
201.03	-0.000
201.50	0.817
201.97	0.835
202.45	1.522
202.92	0.936
203.39	1.114
203.86	1.713
204.33	1.554
204.80	-0.000
205.28	1.214
205.75	-0.000
206.22	1.252
206.69	1.273
207.16	-0.000
207.63	1.181
208.11	0.765
208.58	0.848
209.05	1.390
209.52	1.265
209.99	1.020
210.46	0.745
210.93	1.175
211.41	1.817
211.88	0.751
212.35	1.680
212.82	-0.000
213.29	1.066
213.76	1.190
214.23	-0.000
214.70	1.604
215.18	1.052
215.65	0.633
216.12	0.825
216.59	1.230
217.06	0.898
217.53	0.919
218.00	1.873
218.47	1.097
218.94	0.893
219.41	-0.000
219.89	1.955
220.36	2.518
220.83	1.786
221.30	-0.000
221.77	1.135
222.24	0.936
222.71	-0.000
223.18	-0.000
223.65	1.784
224.12	2.265
224.59	-0.000
225.06	2.031
225.54	0.966
226.01	1.190
226.48	1.198
226.95	1.870
227.42	1.639
227.89	-0.000
228.36	1.501
228.83	2.017
229.30	1.645
229.77	1.636
230.24	1.535
230.71	1.868
231.18	-0.000
231.65	2.337
232.12	1.929
232.59	1.732
233.06	1.921
233.53	2.033
234.00	1.989
234.47	3.519
234.94	-0.000
235.41	2.584
235.88	2.750
236.35	2.549
236.82	2.402
237.29	2.672
237.76	3.031
238.23	2.488
238.70	2.714
239.17	2.371
239.64	2.883
240.11	-0.000
240.58	2.292
241.05	2.495
241.52	3.052
241.99	3.820
242.46	2.373
242.93	2.921
243.40	2.619
243.87	2.596
244.34	2.389
244.81	2.912
245.28	-0.000
245.75	2.930
246.22	-0.000
246.69	3.230
247.16	2.611
247.63	2.947
248.10	2.880
248.57	3.131
249.04	-0.000
249.51	2.981
249.98	-0.000
250.45	-0.000
250.92	2.828
251.39	3.083
251.85	-0.000
252.32	-0.000
252.79	-0.000
253.26	2.939
253.73	-0.000
254.20	2.753
254.67	2.753
255.14	2.857
255.61	4.336
256.08	4.233
256.55	3.653
257.02	2.990
257.49	3.128
257.95	2.870
258.42	2.899
258.89	3.230
259.36	2.885
259.83	3.000
260.30	-0.000
260.77	-0.000
261.24	3.104
261.71	-0.000
262.17	3.961
262.64	2.875
263.11	3.180
263.58	-0.000
264.05	3.136
264.52	2.914
264.99	2.907
265.46	3.571
265.92	3.339
266.39	3.073
266.86	3.646
267.33	-0.000
267.80	2.801
268.27	3.094
268.74	3.807
269.20	3.771
269.67	2.972
270.14	2.661
270.61	2.788
271.08	2.892
271.55	2.913
272.01	3.031
272.48	3.573
272.95	2.858
273.42	2.921
273.89	-0.000
274.36	2.847
274.82	2.789
275.29	2.839
275.76	3.014
276.23	2.788
276.70	3.142
277.16	2.818
277.63	2.793
278.10	2.604
278.57	2.690
279.04	2.829
279.50	2.877
279.97	2.863
280.44	2.672
280.91	2.551
281.38	2.667
281.84	2.708
282.31	2.811
282.78	2.901
283.25	2.652
283.72	2.568
284.18	2.806
284.65	2.587
285.12	2.530
285.59	2.461
286.05	2.623
286.52	2.589
286.99	2.639
287.46	2.640
287.92	2.602
288.39	2.529
288.86	2.553
289.33	2.482
289.79	2.418
290.26	2.439
290.73	2.467
291.20	2.524
291.66	2.556
292.13	2.456
292.60	2.601
293.07	2.463
293.53	2.354
294.00	2.424
294.47	2.503
294.93	2.415
295.40	2.450
295.87	2.440
296.34	2.399
296.80	2.361
297.27	2.361
297.74	2.385
298.20	2.509
298.67	2.323
299.14	2.412
299.60	2.346
300.07	2.284
300.54	2.336
301.01	2.354
301.47	2.246
301.94	2.270
302.41	2.226
302.87	2.303
303.34	2.334
303.81	2.182
304.27	2.238
304.74	2.234
305.21	2.202
305.67	2.276
306.14	2.211
306.61	2.202
307.07	2.163
307.54	2.142
308.01	2.210
308.47	2.163
308.94	2.263
309.40	2.219
309.87	2.150
310.34	2.125
310.80	2.163
311.27	2.198
311.74	2.118
312.20	2.143
312.67	2.164
313.13	2.122
313.60	2.151
314.07	2.116
314.53	2.090
315.00	2.063
315.47	2.131
315.93	2.142
316.40	2.106
316.86	2.088
317.33	2.078
317.80	2.080
318.26	2.047
318.73	2.108
319.19	2.115
319.66	2.030
320.13	2.043
320.59	2.042
321.06	2.058
321.52	2.036
321.99	1.999
322.45	2.007
322.92	1.955
323.39	1.996
323.85	1.982
324.32	2.014
324.78	1.967
325.25	2.005
325.71	1.914
326.18	1.898
326.64	2.003
327.11	1.929
327.58	1.901
328.04	1.867
328.51	1.891
328.97	1.906
329.44	1.852
329.90	1.848
330.37	1.841
330.83	1.803
331.30	1.873
331.76	1.820
332.23	1.795
332.69	1.767
333.16	1.757
333.62	1.727
334.09	1.714
334.56	1.655
335.02	1.645
335.49	1.615
335.95	1.595
336.42	1.570
336.88	1.538
337.35	1.527
337.81	1.487
338.28	1.457
338.74	1.449
339.20	1.419
339.67	1.369
340.13	1.351
340.60	1.326
341.06	1.278
341.53	1.256
341.99	1.228
342.46	1.185
342.92	1.169
343.39	1.139
343.85	1.107
344.32	1.085
344.78	1.070
345.25	1.051
345.71	1.028
346.17	0.991
346.64	0.965
347.10	0.939
347.57	0.906
348.03	0.885
348.50	0.861
348.96	0.842
349.43	0.819
349.89	0.802
350.35	0.787
350.82	0.771
351.28	0.755
351.75	0.746
352.21	0.721
352.67	0.706
353.14	0.699
353.60	0.685
354.07	0.668
354.53	0.649
355.00	0.640
355.46	0.634
355.92	0.621
356.39	0.611
356.85	0.602
357.31	0.593
357.78	0.578
358.24	0.575
358.71	0.569
359.17	0.563
359.63	0.556
360.10	0.555
360.56	0.548
361.03	0.542
361.49	0.533
361.95	0.530
362.42	0.527
362.88	0.521
363.34	0.519
363.81	0.514
364.27	0.513
364.73	0.506
365.20	0.511
365.66	0.503
366.12	0.503
366.59	0.501
367.05	0.496
367.51	0.495
367.98	0.491
368.44	0.488
368.90	0.488
369.37	0.485
369.83	0.482
370.29	0.484
370.76	0.479
371.22	0.476
371.68	0.474
372.15	0.471
372.61	0.472
373.07	0.471
373.54	0.468
374.00	0.469
374.46	0.464
374.92	0.465
375.39	0.462
375.85	0.462
376.31	0.461
376.78	0.459
377.24	0.455
377.70	0.454
378.16	0.450
378.63	0.452
379.09	0.450
379.55	0.448
380.01	0.448
380.48	0.445
380.94	0.443
381.40	0.443
381.87	0.444
382.33	0.440
382.79	0.439
383.25	0.437
383.72	0.440
384.18	0.435
384.64	0.433
385.10	0.431
385.56	0.431
386.03	0.428
386.49	0.431
386.95	0.425
387.41	0.424
387.88	0.424
388.34	0.423
388.80	0.420
389.26	0.418
389.72	0.418
390.19	0.419
390.65	0.413
391.11	0.419
391.57	0.413
392.04	0.415
392.50	0.410
392.96	0.409
393.42	0.409
393.88	0.409
394.34	0.408
394.81	0.406
395.27	0.402
395.73	0.405
396.19	0.401
396.65	0.400
397.12	0.401
397.58	0.398
398.04	0.399
398.50	0.398
398.96	0.394
399.42	0.395
399.89	0.396
400.35	0.390
400.81	0.389
401.27	0.389
401.73	0.390
402.19	0.385
402.65	0.385
403.12	0.383
403.58	0.381
404.04	0.383
404.50	0.384
404.96	0.379
405.42	0.381
405.88	0.381
406.34	0.379
406.81	0.378
407.27	0.375
407.73	0.374
408.19	0.372
408.65	0.370
409.11	0.368
409.57	0.371
410.03	0.369
410.49	0.372
410.96	0.370
411.42	0.367
411.88	0.365
412.34	0.365
412.80	0.367
413.26	0.361
413.72	0.363
414.18	0.360
414.64	0.361
415.10	0.361
415.56	0.358
416.02	0.358
416.48	0.354
416.95	0.350
417.41	0.354
417.87	0.352
418.33	0.353
418.79	0.348
419.25	0.351
419.71	0.350
420.17	0.350
420.63	0.349
421.09	0.346
421.55	0.347
422.01	0.345
422.47	0.344
422.93	0.345
423.39	0.343
423.85	0.348
424.31	0.342
424.77	0.338
425.23	0.343
425.69	0.343
426.15	0.340
426.61	0.336
427.07	0.336
427.53	0.336
427.99	0.333
428.45	0.335
428.91	0.335
429.37	0.333
429.83	0.330
430.29	0.330
430.75	0.330
431.21	0.331
431.67	0.330
432.13	0.330
432.59	0.325
433.05	0.328
433.51	0.324
433.97	0.324
434.43	0.325
434.89	0.322
435.35	0.324
435.81	0.321
436.27	0.319
436.73	0.319
437.19	0.320
437.65	0.320
438.11	0.319
438.57	0.320
439.03	0.318
439.48	0.314
439.94	0.313
440.40	0.315
440.86	0.317
441.32	0.312
441.78	0.315
442.24	0.311
442.70	0.309
443.16	0.310
443.62	0.307
444.08	0.312
444.54	0.308
444.99	0.306
445.45	0.306
445.91	0.307
446.37	0.305
446.83	0.304
447.29	0.302
447.75	0.305
448.21	0.305
448.67	0.300
449.12	0.300
449.58	0.301
450.04	0.297
450.50	0.301
450.96	0.300
451.42	0.300
451.88	0.295
452.34	0.294
452.79	0.296
453.25	0.298
453.71	0.296
454.17	0.294
454.63	0.294
455.09	0.295
455.55	0.295
456.00	0.291
456.46	0.291
456.92	0.290
457.38	0.291
457.84	0.289
458.30	0.285
458.75	0.289
459.21	0.285
459.67	0.287
460.13	0.286
460.59	0.285
461.04	0.282
461.50	0.284
461.96	0.283
462.42	0.284
462.88	0.284
463.33	0.281
463.79	0.282
464.25	0.280
464.71	0.280
465.17	0.280
465.62	0.279
466.08	0.279
466.54	0.278
467.00	0.279
467.46	0.279
467.91	0.276
468.37	0.278
468.83	0.276
469.29	0.274
469.74	0.274
470.20	0.275
470.66	0.272
471.12	0.269
471.57	0.271
472.03	0.273
472.49	0.270
472.95	0.271
473.40	0.269
473.86	0.266
474.32	0.264
474.78	0.267
475.23	0.266
475.69	0.267
476.15	0.264
476.60	0.267
477.06	0.265
477.52	0.263
477.98	0.264
478.43	0.262
478.89	0.263
479.35	0.262
479.80	0.261
480.26	0.264
480.72	0.260
481.18	0.261
481.63	0.259
482.09	0.262
482.55	0.259
483.00	0.260
483.46	0.258
483.92	0.257
484.37	0.256
484.83	0.254
485.29	0.255
485.74	0.255
486.20	0.255
486.66	0.255
487.11	0.256
487.57	0.253
488.03	0.252
488.48	0.252
488.94	0.250
489.40	0.251
489.85	0.252
490.31	0.253
490.77	0.248
491.22	0.250
491.68	0.248
492.13	0.249
492.59	0.247
493.05	0.245
493.50	0.248
493.96	0.248
494.42	0.247
494.87	0.245
495.33	0.242
495.78	0.244
496.24	0.246
496.70	0.243
497.15	0.241
497.61	0.245
498.06	0.241
498.52	0.241
498.98	0.242
499.43	0.243
499.89	0.239
500.34	0.238
500.80	0.239
501.25	0.239
501.71	0.238
502.17	0.237
502.62	0.239
503.08	0.236
503.53	0.235
503.99	0.235
504.44	0.237
504.90	0.232
505.36	0.234
505.81	0.235
506.27	0.233
506.72	0.233
507.18	0.234
507.63	0.233
508.09	0.232
508.54	0.230
509.00	0.231
509.45	0.230
509.91	0.228
510.36	0.229
510.82	0.230
511.27	0.230
511.73	0.231
512.19	0.225
512.64	0.229
513.10	0.227
513.55	0.231
514.01	0.224
514.46	0.228
514.92	0.225
515.37	0.225
515.83	0.227
516.28	0.223
516.73	0.225
517.19	0.223
517.64	0.221
518.10	0.223
518.55	0.222
519.01	0.222
519.46	0.222
519.92	0.224
520.37	0.220
520.83	0.222
521.28	0.222
521.74	0.222
522.19	0.222
522.65	0.218
523.10	0.218
523.55	0.219
524.01	0.217
524.46	0.216
524.92	0.219
525.37	0.216
525.83	0.214
526.28	0.215
526.73	0.215
527.19	0.217
527.64	0.214
528.10	0.217
528.55	0.214
529.01	0.215
529.46	0.215
529.91	0.214
530.37	0.213
530.82	0.214
531.28	0.210
531.73	0.213
532.18	0.211
532.64	0.212
533.09	0.210
533.54	0.212
534.00	0.208
534.45	0.213
534.91	0.210
535.36	0.210
535.81	0.209
536.27	0.207
536.72	0.209
537.17	0.206
537.63	0.206
538.08	0.205
538.54	0.207
538.99	0.205
539.44	0.206
539.90	0.204
540.35	0.204
540.80	0.203
541.26	0.205
541.71	0.202
542.16	0.202
542.62	0.203
543.07	0.204
543.52	0.205
543.98	0.202
544.43	0.199
544.88	0.200
545.34	0.202
545.79	0.201
546.24	0.198
546.69	0.201
547.15	0.200
547.60	0.197
548.05	0.201
548.51	0.198
548.96	0.198
549.41	0.200
549.86	0.198
550.32	0.196
550.77	0.199
551.22	0.196
551.68	0.194
552.13	0.195
552.58	0.193
553.03	0.196
553.49	0.195
553.94	0.195
554.39	0.196
554.84	0.195
555.30	0.194
555.75	0.194
556.20	0.193
556.65	0.192
557.11	0.194
557.56	0.192
558.01	0.194
558.46	0.193
558.92	0.191
559.37	0.191
559.82	0.189
560.27	0.189
560.72	0.187
561.18	0.188
561.63	0.188
562.08	0.186
562.53	0.189
562.99	0.189
563.44	0.188
563.89	0.187
564.34	0.188
564.79	0.187
565.25	0.185
565.70	0.186
566.15	0.186
566.60	0.183
567.05	0.185
567.50	0.185
567.96	0.184
568.41	0.185
568.86	0.183
569.31	0.183
569.76	0.182
570.21	0.183
570.67	0.183
571.12	0.183
571.57	0.181
572.02	0.181
572.47	0.181
572.92	0.179
573.37	0.180
573.83	0.178
574.28	0.179
574.73	0.179
575.18	0.179
575.63	0.180
576.08	0.178
576.53	0.176
576.98	0.179
577.44	0.175
577.89	0.177
578.34	0.175
578.79	0.176
579.24	0.176
579.69	0.177
580.14	0.173
580.59	0.174
581.04	0.172
581.49	0.173
581.95	0.174
582.40	0.175
582.85	0.173
583.30	0.171
583.75	0.171
584.20	0.171
584.65	0.172
585.10	0.172
585.55	0.173
586.00	0.172
586.45	0.172
586.90	0.171
587.35	0.170
587.80	0.169
588.25	0.170
588.71	0.169
589.16	0.169
589.61	0.170
590.06	0.170
590.51	0.172
590.96	0.168
591.41	0.168
591.86	0.169
592.31	0.168
592.76	0.167
593.21	0.168
593.66	0.170
594.11	0.167
594.56	0.166
595.01	0.167
595.46	0.167
595.91	0.167
596.36	0.166
596.81	0.165
597.26	0.166
597.71	0.166
598.16	0.165
598.61	0.166
599.06	0.164
599.51	0.166
599.96	0.166
600.41	0.165
600.86	0.164
601.31	0.164
601.76	0.162
602.21	0.164
602.65	0.164
603.10	0.162
603.55	0.164
604.00	0.162
604.45	0.163
604.90	0.162
605.35	0.160
605.80	0.163
606.25	0.162
606.70	0.161
607.15	0.161
607.60	0.162
608.05	0.157
608.50	0.160
608.95	0.159
609.39	0.160
609.84	0.159
610.29	0.159
610.74	0.160
611.19	0.158
611.64	0.157
612.09	0.159
612.54	0.157
612.99	0.158
613.44	0.156
613.88	0.159
614.33	0.157
614.78	0.156
615.23	0.157
615.68	0.157
616.13	0.157
616.58	0.155
617.03	0.156
617.47	0.154
617.92	0.156
618.37	0.155
618.82	0.154
619.27	0.154
619.72	0.154
620.17	0.151
620.61	0.152
621.06	0.153
621.51	0.153
621.96	0.152
622.41	0.152
622.86	0.153
623.30	0.152
623.75	0.153
624.20	0.152
624.65	0.151
625.10	0.150
625.54	0.150
625.99	0.152
626.44	0.151
626.89	0.150
627.34	0.151
627.78	0.148
628.23	0.148
628.68	0.149
629.13	0.149
629.58	0.149
630.02	0.148
630.47	0.151
630.92	0.149
631.37	0.149
631.81	0.148
632.26	0.148
632.71	0.148
633.16	0.147
633.61	0.147
634.05	0.146
634.50	0.149
634.95	0.146
635.40	0.148
635.84	0.149
636.29	0.146
636.74	0.148
637.18	0.146
637.63	0.146
638.08	0.146
638.53	0.146
638.97	0.145
639.42	0.145
639.87	0.146
640.32	0.146
640.76	0.145
641.21	0.145
641.66	0.143
642.10	0.145
642.55	0.142
643.00	0.143
643.44	0.144
643.89	0.144
644.34	0.143
644.79	0.142
645.23	0.142
645.68	0.144
646.13	0.143
646.57	0.142
647.02	0.141
647.47	0.142
647.91	0.140
648.36	0.141
648.81	0.142
649.25	0.141
649.70	0.138
650.15	0.141
650.59	0.140
651.04	0.140
651.48	0.143
651.93	0.141
652.38	0.137
652.82	0.139
653.27	0.138
653.72	0.140
654.16	0.139
654.61	0.141
655.06	0.138
655.50	0.138
655.95	0.137
656.39	0.133
656.84	0.135
657.29	0.140
657.73	0.139
658.18	0.136
658.62	0.138
659.07	0.138
659.52	0.136
659.96	0.137
660.41	0.138
660.85	0.134
661.30	0.137
661.74	0.138
662.19	0.134
662.64	0.136
663.08	0.135
663.53	0.135
663.97	0.136
664.42	0.134
664.86	0.135
665.31	0.134
665.75	0.133
666.20	0.136
666.65	0.134
667.09	0.136
667.54	0.135
667.98	0.133
668.43	0.132
668.87	0.134
669.32	0.132
669.76	0.133
670.21	0.135
670.65	0.132
671.10	0.134
671.54	0.133
671.99	0.133
672.43	0.133
672.88	0.132
673.32	0.132
673.77	0.132
674.21	0.132
674.66	0.132
675.10	0.132
675.55	0.129
675.99	0.131
676.44	0.130
676.88	0.131
677.33	0.130
677.77	0.131
678.22	0.131
678.66	0.129
679.11	0.129
679.55	0.131
679.99	0.129
680.44	0.132
680.88	0.130
681.33	0.130
681.77	0.128
682.22	0.129
682.66	0.129
683.11	0.129
683.55	0.129
683.99	0.128
684.44	0.127
684.88	0.127
685.33	0.127
685.77	0.128
686.21	0.127
686.66	0.128
687.10	0.128
687.55	0.127
687.99	0.129
688.44	0.129
688.88	0.127
689.32	0.128
689.77	0.127
690.21	0.126
690.65	0.125
691.10	0.127
691.54	0.125
691.99	0.126
692.43	0.125
692.87	0.124
693.32	0.127
693.76	0.127
694.20	0.127
694.65	0.124
695.09	0.127
695.53	0.125
695.98	0.125
696.42	0.126
696.86	0.126
697.31	0.123
697.75	0.126
698.19	0.125
698.64	0.125
699.08	0.125
699.52	0.124
699.97	0.126
700.41	0.124
700.85	0.126
701.30	0.121
701.74	0.126
702.18	0.125
702.63	0.123
703.07	0.125
703.51	0.125
703.96	0.126
704.40	0.125
704.84	0.126
705.28	0.122
705.73	0.123
706.17	0.126
706.61	0.122
707.06	0.123
707.50	0.123
707.94	0.122
708.38	0.121
708.83	0.124
709.27	0.123
709.71	0.122
710.15	0.124
710.60	0.122
711.04	0.120
711.48	0.123
711.92	0.122
712.37	0.121
712.81	0.122
713.25	0.122
713.69	0.121
714.13	0.125
714.58	0.123
715.02	0.121
715.46	0.120
715.90	0.121
716.35	0.119
716.79	0.122
717.23	0.122
717.67	0.125
718.11	0.122
718.56	0.119
719.00	0.120
719.44	0.121
719.88	0.121
720.32	0.119
720.76	0.124
721.21	0.122
721.65	0.121
722.09	0.121
722.53	0.122
722.97	0.123
723.41	0.118
723.86	0.124
724.30	0.122
724.74	0.123
725.18	0.121
725.62	0.121
726.06	0.124
726.50	0.122
726.95	0.119
727.39	0.123
727.83	0.119
728.27	0.121
728.71	0.123
729.15	0.122
729.59	0.121
730.03	0.120
730.48	0.120
730.92	0.120
731.36	0.122
731.80	0.122
732.24	0.125
732.68	0.122
733.12	0.119
733.56	0.122
734.00	0.121
734.44	0.123
734.89	0.123
735.33	0.124
735.77	0.125
736.21	0.123
736.65	0.121
737.09	0.124
737.53	0.124
737.97	0.121
738.41	0.124
738.85	0.126
739.29	0.124
739.73	0.123
740.17	0.123
740.61	0.124
741.05	0.123
741.49	0.123
741.93	0.125
742.37	0.123
742.81	0.124
743.26	0.122
743.70	0.121
744.14	0.122
744.58	0.120
745.02	0.121
745.46	0.122
745.90	0.122
746.34	0.123
746.78	0.123
747.22	0.121
747.66	0.121
748.10	0.120
748.54	0.121
748.98	0.118
749.42	0.121
749.86	0.122
750.29	0.120
750.73	0.117
751.17	0.119
751.61	0.118
752.05	0.123
752.49	0.118
752.93	0.118
753.37	0.117
753.81	0.118
754.25	0.118
754.69	0.117
755.13	0.116
755.57	0.120
756.01	0.118
756.45	0.119
756.89	0.120
757.33	0.118
757.77	0.117
758.21	0.117
758.64	0.115
759.08	0.112
759.52	0.118
759.96	0.121
760.40	0.116
760.84	0.114
761.28	0.116
761.72	0.117
762.16	0.117
762.60	0.116
763.03	0.116
763.47	0.115
763.91	0.117
764.35	0.113
764.79	0.114
765.23	0.115
765.67	0.116
766.11	0.112
766.54	0.113
766.98	0.116
767.42	0.116
767.86	0.114
768.30	0.116
768.74	0.117
769.17	0.119
769.61	0.118
770.05	0.115
770.49	0.116
770.93	0.117
771.37	0.112
771.80	0.115
772.24	0.112
772.68	0.116
773.12	0.111
773.56	0.113
774.00	0.111
774.43	0.113
774.87	0.114
775.31	0.113
775.75	0.114
776.19	0.114
776.62	0.113
777.06	0.117
777.50	0.113
777.94	0.114
778.37	0.112
778.81	0.111
779.25	0.111
779.69	0.115
780.13	0.113
780.56	0.114
781.00	0.113
781.44	0.116
781.88	0.114
782.31	0.111
782.75	0.111
783.19	0.113
783.63	0.110
784.06	0.110
784.50	0.112
784.94	0.113
785.37	0.112
785.81	0.111
786.25	0.110
786.69	0.109
787.12	0.110
787.56	0.110
788.00	0.111
788.43	0.114
788.87	0.109
789.31	0.112
789.75	0.109
790.18	0.107
790.62	0.110
791.06	0.109
791.49	0.111
791.93	0.107
792.37	0.111
792.80	0.109
793.24	0.108
793.68	0.110
794.11	0.109
794.55	0.113
794.99	0.110
795.42	0.109
795.86	0.115
796.30	0.113
796.73	0.112
797.17	0.107
797.61	0.107
798.04	0.109
798.48	0.111
798.91	0.109
799.35	0.107
799.79	0.113
800.22	0.113
800.66	0.110
801.10	0.109
801.53	0.107
801.97	0.114
802.40	0.111
802.84	0.106
803.28	0.105
803.71	0.107
804.15	0.108
804.58	0.109
805.02	0.109
805.46	0.105
805.89	0.107
806.33	0.107
806.76	0.107
807.20	0.106
807.63	0.106
808.07	0.110
808.51	0.107
808.94	0.106
809.38	0.109
809.81	0.108
810.25	0.111
810.68	0.112
811.12	0.108
811.55	0.110
811.99	0.105
812.42	0.107
812.86	0.105
813.29	0.104
813.73	0.107
814.17	0.107
814.60	0.106
815.04	0.107
815.47	0.107
815.91	0.106
816.34	0.108
