SpectraSuite Data File
++++++++++++++++++++++++++++++++++++
Date: Sun Apr 24 14:49:29 CEST 2016
User: spectrasuite
Dark Spectrum Present: Yes
Reference Spectrum Present: Yes
Number of Sampled Component Spectra: 1
Spectrometers: HR+C0708
Integration Time (usec): 1000 (HR+C0708)
Spectra Averaged: 10 (HR+C0708)
Boxcar Smoothing: 0 (HR+C0708)
Correct for Electrical Dark: No (HR+C0708)
Strobe/Lamp Enabled: No (HR+C0708)
Correct for Detector Non-linearity: No (HR+C0708)
Correct for Stray Light: No (HR+C0708)
Number of Pixels in Processed Spectrum: 2048
>>>>>Begin Processed Spectral Data<<<<<
188.76	-0.000
189.23	-0.000
189.70	1.358
190.17	-0.000
190.64	-0.000
191.12	-0.000
191.59	0.702
192.06	-0.000
192.53	-0.000
193.01	-0.000
193.48	-0.000
193.95	-0.000
194.42	-0.000
194.90	0.542
195.37	-0.000
195.84	-0.000
196.31	-0.000
196.78	-0.000
197.26	-0.000
197.73	-0.000
198.20	-0.000
198.67	-0.000
199.14	-0.000
199.62	-0.000
200.09	-0.000
200.56	-0.000
201.03	-0.000
201.50	1.276
201.97	1.661
202.45	1.619
202.92	1.168
203.39	0.808
203.86	2.015
204.33	0.836
204.80	-0.000
205.28	1.515
205.75	-0.000
206.22	-0.000
206.69	0.999
207.16	1.346
207.63	1.908
208.11	0.752
208.58	0.828
209.05	-0.000
209.52	1.004
209.99	1.508
210.46	1.122
210.93	0.978
211.41	-0.000
211.88	0.895
212.35	0.867
212.82	-0.000
213.29	2.719
213.76	1.396
214.23	-0.000
214.70	1.417
215.18	-0.000
215.65	1.296
216.12	0.859
216.59	-0.000
217.06	0.947
217.53	0.775
218.00	-0.000
218.47	0.935
218.94	0.786
219.41	-0.000
219.89	-0.000
220.36	1.020
220.83	1.165
221.30	1.291
221.77	-0.000
222.24	2.394
222.71	1.545
223.18	-0.000
223.65	1.011
224.12	1.274
224.59	-0.000
225.06	1.324
225.54	1.330
226.01	1.384
226.48	-0.000
226.95	-0.000
227.42	1.599
227.89	1.696
228.36	-0.000
228.83	1.763
229.30	1.334
229.77	1.966
230.24	1.535
230.71	1.972
231.18	1.939
231.65	-0.000
232.12	2.394
232.59	1.992
233.06	2.002
233.53	-0.000
234.00	1.822
234.47	1.947
234.94	-0.000
235.41	2.628
235.88	2.532
236.35	-0.000
236.82	2.571
237.29	2.766
237.76	2.756
238.23	2.425
238.70	-0.000
239.17	2.159
239.64	2.410
240.11	-0.000
240.58	2.468
241.05	2.472
241.52	-0.000
241.99	3.565
242.46	2.749
242.93	3.243
243.40	2.511
243.87	3.486
244.34	2.786
244.81	2.742
245.28	-0.000
245.75	2.855
246.22	3.099
246.69	3.636
247.16	3.182
247.63	2.924
248.10	2.710
248.57	2.750
249.04	-0.000
249.51	2.848
249.98	3.194
250.45	-0.000
250.92	2.659
251.39	2.699
251.85	-0.000
252.32	-0.000
252.79	3.036
253.26	3.487
253.73	-0.000
254.20	2.976
254.67	2.658
255.14	2.889
255.61	-0.000
256.08	3.255
256.55	3.245
257.02	3.455
257.49	3.884
257.95	3.042
258.42	3.550
258.89	3.050
259.36	3.366
259.83	3.244
260.30	3.406
260.77	-0.000
261.24	2.842
261.71	3.087
262.17	3.705
262.64	2.847
263.11	3.404
263.58	-0.000
264.05	3.083
264.52	3.262
264.99	3.086
265.46	2.889
265.92	-0.000
266.39	2.876
266.86	3.325
267.33	-0.000
267.80	2.734
268.27	2.965
268.74	-0.000
269.20	3.720
269.67	3.509
270.14	2.877
270.61	2.970
271.08	4.254
271.55	2.670
272.01	2.725
272.48	3.253
272.95	2.990
273.42	2.680
273.89	3.194
274.36	2.770
274.82	2.692
275.29	2.727
275.76	2.703
276.23	2.873
276.70	2.784
277.16	2.538
277.63	2.920
278.10	2.626
278.57	2.568
279.04	2.837
279.50	2.769
279.97	2.807
280.44	2.586
280.91	2.563
281.38	2.844
281.84	2.574
282.31	2.641
282.78	3.256
283.25	2.544
283.72	2.469
284.18	2.753
284.65	2.539
285.12	2.499
285.59	2.427
286.05	2.453
286.52	2.393
286.99	2.452
287.46	2.382
287.92	2.611
288.39	2.426
288.86	2.460
289.33	2.505
289.79	2.412
290.26	2.428
290.73	2.355
291.20	2.427
291.66	2.406
292.13	2.354
292.60	2.284
293.07	2.413
293.53	2.304
294.00	2.362
294.47	2.444
294.93	2.319
295.40	2.328
295.87	2.327
296.34	2.280
296.80	2.287
297.27	2.289
297.74	2.266
298.20	2.430
298.67	2.175
299.14	2.230
299.60	2.316
300.07	2.205
300.54	2.211
301.01	2.258
301.47	2.183
301.94	2.163
302.41	2.161
302.87	2.182
303.34	2.261
303.81	2.130
304.27	2.152
304.74	2.163
305.21	2.105
305.67	2.067
306.14	2.109
306.61	2.174
307.07	2.122
307.54	2.101
308.01	2.048
308.47	2.128
308.94	2.132
309.40	2.102
309.87	2.138
310.34	2.111
310.80	2.077
311.27	2.100
311.74	2.051
312.20	2.101
312.67	2.092
313.13	2.011
313.60	2.120
314.07	2.053
314.53	1.974
315.00	2.003
315.47	2.050
315.93	2.035
316.40	2.032
316.86	2.020
317.33	2.009
317.80	2.000
318.26	1.993
318.73	2.032
319.19	2.004
319.66	1.946
320.13	1.994
320.59	1.941
321.06	1.943
321.52	1.987
321.99	1.916
322.45	1.930
322.92	1.886
323.39	1.906
323.85	1.920
324.32	1.883
324.78	1.886
325.25	1.921
325.71	1.838
326.18	1.795
326.64	1.935
327.11	1.840
327.58	1.794
328.04	1.812
328.51	1.820
328.97	1.807
329.44	1.830
329.90	1.762
330.37	1.785
330.83	1.706
331.30	1.735
331.76	1.741
332.23	1.725
332.69	1.680
333.16	1.676
333.62	1.684
334.09	1.643
334.56	1.621
335.02	1.595
335.49	1.603
335.95	1.557
336.42	1.527
336.88	1.521
337.35	1.497
337.81	1.467
338.28	1.452
338.74	1.436
339.20	1.410
339.67	1.369
340.13	1.361
340.60	1.334
341.06	1.289
341.53	1.260
341.99	1.259
342.46	1.214
342.92	1.194
343.39	1.174
343.85	1.146
344.32	1.125
344.78	1.107
345.25	1.083
345.71	1.069
346.17	1.042
346.64	1.009
347.10	0.992
347.57	0.957
348.03	0.934
348.50	0.922
348.96	0.894
349.43	0.882
349.89	0.864
350.35	0.845
350.82	0.829
351.28	0.812
351.75	0.801
352.21	0.790
352.67	0.765
353.14	0.750
353.60	0.751
354.07	0.727
354.53	0.705
355.00	0.710
355.46	0.688
355.92	0.682
356.39	0.671
356.85	0.662
357.31	0.658
357.78	0.641
358.24	0.627
358.71	0.627
359.17	0.619
359.63	0.612
360.10	0.610
360.56	0.602
361.03	0.600
361.49	0.593
361.95	0.588
362.42	0.590
362.88	0.581
363.34	0.576
363.81	0.575
364.27	0.571
364.73	0.566
365.20	0.566
365.66	0.562
366.12	0.560
366.59	0.552
367.05	0.552
367.51	0.553
367.98	0.543
368.44	0.544
368.90	0.548
369.37	0.542
369.83	0.537
370.29	0.544
370.76	0.534
371.22	0.532
371.68	0.532
372.15	0.529
372.61	0.527
373.07	0.525
373.54	0.526
374.00	0.522
374.46	0.516
374.92	0.516
375.39	0.518
375.85	0.517
376.31	0.516
376.78	0.512
377.24	0.508
377.70	0.510
378.16	0.503
378.63	0.502
379.09	0.502
379.55	0.501
380.01	0.498
380.48	0.501
380.94	0.500
381.40	0.491
381.87	0.493
382.33	0.492
382.79	0.491
383.25	0.490
383.72	0.489
384.18	0.490
384.64	0.486
385.10	0.481
385.56	0.485
386.03	0.479
386.49	0.475
386.95	0.479
387.41	0.477
387.88	0.474
388.34	0.472
388.80	0.470
389.26	0.473
389.72	0.470
390.19	0.468
390.65	0.466
391.11	0.464
391.57	0.461
392.04	0.463
392.50	0.462
392.96	0.458
393.42	0.457
393.88	0.456
394.34	0.454
394.81	0.453
395.27	0.450
395.73	0.451
396.19	0.449
396.65	0.449
397.12	0.446
397.58	0.444
398.04	0.446
398.50	0.445
398.96	0.440
399.42	0.443
399.89	0.438
400.35	0.440
400.81	0.439
401.27	0.437
401.73	0.433
402.19	0.433
402.65	0.430
403.12	0.430
403.58	0.431
404.04	0.428
404.50	0.426
404.96	0.428
405.42	0.425
405.88	0.423
406.34	0.421
406.81	0.421
407.27	0.423
407.73	0.418
408.19	0.415
408.65	0.416
409.11	0.413
409.57	0.421
410.03	0.415
410.49	0.414
410.96	0.415
411.42	0.413
411.88	0.406
412.34	0.408
412.80	0.409
413.26	0.405
413.72	0.405
414.18	0.403
414.64	0.399
415.10	0.405
415.56	0.401
416.02	0.404
416.48	0.399
416.95	0.395
417.41	0.401
417.87	0.394
418.33	0.397
418.79	0.388
419.25	0.392
419.71	0.392
420.17	0.390
420.63	0.390
421.09	0.389
421.55	0.389
422.01	0.387
422.47	0.389
422.93	0.387
423.39	0.386
423.85	0.383
424.31	0.383
424.77	0.381
425.23	0.383
425.69	0.379
426.15	0.382
426.61	0.378
427.07	0.376
427.53	0.378
427.99	0.374
428.45	0.375
428.91	0.377
429.37	0.370
429.83	0.372
430.29	0.371
430.75	0.371
431.21	0.370
431.67	0.372
432.13	0.367
432.59	0.367
433.05	0.366
433.51	0.361
433.97	0.363
434.43	0.364
434.89	0.363
435.35	0.362
435.81	0.360
436.27	0.360
436.73	0.362
437.19	0.355
437.65	0.364
438.11	0.356
438.57	0.355
439.03	0.360
439.48	0.354
439.94	0.351
440.40	0.355
440.86	0.353
441.32	0.351
441.78	0.353
442.24	0.348
442.70	0.352
443.16	0.344
443.62	0.343
444.08	0.347
444.54	0.345
444.99	0.343
445.45	0.344
445.91	0.342
446.37	0.341
446.83	0.342
447.29	0.336
447.75	0.342
448.21	0.339
448.67	0.336
449.12	0.342
449.58	0.340
450.04	0.334
450.50	0.334
450.96	0.336
451.42	0.330
451.88	0.332
452.34	0.332
452.79	0.333
453.25	0.334
453.71	0.330
454.17	0.330
454.63	0.332
455.09	0.327
455.55	0.332
456.00	0.325
456.46	0.325
456.92	0.324
457.38	0.326
457.84	0.326
458.30	0.321
458.75	0.323
459.21	0.322
459.67	0.319
460.13	0.319
460.59	0.319
461.04	0.314
461.50	0.317
461.96	0.316
462.42	0.314
462.88	0.316
463.33	0.315
463.79	0.312
464.25	0.315
464.71	0.313
465.17	0.312
465.62	0.311
466.08	0.312
466.54	0.312
467.00	0.312
467.46	0.311
467.91	0.309
468.37	0.308
468.83	0.310
469.29	0.309
469.74	0.308
470.20	0.305
470.66	0.306
471.12	0.304
471.57	0.304
472.03	0.305
472.49	0.304
472.95	0.302
473.40	0.299
473.86	0.299
474.32	0.299
474.78	0.296
475.23	0.298
475.69	0.300
476.15	0.297
476.60	0.298
477.06	0.296
477.52	0.295
477.98	0.293
478.43	0.295
478.89	0.294
479.35	0.293
479.80	0.293
480.26	0.292
480.72	0.292
481.18	0.293
481.63	0.290
482.09	0.294
482.55	0.288
483.00	0.286
483.46	0.287
483.92	0.287
484.37	0.289
484.83	0.286
485.29	0.284
485.74	0.285
486.20	0.287
486.66	0.284
487.11	0.286
487.57	0.282
488.03	0.283
488.48	0.282
488.94	0.280
489.40	0.281
489.85	0.282
490.31	0.280
490.77	0.279
491.22	0.280
491.68	0.276
492.13	0.280
492.59	0.278
493.05	0.276
493.50	0.279
493.96	0.276
494.42	0.275
494.87	0.274
495.33	0.271
495.78	0.276
496.24	0.276
496.70	0.272
497.15	0.273
497.61	0.272
498.06	0.270
498.52	0.271
498.98	0.270
499.43	0.270
499.89	0.270
500.34	0.268
500.80	0.268
501.25	0.266
501.71	0.266
502.17	0.267
502.62	0.268
503.08	0.266
503.53	0.264
503.99	0.263
504.44	0.262
504.90	0.264
505.36	0.263
505.81	0.263
506.27	0.263
506.72	0.260
507.18	0.262
507.63	0.260
508.09	0.262
508.54	0.259
509.00	0.259
509.45	0.258
509.91	0.260
510.36	0.257
510.82	0.258
511.27	0.259
511.73	0.259
512.19	0.256
512.64	0.255
513.10	0.255
513.55	0.256
514.01	0.252
514.46	0.254
514.92	0.254
515.37	0.252
515.83	0.251
516.28	0.250
516.73	0.251
517.19	0.250
517.64	0.249
518.10	0.249
518.55	0.248
519.01	0.248
519.46	0.250
519.92	0.249
520.37	0.246
520.83	0.245
521.28	0.247
521.74	0.246
522.19	0.246
522.65	0.245
523.10	0.244
523.55	0.246
524.01	0.247
524.46	0.244
524.92	0.242
525.37	0.244
525.83	0.243
526.28	0.243
526.73	0.243
527.19	0.244
527.64	0.240
528.10	0.239
528.55	0.238
529.01	0.240
529.46	0.239
529.91	0.240
530.37	0.239
530.82	0.239
531.28	0.237
531.73	0.236
532.18	0.237
532.64	0.236
533.09	0.235
533.54	0.238
534.00	0.235
534.45	0.236
534.91	0.233
535.36	0.236
535.81	0.233
536.27	0.233
536.72	0.234
537.17	0.231
537.63	0.231
538.08	0.228
538.54	0.232
538.99	0.229
539.44	0.231
539.90	0.231
540.35	0.227
540.80	0.228
541.26	0.228
541.71	0.228
542.16	0.228
542.62	0.228
543.07	0.227
543.52	0.226
543.98	0.227
544.43	0.224
544.88	0.224
545.34	0.226
545.79	0.224
546.24	0.221
546.69	0.225
547.15	0.223
547.60	0.222
548.05	0.221
548.51	0.221
548.96	0.221
549.41	0.221
549.86	0.222
550.32	0.223
550.77	0.222
551.22	0.221
551.68	0.217
552.13	0.218
552.58	0.218
553.03	0.219
553.49	0.219
553.94	0.218
554.39	0.217
554.84	0.218
555.30	0.217
555.75	0.216
556.20	0.215
556.65	0.215
557.11	0.215
557.56	0.214
558.01	0.216
558.46	0.215
558.92	0.214
559.37	0.214
559.82	0.214
560.27	0.212
560.72	0.212
561.18	0.210
561.63	0.211
562.08	0.207
562.53	0.212
562.99	0.211
563.44	0.210
563.89	0.209
564.34	0.209
564.79	0.211
565.25	0.208
565.70	0.208
566.15	0.206
566.60	0.206
567.05	0.205
567.50	0.208
567.96	0.207
568.41	0.207
568.86	0.204
569.31	0.203
569.76	0.204
570.21	0.203
570.67	0.202
571.12	0.203
571.57	0.203
572.02	0.200
572.47	0.201
572.92	0.202
573.37	0.201
573.83	0.199
574.28	0.202
574.73	0.201
575.18	0.201
575.63	0.202
576.08	0.197
576.53	0.200
576.98	0.199
577.44	0.198
577.89	0.198
578.34	0.196
578.79	0.197
579.24	0.195
579.69	0.197
580.14	0.193
580.59	0.194
581.04	0.194
581.49	0.195
581.95	0.194
582.40	0.196
582.85	0.193
583.30	0.191
583.75	0.193
584.20	0.192
584.65	0.194
585.10	0.193
585.55	0.194
586.00	0.193
586.45	0.192
586.90	0.192
587.35	0.193
587.80	0.190
588.25	0.189
588.71	0.192
589.16	0.189
589.61	0.190
590.06	0.191
590.51	0.191
590.96	0.190
591.41	0.188
591.86	0.188
592.31	0.188
592.76	0.187
593.21	0.187
593.66	0.189
594.11	0.188
594.56	0.189
595.01	0.187
595.46	0.187
595.91	0.189
596.36	0.184
596.81	0.186
597.26	0.186
597.71	0.186
598.16	0.183
598.61	0.185
599.06	0.184
599.51	0.187
599.96	0.184
600.41	0.185
600.86	0.184
601.31	0.183
601.76	0.182
602.21	0.184
602.65	0.184
603.10	0.184
603.55	0.184
604.00	0.183
604.45	0.181
604.90	0.181
605.35	0.179
605.80	0.182
606.25	0.181
606.70	0.181
607.15	0.180
607.60	0.179
608.05	0.178
608.50	0.179
608.95	0.177
609.39	0.180
609.84	0.178
610.29	0.178
610.74	0.178
611.19	0.176
611.64	0.177
612.09	0.177
612.54	0.177
612.99	0.177
613.44	0.176
613.88	0.177
614.33	0.177
614.78	0.174
615.23	0.175
615.68	0.175
616.13	0.175
616.58	0.173
617.03	0.175
617.47	0.175
617.92	0.172
618.37	0.173
618.82	0.175
619.27	0.173
619.72	0.171
620.17	0.171
620.61	0.171
621.06	0.172
621.51	0.171
621.96	0.170
622.41	0.171
622.86	0.170
623.30	0.169
623.75	0.172
624.20	0.171
624.65	0.170
625.10	0.171
625.54	0.171
625.99	0.169
626.44	0.169
626.89	0.169
627.34	0.172
627.78	0.167
628.23	0.168
628.68	0.168
629.13	0.166
629.58	0.168
630.02	0.167
630.47	0.166
630.92	0.167
631.37	0.166
631.81	0.165
632.26	0.166
632.71	0.165
633.16	0.164
633.61	0.165
634.05	0.161
634.50	0.166
634.95	0.165
635.40	0.164
635.84	0.166
636.29	0.163
636.74	0.165
637.18	0.165
637.63	0.164
638.08	0.163
638.53	0.162
638.97	0.162
639.42	0.163
639.87	0.163
640.32	0.160
640.76	0.162
641.21	0.162
641.66	0.161
642.10	0.162
642.55	0.160
643.00	0.162
643.44	0.161
643.89	0.161
644.34	0.160
644.79	0.158
645.23	0.160
645.68	0.161
646.13	0.159
646.57	0.159
647.02	0.158
647.47	0.161
647.91	0.160
648.36	0.159
648.81	0.159
649.25	0.155
649.70	0.157
650.15	0.157
650.59	0.158
651.04	0.155
651.48	0.158
651.93	0.157
652.38	0.155
652.82	0.158
653.27	0.155
653.72	0.156
654.16	0.155
654.61	0.156
655.06	0.155
655.50	0.154
655.95	0.152
656.39	0.150
656.84	0.152
657.29	0.155
657.73	0.153
658.18	0.154
658.62	0.153
659.07	0.154
659.52	0.154
659.96	0.153
660.41	0.155
660.85	0.152
661.30	0.152
661.74	0.153
662.19	0.152
662.64	0.153
663.08	0.153
663.53	0.153
663.97	0.153
664.42	0.151
664.86	0.152
665.31	0.153
665.75	0.149
666.20	0.152
666.65	0.151
667.09	0.150
667.54	0.151
667.98	0.151
668.43	0.150
668.87	0.149
669.32	0.149
669.76	0.150
670.21	0.150
670.65	0.147
671.10	0.149
671.54	0.149
671.99	0.148
672.43	0.148
672.88	0.148
673.32	0.148
673.77	0.145
674.21	0.146
674.66	0.148
675.10	0.146
675.55	0.147
675.99	0.146
676.44	0.147
676.88	0.146
677.33	0.146
677.77	0.146
678.22	0.145
678.66	0.145
679.11	0.145
679.55	0.145
679.99	0.145
680.44	0.147
680.88	0.146
681.33	0.144
681.77	0.145
682.22	0.146
682.66	0.144
683.11	0.143
683.55	0.145
683.99	0.145
684.44	0.143
684.88	0.142
685.33	0.143
685.77	0.142
686.21	0.142
686.66	0.143
687.10	0.142
687.55	0.141
687.99	0.143
688.44	0.144
688.88	0.140
689.32	0.144
689.77	0.142
690.21	0.142
690.65	0.142
691.10	0.142
691.54	0.142
691.99	0.141
692.43	0.142
692.87	0.139
693.32	0.142
693.76	0.141
694.20	0.142
694.65	0.141
695.09	0.141
695.53	0.138
695.98	0.140
696.42	0.141
696.86	0.140
697.31	0.140
697.75	0.139
698.19	0.138
698.64	0.138
699.08	0.139
699.52	0.139
699.97	0.139
700.41	0.139
700.85	0.141
701.30	0.136
701.74	0.137
702.18	0.140
702.63	0.138
703.07	0.139
703.51	0.139
703.96	0.137
704.40	0.137
704.84	0.140
705.28	0.136
705.73	0.138
706.17	0.138
706.61	0.137
707.06	0.136
707.50	0.138
707.94	0.138
708.38	0.137
708.83	0.138
709.27	0.138
709.71	0.136
710.15	0.137
710.60	0.136
711.04	0.134
711.48	0.138
711.92	0.138
712.37	0.135
712.81	0.137
713.25	0.135
713.69	0.136
714.13	0.135
714.58	0.135
715.02	0.134
715.46	0.135
715.90	0.133
716.35	0.132
716.79	0.138
717.23	0.136
717.67	0.136
718.11	0.138
718.56	0.134
719.00	0.136
719.44	0.136
719.88	0.133
720.32	0.135
720.76	0.135
721.21	0.134
721.65	0.135
722.09	0.135
722.53	0.134
722.97	0.138
723.41	0.133
723.86	0.138
724.30	0.134
724.74	0.134
725.18	0.137
725.62	0.135
726.06	0.136
726.50	0.133
726.95	0.134
727.39	0.134
727.83	0.134
728.27	0.135
728.71	0.134
729.15	0.136
729.59	0.135
730.03	0.134
730.48	0.134
730.92	0.134
731.36	0.136
731.80	0.134
732.24	0.135
732.68	0.135
733.12	0.133
733.56	0.137
734.00	0.135
734.44	0.133
734.89	0.134
735.33	0.138
735.77	0.136
736.21	0.136
736.65	0.134
737.09	0.135
737.53	0.136
737.97	0.137
738.41	0.136
738.85	0.137
739.29	0.135
739.73	0.135
740.17	0.134
740.61	0.134
741.05	0.136
741.49	0.135
741.93	0.134
742.37	0.133
742.81	0.134
743.26	0.135
743.70	0.133
744.14	0.133
744.58	0.134
745.02	0.134
745.46	0.137
745.90	0.135
746.34	0.135
746.78	0.133
747.22	0.135
747.66	0.134
748.10	0.133
748.54	0.133
748.98	0.130
749.42	0.132
749.86	0.132
750.29	0.132
750.73	0.132
751.17	0.132
751.61	0.129
752.05	0.134
752.49	0.134
752.93	0.132
753.37	0.130
753.81	0.130
754.25	0.130
754.69	0.128
755.13	0.129
755.57	0.132
756.01	0.133
756.45	0.129
756.89	0.132
757.33	0.130
757.77	0.128
758.21	0.130
758.64	0.127
759.08	0.125
759.52	0.130
759.96	0.133
760.40	0.131
760.84	0.127
761.28	0.128
761.72	0.129
762.16	0.129
762.60	0.128
763.03	0.130
763.47	0.126
763.91	0.128
764.35	0.127
764.79	0.125
765.23	0.127
765.67	0.128
766.11	0.123
766.54	0.124
766.98	0.126
767.42	0.130
767.86	0.126
768.30	0.128
768.74	0.129
769.17	0.129
769.61	0.127
770.05	0.126
770.49	0.128
770.93	0.127
771.37	0.126
771.80	0.125
772.24	0.127
772.68	0.125
773.12	0.124
773.56	0.124
774.00	0.124
774.43	0.124
774.87	0.126
775.31	0.127
775.75	0.123
776.19	0.124
776.62	0.124
777.06	0.126
777.50	0.122
777.94	0.122
778.37	0.122
778.81	0.127
779.25	0.126
779.69	0.126
780.13	0.123
780.56	0.120
781.00	0.123
781.44	0.123
781.88	0.122
782.31	0.124
782.75	0.121
783.19	0.122
783.63	0.122
784.06	0.121
784.50	0.124
784.94	0.125
785.37	0.126
785.81	0.125
786.25	0.124
786.69	0.121
787.12	0.124
787.56	0.119
788.00	0.125
788.43	0.123
788.87	0.121
789.31	0.121
789.75	0.124
790.18	0.121
790.62	0.123
791.06	0.120
791.49	0.120
791.93	0.123
792.37	0.125
792.80	0.119
793.24	0.122
793.68	0.122
794.11	0.120
794.55	0.122
794.99	0.123
795.42	0.123
795.86	0.125
796.30	0.118
796.73	0.119
797.17	0.120
797.61	0.119
798.04	0.123
798.48	0.117
798.91	0.121
799.35	0.121
799.79	0.124
800.22	0.121
800.66	0.119
801.10	0.119
801.53	0.118
801.97	0.124
802.40	0.122
802.84	0.121
803.28	0.116
803.71	0.120
804.15	0.119
804.58	0.119
805.02	0.122
805.46	0.119
805.89	0.115
806.33	0.120
806.76	0.119
807.20	0.118
807.63	0.120
808.07	0.124
808.51	0.116
808.94	0.117
809.38	0.120
809.81	0.119
810.25	0.120
810.68	0.122
811.12	0.119
811.55	0.118
811.99	0.116
812.42	0.117
812.86	0.117
813.29	0.117
813.73	0.119
814.17	0.115
814.60	0.115
815.04	0.117
815.47	0.114
815.91	0.115
