SpectraSuite Data File
++++++++++++++++++++++++++++++++++++
Date: Mon Jul 10 14:33:17 CEST 2017
User: IPCE
Dark Spectrum Present: Yes
Reference Spectrum Present: Yes
Number of Sampled Component Spectra: 1
Spectrometers: HR+C0708
Integration Time (usec): 1000 (HR+C0708)
Spectra Averaged: 10 (HR+C0708)
Boxcar Smoothing: 0 (HR+C0708)
Correct for Electrical Dark: No (HR+C0708)
Strobe/Lamp Enabled: No (HR+C0708)
Correct for Detector Non-linearity: No (HR+C0708)
Correct for Stray Light: No (HR+C0708)
Number of Pixels in Processed Spectrum: 2048
>>>>>Begin Processed Spectral Data<<<<<
188.76	1.000
189.23	-0.000
189.70	-0.000
190.17	0.710
190.64	-0.000
191.12	-0.000
191.59	-0.000
192.06	0.848
192.53	0.746
193.01	-0.000
193.48	-0.000
193.95	0.685
194.42	0.594
194.90	-0.000
195.37	-0.000
195.84	0.648
196.31	-0.000
196.78	-0.000
197.26	1.014
197.73	-0.000
198.20	-0.000
198.67	-0.000
199.14	-0.000
199.62	-0.000
200.09	-0.000
200.56	-0.000
201.03	1.154
201.50	1.850
201.97	0.725
202.45	1.257
202.92	1.076
203.39	1.400
203.86	1.291
204.33	0.840
204.80	-0.000
205.28	-0.000
205.75	-0.000
206.22	1.233
206.69	-0.000
207.16	0.528
207.63	0.680
208.11	0.618
208.58	0.710
209.05	0.522
209.52	0.651
209.99	0.918
210.46	1.248
210.93	0.728
211.41	0.667
211.88	1.339
212.35	0.547
212.82	0.621
213.29	0.741
213.76	1.212
214.23	0.867
214.70	0.697
215.18	-0.000
215.65	1.109
216.12	0.863
216.59	1.066
217.06	0.861
217.53	0.697
218.00	0.608
218.47	0.590
218.94	1.490
219.41	0.714
219.89	0.730
220.36	0.775
220.83	1.058
221.30	0.802
221.77	0.851
222.24	1.121
222.71	1.015
223.18	0.889
223.65	0.986
224.12	1.140
224.59	1.290
225.06	0.870
225.54	1.374
226.01	-0.000
226.48	1.434
226.95	2.080
227.42	1.814
227.89	1.203
228.36	1.926
228.83	1.269
229.30	1.494
229.77	1.435
230.24	1.657
230.71	1.742
231.18	1.697
231.65	1.753
232.12	1.955
232.59	1.765
233.06	1.855
233.53	1.675
234.00	1.864
234.47	1.870
234.94	2.167
235.41	1.927
235.88	2.122
236.35	1.898
236.82	2.194
237.29	-0.000
237.76	2.818
238.23	3.495
238.70	2.588
239.17	2.836
239.64	2.413
240.11	2.293
240.58	2.386
241.05	3.340
241.52	2.351
241.99	2.251
242.46	2.819
242.93	-0.000
243.40	2.700
243.87	3.619
244.34	4.529
244.81	2.908
245.28	2.764
245.75	2.605
246.22	2.872
246.69	2.653
247.16	2.740
247.63	2.788
248.10	2.870
248.57	2.551
249.04	2.526
249.51	-0.000
249.98	2.811
250.45	2.752
250.92	3.210
251.39	3.063
251.85	2.715
252.32	2.956
252.79	3.582
253.26	2.789
253.73	2.800
254.20	2.614
254.67	2.675
255.14	2.815
255.61	2.555
256.08	2.925
256.55	2.946
257.02	2.976
257.49	3.121
257.95	3.332
258.42	2.745
258.89	2.714
259.36	3.284
259.83	2.676
260.30	2.699
260.77	2.741
261.24	3.080
261.71	3.087
262.17	2.697
262.64	2.803
263.11	2.880
263.58	3.669
264.05	2.928
264.52	2.760
264.99	3.084
265.46	2.746
265.92	2.773
266.39	2.892
266.86	3.024
267.33	2.852
267.80	2.691
268.27	2.803
268.74	2.906
269.20	2.660
269.67	2.781
270.14	2.824
270.61	2.843
271.08	2.859
271.55	2.908
272.01	2.752
272.48	2.572
272.95	2.644
273.42	2.798
273.89	2.604
274.36	2.696
274.82	2.705
275.29	2.867
275.76	2.646
276.23	2.627
276.70	2.559
277.16	2.583
277.63	2.492
278.10	2.667
278.57	2.722
279.04	2.757
279.50	2.358
279.97	2.453
280.44	2.559
280.91	2.499
281.38	2.618
281.84	2.542
282.31	2.531
282.78	2.463
283.25	2.464
283.72	2.595
284.18	2.517
284.65	2.569
285.12	2.377
285.59	2.550
286.05	2.446
286.52	2.452
286.99	2.418
287.46	2.407
287.92	2.458
288.39	2.386
288.86	2.389
289.33	2.420
289.79	2.425
290.26	2.339
290.73	2.358
291.20	2.327
291.66	2.376
292.13	2.346
292.60	2.319
293.07	2.400
293.53	2.297
294.00	2.303
294.47	2.298
294.93	2.268
295.40	2.319
295.87	2.262
296.34	2.218
296.80	2.349
297.27	2.331
297.74	2.217
298.20	2.242
298.67	2.242
299.14	2.181
299.60	2.227
300.07	2.140
300.54	2.194
301.01	2.173
301.47	2.143
301.94	2.191
302.41	2.218
302.87	2.126
303.34	2.183
303.81	2.075
304.27	2.148
304.74	2.098
305.21	2.071
305.67	2.154
306.14	2.103
306.61	2.075
307.07	2.140
307.54	2.029
308.01	2.066
308.47	2.053
308.94	2.099
309.40	2.088
309.87	2.034
310.34	2.056
310.80	2.083
311.27	2.003
311.74	2.046
312.20	1.966
312.67	2.077
313.13	2.013
313.60	1.994
314.07	1.984
314.53	2.002
315.00	1.991
315.47	1.996
315.93	1.993
316.40	1.948
316.86	1.964
317.33	1.961
317.80	1.948
318.26	1.950
318.73	1.962
319.19	1.963
319.66	1.935
320.13	1.972
320.59	1.910
321.06	1.882
321.52	1.901
321.99	1.904
322.45	1.866
322.92	1.903
323.39	1.844
323.85	1.874
324.32	1.883
324.78	1.829
325.25	1.871
325.71	1.845
326.18	1.826
326.64	1.827
327.11	1.812
327.58	1.812
328.04	1.757
328.51	1.712
328.97	1.760
329.44	1.762
329.90	1.694
330.37	1.739
330.83	1.705
331.30	1.694
331.76	1.696
332.23	1.677
332.69	1.678
333.16	1.626
333.62	1.611
334.09	1.628
334.56	1.597
335.02	1.564
335.49	1.550
335.95	1.513
336.42	1.512
336.88	1.475
337.35	1.467
337.81	1.454
338.28	1.414
338.74	1.394
339.20	1.387
339.67	1.372
340.13	1.326
340.60	1.306
341.06	1.281
341.53	1.256
341.99	1.221
342.46	1.197
342.92	1.181
343.39	1.151
343.85	1.133
344.32	1.107
344.78	1.093
345.25	1.064
345.71	1.048
346.17	1.027
346.64	1.000
347.10	0.974
347.57	0.952
348.03	0.936
348.50	0.908
348.96	0.895
349.43	0.878
349.89	0.864
350.35	0.844
350.82	0.832
351.28	0.809
351.75	0.800
352.21	0.784
352.67	0.774
353.14	0.766
353.60	0.733
354.07	0.733
354.53	0.721
355.00	0.712
355.46	0.694
355.92	0.697
356.39	0.677
356.85	0.666
357.31	0.660
357.78	0.650
358.24	0.642
358.71	0.640
359.17	0.627
359.63	0.622
360.10	0.615
360.56	0.616
361.03	0.608
361.49	0.601
361.95	0.597
362.42	0.599
362.88	0.595
363.34	0.595
363.81	0.586
364.27	0.589
364.73	0.579
365.20	0.578
365.66	0.575
366.12	0.577
366.59	0.573
367.05	0.564
367.51	0.566
367.98	0.562
368.44	0.554
368.90	0.558
369.37	0.555
369.83	0.554
370.29	0.551
370.76	0.546
371.22	0.548
371.68	0.546
372.15	0.546
372.61	0.542
373.07	0.539
373.54	0.533
374.00	0.533
374.46	0.535
374.92	0.532
375.39	0.529
375.85	0.526
376.31	0.529
376.78	0.527
377.24	0.519
377.70	0.519
378.16	0.518
378.63	0.516
379.09	0.520
379.55	0.518
380.01	0.517
380.48	0.507
380.94	0.511
381.40	0.510
381.87	0.509
382.33	0.506
382.79	0.506
383.25	0.499
383.72	0.505
384.18	0.494
384.64	0.500
385.10	0.497
385.56	0.495
386.03	0.493
386.49	0.493
386.95	0.487
387.41	0.489
387.88	0.485
388.34	0.489
388.80	0.486
389.26	0.482
389.72	0.484
390.19	0.482
390.65	0.478
391.11	0.481
391.57	0.475
392.04	0.478
392.50	0.474
392.96	0.470
393.42	0.473
393.88	0.472
394.34	0.469
394.81	0.468
395.27	0.468
395.73	0.462
396.19	0.464
396.65	0.463
397.12	0.463
397.58	0.459
398.04	0.457
398.50	0.457
398.96	0.455
399.42	0.456
399.89	0.457
400.35	0.454
400.81	0.452
401.27	0.449
401.73	0.449
402.19	0.446
402.65	0.444
403.12	0.440
403.58	0.444
404.04	0.438
404.50	0.441
404.96	0.438
405.42	0.439
405.88	0.433
406.34	0.438
406.81	0.437
407.27	0.429
407.73	0.430
408.19	0.431
408.65	0.431
409.11	0.427
409.57	0.426
410.03	0.427
410.49	0.422
410.96	0.424
411.42	0.421
411.88	0.418
412.34	0.419
412.80	0.419
413.26	0.421
413.72	0.420
414.18	0.416
414.64	0.413
415.10	0.415
415.56	0.409
416.02	0.411
416.48	0.417
416.95	0.409
417.41	0.405
417.87	0.406
418.33	0.405
418.79	0.408
419.25	0.403
419.71	0.403
420.17	0.401
420.63	0.400
421.09	0.399
421.55	0.403
422.01	0.399
422.47	0.396
422.93	0.397
423.39	0.394
423.85	0.391
424.31	0.392
424.77	0.390
425.23	0.397
425.69	0.390
426.15	0.392
426.61	0.389
427.07	0.386
427.53	0.385
427.99	0.385
428.45	0.385
428.91	0.380
429.37	0.382
429.83	0.385
430.29	0.381
430.75	0.381
431.21	0.383
431.67	0.380
432.13	0.378
432.59	0.368
433.05	0.374
433.51	0.370
433.97	0.372
434.43	0.375
434.89	0.371
435.35	0.375
435.81	0.365
436.27	0.366
436.73	0.365
437.19	0.366
437.65	0.367
438.11	0.366
438.57	0.363
439.03	0.360
439.48	0.364
439.94	0.362
440.40	0.359
440.86	0.356
441.32	0.359
441.78	0.354
442.24	0.356
442.70	0.350
443.16	0.355
443.62	0.354
444.08	0.350
444.54	0.351
444.99	0.351
445.45	0.351
445.91	0.347
446.37	0.348
446.83	0.345
447.29	0.344
447.75	0.342
448.21	0.344
448.67	0.342
449.12	0.339
449.58	0.340
450.04	0.341
450.50	0.336
450.96	0.335
451.42	0.335
451.88	0.337
452.34	0.334
452.79	0.335
453.25	0.338
453.71	0.334
454.17	0.329
454.63	0.330
455.09	0.333
455.55	0.330
456.00	0.328
456.46	0.327
456.92	0.326
457.38	0.325
457.84	0.321
458.30	0.324
458.75	0.325
459.21	0.322
459.67	0.323
460.13	0.319
460.59	0.322
461.04	0.319
461.50	0.320
461.96	0.321
462.42	0.318
462.88	0.317
463.33	0.317
463.79	0.317
464.25	0.316
464.71	0.316
465.17	0.314
465.62	0.314
466.08	0.315
466.54	0.312
467.00	0.314
467.46	0.311
467.91	0.309
468.37	0.310
468.83	0.311
469.29	0.308
469.74	0.308
470.20	0.307
470.66	0.306
471.12	0.308
471.57	0.305
472.03	0.301
472.49	0.304
472.95	0.303
473.40	0.300
473.86	0.301
474.32	0.303
474.78	0.301
475.23	0.300
475.69	0.298
476.15	0.298
476.60	0.299
477.06	0.301
477.52	0.297
477.98	0.296
478.43	0.297
478.89	0.295
479.35	0.296
479.80	0.295
480.26	0.293
480.72	0.293
481.18	0.291
481.63	0.289
482.09	0.286
482.55	0.293
483.00	0.290
483.46	0.290
483.92	0.285
484.37	0.288
484.83	0.285
485.29	0.287
485.74	0.283
486.20	0.288
486.66	0.284
487.11	0.288
487.57	0.284
488.03	0.282
488.48	0.280
488.94	0.280
489.40	0.282
489.85	0.282
490.31	0.281
490.77	0.277
491.22	0.279
491.68	0.278
492.13	0.278
492.59	0.278
493.05	0.273
493.50	0.276
493.96	0.275
494.42	0.275
494.87	0.273
495.33	0.275
495.78	0.273
496.24	0.272
496.70	0.273
497.15	0.272
497.61	0.270
498.06	0.272
498.52	0.271
498.98	0.271
499.43	0.271
499.89	0.270
500.34	0.268
500.80	0.268
501.25	0.269
501.71	0.268
502.17	0.268
502.62	0.267
503.08	0.265
503.53	0.266
503.99	0.263
504.44	0.265
504.90	0.264
505.36	0.266
505.81	0.262
506.27	0.264
506.72	0.263
507.18	0.262
507.63	0.261
508.09	0.259
508.54	0.260
509.00	0.260
509.45	0.260
509.91	0.258
510.36	0.257
510.82	0.257
511.27	0.258
511.73	0.257
512.19	0.256
512.64	0.256
513.10	0.256
513.55	0.253
514.01	0.256
514.46	0.253
514.92	0.251
515.37	0.250
515.83	0.253
516.28	0.254
516.73	0.252
517.19	0.249
517.64	0.249
518.10	0.249
518.55	0.248
519.01	0.246
519.46	0.247
519.92	0.247
520.37	0.247
520.83	0.246
521.28	0.247
521.74	0.245
522.19	0.243
522.65	0.243
523.10	0.245
523.55	0.245
524.01	0.243
524.46	0.244
524.92	0.243
525.37	0.243
525.83	0.242
526.28	0.241
526.73	0.243
527.19	0.241
527.64	0.240
528.10	0.240
528.55	0.240
529.01	0.239
529.46	0.238
529.91	0.238
530.37	0.238
530.82	0.235
531.28	0.238
531.73	0.237
532.18	0.237
532.64	0.236
533.09	0.236
533.54	0.236
534.00	0.233
534.45	0.235
534.91	0.234
535.36	0.234
535.81	0.232
536.27	0.234
536.72	0.233
537.17	0.231
537.63	0.234
538.08	0.233
538.54	0.230
538.99	0.231
539.44	0.230
539.90	0.229
540.35	0.229
540.80	0.229
541.26	0.230
541.71	0.227
542.16	0.230
542.62	0.229
543.07	0.226
543.52	0.226
543.98	0.225
544.43	0.226
544.88	0.228
545.34	0.224
545.79	0.225
546.24	0.225
546.69	0.221
547.15	0.228
547.60	0.223
548.05	0.226
548.51	0.225
548.96	0.224
549.41	0.223
549.86	0.222
550.32	0.224
550.77	0.222
551.22	0.222
551.68	0.221
552.13	0.220
552.58	0.222
553.03	0.220
553.49	0.221
553.94	0.221
554.39	0.220
554.84	0.217
555.30	0.217
555.75	0.218
556.20	0.217
556.65	0.219
557.11	0.218
557.56	0.218
558.01	0.218
558.46	0.217
558.92	0.219
559.37	0.216
559.82	0.214
560.27	0.214
560.72	0.213
561.18	0.215
561.63	0.213
562.08	0.213
562.53	0.216
562.99	0.215
563.44	0.215
563.89	0.212
564.34	0.213
564.79	0.213
565.25	0.212
565.70	0.212
566.15	0.211
566.60	0.208
567.05	0.211
567.50	0.213
567.96	0.212
568.41	0.212
568.86	0.210
569.31	0.209
569.76	0.209
570.21	0.208
570.67	0.210
571.12	0.209
571.57	0.208
572.02	0.209
572.47	0.207
572.92	0.206
573.37	0.206
573.83	0.205
574.28	0.203
574.73	0.206
575.18	0.203
575.63	0.205
576.08	0.206
576.53	0.204
576.98	0.206
577.44	0.203
577.89	0.204
578.34	0.206
578.79	0.203
579.24	0.202
579.69	0.202
580.14	0.203
580.59	0.203
581.04	0.202
581.49	0.203
581.95	0.201
582.40	0.202
582.85	0.202
583.30	0.200
583.75	0.200
584.20	0.204
584.65	0.201
585.10	0.200
585.55	0.200
586.00	0.201
586.45	0.201
586.90	0.200
587.35	0.200
587.80	0.199
588.25	0.197
588.71	0.198
589.16	0.199
589.61	0.197
590.06	0.198
590.51	0.201
590.96	0.198
591.41	0.197
591.86	0.197
592.31	0.199
592.76	0.195
593.21	0.195
593.66	0.198
594.11	0.197
594.56	0.196
595.01	0.197
595.46	0.198
595.91	0.198
596.36	0.196
596.81	0.197
597.26	0.197
597.71	0.196
598.16	0.195
598.61	0.196
599.06	0.196
599.51	0.196
599.96	0.196
600.41	0.197
600.86	0.197
601.31	0.195
601.76	0.194
602.21	0.196
602.65	0.193
603.10	0.194
603.55	0.196
604.00	0.194
604.45	0.195
604.90	0.195
605.35	0.196
605.80	0.195
606.25	0.195
606.70	0.195
607.15	0.194
607.60	0.194
608.05	0.192
608.50	0.193
608.95	0.192
609.39	0.191
609.84	0.193
610.29	0.193
610.74	0.192
611.19	0.193
611.64	0.192
612.09	0.190
612.54	0.191
612.99	0.191
613.44	0.191
613.88	0.192
614.33	0.189
614.78	0.189
615.23	0.189
615.68	0.190
616.13	0.190
616.58	0.190
617.03	0.188
617.47	0.188
617.92	0.189
618.37	0.189
618.82	0.189
619.27	0.189
619.72	0.188
620.17	0.188
620.61	0.188
621.06	0.188
621.51	0.188
621.96	0.188
622.41	0.188
622.86	0.187
623.30	0.188
623.75	0.187
624.20	0.189
624.65	0.188
625.10	0.186
625.54	0.186
625.99	0.185
626.44	0.186
626.89	0.184
627.34	0.187
627.78	0.186
628.23	0.186
628.68	0.186
629.13	0.184
629.58	0.184
630.02	0.185
630.47	0.185
630.92	0.184
631.37	0.185
631.81	0.184
632.26	0.185
632.71	0.183
633.16	0.187
633.61	0.184
634.05	0.182
634.50	0.184
634.95	0.185
635.40	0.184
635.84	0.184
636.29	0.185
636.74	0.185
637.18	0.183
637.63	0.183
638.08	0.183
638.53	0.184
638.97	0.183
639.42	0.185
639.87	0.185
640.32	0.184
640.76	0.183
641.21	0.183
641.66	0.182
642.10	0.182
642.55	0.183
643.00	0.182
643.44	0.182
643.89	0.183
644.34	0.183
644.79	0.185
645.23	0.181
645.68	0.185
646.13	0.184
646.57	0.182
647.02	0.185
647.47	0.184
647.91	0.183
648.36	0.184
648.81	0.184
649.25	0.183
649.70	0.183
650.15	0.184
650.59	0.184
651.04	0.184
651.48	0.185
651.93	0.185
652.38	0.185
652.82	0.184
653.27	0.182
653.72	0.183
654.16	0.184
654.61	0.184
655.06	0.184
655.50	0.183
655.95	0.180
656.39	0.182
656.84	0.186
657.29	0.181
657.73	0.183
658.18	0.187
658.62	0.183
659.07	0.184
659.52	0.183
659.96	0.184
660.41	0.184
660.85	0.182
661.30	0.180
661.74	0.182
662.19	0.182
662.64	0.182
663.08	0.181
663.53	0.182
663.97	0.182
664.42	0.180
664.86	0.181
665.31	0.181
665.75	0.181
666.20	0.180
666.65	0.181
667.09	0.180
667.54	0.179
667.98	0.178
668.43	0.179
668.87	0.179
669.32	0.178
669.76	0.175
670.21	0.177
670.65	0.176
671.10	0.177
671.54	0.175
671.99	0.174
672.43	0.175
672.88	0.172
673.32	0.171
673.77	0.174
674.21	0.172
674.66	0.171
675.10	0.171
675.55	0.167
675.99	0.169
676.44	0.170
676.88	0.168
677.33	0.169
677.77	0.164
678.22	0.164
678.66	0.164
679.11	0.163
679.55	0.161
679.99	0.162
680.44	0.164
680.88	0.163
681.33	0.160
681.77	0.160
682.22	0.159
682.66	0.157
683.11	0.155
683.55	0.156
683.99	0.155
684.44	0.157
684.88	0.154
685.33	0.155
685.77	0.153
686.21	0.152
686.66	0.153
687.10	0.149
687.55	0.150
687.99	0.150
688.44	0.152
688.88	0.150
689.32	0.147
689.77	0.149
690.21	0.149
690.65	0.145
691.10	0.146
691.54	0.146
691.99	0.144
692.43	0.144
692.87	0.147
693.32	0.145
693.76	0.143
694.20	0.144
694.65	0.146
695.09	0.144
695.53	0.144
695.98	0.143
696.42	0.140
696.86	0.140
697.31	0.144
697.75	0.143
698.19	0.141
698.64	0.141
699.08	0.141
699.52	0.139
699.97	0.140
700.41	0.140
700.85	0.138
701.30	0.141
701.74	0.140
702.18	0.140
702.63	0.139
703.07	0.139
703.51	0.141
703.96	0.136
704.40	0.139
704.84	0.139
705.28	0.138
705.73	0.137
706.17	0.138
706.61	0.138
707.06	0.138
707.50	0.137
707.94	0.135
708.38	0.134
708.83	0.138
709.27	0.136
709.71	0.136
710.15	0.137
710.60	0.134
711.04	0.134
711.48	0.134
711.92	0.134
712.37	0.136
712.81	0.136
713.25	0.136
713.69	0.135
714.13	0.135
714.58	0.137
715.02	0.135
715.46	0.133
715.90	0.135
716.35	0.134
716.79	0.135
717.23	0.134
717.67	0.136
718.11	0.136
718.56	0.133
719.00	0.133
719.44	0.133
719.88	0.136
720.32	0.134
720.76	0.133
721.21	0.133
721.65	0.131
722.09	0.134
722.53	0.134
722.97	0.135
723.41	0.134
723.86	0.136
724.30	0.133
724.74	0.132
725.18	0.134
725.62	0.131
726.06	0.132
726.50	0.135
726.95	0.134
727.39	0.134
727.83	0.135
728.27	0.131
728.71	0.132
729.15	0.133
729.59	0.134
730.03	0.132
730.48	0.135
730.92	0.131
731.36	0.133
731.80	0.134
732.24	0.130
732.68	0.133
733.12	0.132
733.56	0.133
734.00	0.135
734.44	0.131
734.89	0.133
735.33	0.133
735.77	0.132
736.21	0.134
736.65	0.132
737.09	0.131
737.53	0.132
737.97	0.135
738.41	0.131
738.85	0.136
739.29	0.132
739.73	0.135
740.17	0.134
740.61	0.135
741.05	0.134
741.49	0.134
741.93	0.134
742.37	0.134
742.81	0.130
743.26	0.131
743.70	0.132
744.14	0.131
744.58	0.133
745.02	0.129
745.46	0.130
745.90	0.132
746.34	0.133
746.78	0.131
747.22	0.132
747.66	0.132
748.10	0.131
748.54	0.133
748.98	0.129
749.42	0.132
749.86	0.133
750.29	0.126
750.73	0.128
751.17	0.129
751.61	0.130
752.05	0.131
752.49	0.131
752.93	0.127
753.37	0.128
753.81	0.128
754.25	0.128
754.69	0.129
755.13	0.128
755.57	0.129
756.01	0.128
756.45	0.126
756.89	0.125
757.33	0.132
757.77	0.126
758.21	0.126
758.64	0.127
759.08	0.126
759.52	0.127
759.96	0.125
760.40	0.126
760.84	0.124
761.28	0.127
761.72	0.127
762.16	0.129
762.60	0.127
763.03	0.125
763.47	0.126
763.91	0.126
764.35	0.121
764.79	0.124
765.23	0.126
765.67	0.124
766.11	0.123
766.54	0.128
766.98	0.125
767.42	0.124
767.86	0.126
768.30	0.125
768.74	0.124
769.17	0.124
769.61	0.120
770.05	0.128
770.49	0.129
770.93	0.124
771.37	0.124
771.80	0.125
772.24	0.124
772.68	0.126
773.12	0.126
773.56	0.123
774.00	0.126
774.43	0.120
774.87	0.123
775.31	0.124
775.75	0.120
776.19	0.124
776.62	0.125
777.06	0.123
777.50	0.124
777.94	0.124
778.37	0.123
778.81	0.123
779.25	0.121
779.69	0.120
780.13	0.123
780.56	0.123
781.00	0.121
781.44	0.123
781.88	0.119
782.31	0.122
782.75	0.121
783.19	0.119
783.63	0.120
784.06	0.120
784.50	0.123
784.94	0.122
785.37	0.117
785.81	0.124
786.25	0.117
786.69	0.119
787.12	0.122
787.56	0.117
788.00	0.121
788.43	0.118
788.87	0.118
789.31	0.120
789.75	0.119
790.18	0.118
790.62	0.118
791.06	0.121
791.49	0.120
791.93	0.120
792.37	0.116
792.80	0.116
793.24	0.111
793.68	0.115
794.11	0.115
794.55	0.119
794.99	0.116
795.42	0.118
795.86	0.115
796.30	0.114
796.73	0.118
797.17	0.125
797.61	0.114
798.04	0.114
798.48	0.115
798.91	0.114
799.35	0.116
799.79	0.112
800.22	0.116
800.66	0.115
801.10	0.114
801.53	0.116
801.97	0.118
802.40	0.114
802.84	0.115
803.28	0.114
803.71	0.114
804.15	0.114
804.58	0.114
805.02	0.115
805.46	0.114
805.89	0.115
806.33	0.117
806.76	0.118
807.20	0.112
807.63	0.115
808.07	0.111
808.51	0.111
808.94	0.116
809.38	0.114
809.81	0.116
810.25	0.118
810.68	0.109
811.12	0.115
811.55	0.111
811.99	0.117
812.42	0.117
812.86	0.119
813.29	0.116
813.73	0.113
814.17	0.118
814.60	0.115
815.04	0.117
815.47	0.110
815.91	0.115
816.34	0.113
816.78	0.113
817.21	0.111
