SpectraSuite Data File
++++++++++++++++++++++++++++++++++++
Date: Mon Jul 10 14:25:17 CEST 2017
User: IPCE
Dark Spectrum Present: Yes
Reference Spectrum Present: Yes
Number of Sampled Component Spectra: 1
Spectrometers: HR+C0708
Integration Time (usec): 1000 (HR+C0708)
Spectra Averaged: 10 (HR+C0708)
Boxcar Smoothing: 0 (HR+C0708)
Correct for Electrical Dark: No (HR+C0708)
Strobe/Lamp Enabled: No (HR+C0708)
Correct for Detector Non-linearity: No (HR+C0708)
Correct for Stray Light: No (HR+C0708)
Number of Pixels in Processed Spectrum: 2048
>>>>>Begin Processed Spectral Data<<<<<
188.76	0.314
189.23	0.710
189.70	-0.000
190.17	0.997
190.64	-0.000
191.12	-0.000
191.59	-0.000
192.06	-0.000
192.53	0.512
193.01	-0.000
193.48	-0.000
193.95	-0.000
194.42	0.747
194.90	0.823
195.37	0.659
195.84	0.541
196.31	-0.000
196.78	-0.000
197.26	0.927
197.73	1.221
198.20	-0.000
198.67	0.798
199.14	0.795
199.62	-0.000
200.09	-0.000
200.56	-0.000
201.03	1.273
201.50	-0.000
201.97	0.730
202.45	0.752
202.92	1.141
203.39	0.940
203.86	1.311
204.33	0.701
204.80	-0.000
205.28	-0.000
205.75	0.923
206.22	0.665
206.69	0.757
207.16	0.497
207.63	1.421
208.11	0.715
208.58	0.765
209.05	0.628
209.52	0.521
209.99	1.949
210.46	0.496
210.93	0.697
211.41	0.570
211.88	0.786
212.35	0.544
212.82	0.608
213.29	0.699
213.76	1.724
214.23	-0.000
214.70	0.628
215.18	-0.000
215.65	1.135
216.12	0.726
216.59	0.765
217.06	0.770
217.53	0.743
218.00	0.997
218.47	1.263
218.94	1.269
219.41	1.077
219.89	1.046
220.36	0.719
220.83	0.664
221.30	0.941
221.77	0.845
222.24	0.740
222.71	0.955
223.18	1.019
223.65	1.162
224.12	0.890
224.59	0.894
225.06	1.119
225.54	1.759
226.01	1.708
226.48	1.315
226.95	-0.000
227.42	1.236
227.89	1.153
228.36	1.465
228.83	1.375
229.30	1.575
229.77	1.440
230.24	1.657
230.71	2.759
231.18	2.033
231.65	1.491
232.12	2.047
232.59	2.161
233.06	1.655
233.53	1.596
234.00	2.408
234.47	2.037
234.94	2.397
235.41	1.896
235.88	1.944
236.35	2.035
236.82	2.090
237.29	-0.000
237.76	-0.000
238.23	2.990
238.70	2.910
239.17	2.543
239.64	2.391
240.11	2.511
240.58	2.338
241.05	2.813
241.52	2.416
241.99	2.356
242.46	2.508
242.93	2.439
243.40	2.499
243.87	2.619
244.34	4.529
244.81	2.483
245.28	3.340
245.75	2.614
246.22	2.637
246.69	2.974
247.16	2.651
247.63	2.987
248.10	3.121
248.57	2.774
249.04	2.504
249.51	2.893
249.98	2.436
250.45	2.774
250.92	3.657
251.39	3.284
251.85	2.894
252.32	2.907
252.79	3.883
253.26	2.518
253.73	2.610
254.20	2.407
254.67	2.629
255.14	2.784
255.61	2.845
256.08	2.826
256.55	2.701
257.02	2.957
257.49	2.713
257.95	3.139
258.42	2.929
258.89	2.650
259.36	3.132
259.83	2.930
260.30	2.771
260.77	2.735
261.24	2.756
261.71	2.923
262.17	2.804
262.64	2.828
263.11	2.864
263.58	-0.000
264.05	2.784
264.52	2.775
264.99	2.914
265.46	2.757
265.92	2.822
266.39	2.916
266.86	2.891
267.33	2.867
267.80	2.798
268.27	2.720
268.74	3.152
269.20	2.695
269.67	2.766
270.14	2.645
270.61	2.633
271.08	2.737
271.55	2.802
272.01	2.789
272.48	2.667
272.95	2.609
273.42	2.675
273.89	2.641
274.36	2.763
274.82	2.682
275.29	2.854
275.76	2.541
276.23	2.567
276.70	2.522
277.16	2.598
277.63	2.628
278.10	2.642
278.57	2.588
279.04	2.592
279.50	2.449
279.97	2.563
280.44	2.416
280.91	2.481
281.38	2.647
281.84	2.534
282.31	2.611
282.78	2.462
283.25	2.400
283.72	2.464
284.18	2.599
284.65	2.627
285.12	2.473
285.59	2.603
286.05	2.402
286.52	2.597
286.99	2.449
287.46	2.448
287.92	2.501
288.39	2.504
288.86	2.438
289.33	2.457
289.79	2.497
290.26	2.377
290.73	2.442
291.20	2.377
291.66	2.387
292.13	2.390
292.60	2.379
293.07	2.420
293.53	2.329
294.00	2.281
294.47	2.380
294.93	2.341
295.40	2.320
295.87	2.239
296.34	2.264
296.80	2.316
297.27	2.317
297.74	2.278
298.20	2.218
298.67	2.205
299.14	2.313
299.60	2.218
300.07	2.172
300.54	2.231
301.01	2.185
301.47	2.161
301.94	2.246
302.41	2.231
302.87	2.155
303.34	2.206
303.81	2.115
304.27	2.141
304.74	2.126
305.21	2.180
305.67	2.135
306.14	2.113
306.61	2.123
307.07	2.172
307.54	2.067
308.01	2.102
308.47	2.115
308.94	2.080
309.40	2.074
309.87	2.128
310.34	2.087
310.80	2.058
311.27	2.075
311.74	2.040
312.20	2.019
312.67	2.073
313.13	2.102
313.60	2.071
314.07	2.040
314.53	2.062
315.00	2.043
315.47	2.044
315.93	2.021
316.40	2.024
316.86	2.003
317.33	2.041
317.80	2.002
318.26	2.008
318.73	2.035
319.19	1.963
319.66	1.966
320.13	2.035
320.59	1.935
321.06	1.931
321.52	1.959
321.99	1.912
322.45	1.923
322.92	1.935
323.39	1.915
323.85	1.952
324.32	1.944
324.78	1.886
325.25	1.929
325.71	1.878
326.18	1.858
326.64	1.854
327.11	1.840
327.58	1.873
328.04	1.840
328.51	1.795
328.97	1.828
329.44	1.768
329.90	1.756
330.37	1.809
330.83	1.755
331.30	1.752
331.76	1.722
332.23	1.715
332.69	1.726
333.16	1.690
333.62	1.686
334.09	1.673
334.56	1.619
335.02	1.593
335.49	1.594
335.95	1.556
336.42	1.521
336.88	1.501
337.35	1.483
337.81	1.435
338.28	1.427
338.74	1.400
339.20	1.403
339.67	1.376
340.13	1.330
340.60	1.317
341.06	1.277
341.53	1.255
341.99	1.214
342.46	1.185
342.92	1.161
343.39	1.128
343.85	1.112
344.32	1.079
344.78	1.070
345.25	1.043
345.71	1.017
346.17	0.999
346.64	0.962
347.10	0.946
347.57	0.915
348.03	0.899
348.50	0.874
348.96	0.855
349.43	0.834
349.89	0.819
350.35	0.799
350.82	0.776
351.28	0.765
351.75	0.757
352.21	0.742
352.67	0.727
353.14	0.720
353.60	0.699
354.07	0.687
354.53	0.674
355.00	0.664
355.46	0.647
355.92	0.645
356.39	0.633
356.85	0.624
357.31	0.616
357.78	0.603
358.24	0.597
358.71	0.591
359.17	0.577
359.63	0.577
360.10	0.569
360.56	0.568
361.03	0.565
361.49	0.560
361.95	0.554
362.42	0.553
362.88	0.546
363.34	0.548
363.81	0.542
364.27	0.541
364.73	0.533
365.20	0.533
365.66	0.530
366.12	0.525
366.59	0.522
367.05	0.519
367.51	0.521
367.98	0.519
368.44	0.513
368.90	0.512
369.37	0.511
369.83	0.506
370.29	0.504
370.76	0.501
371.22	0.501
371.68	0.501
372.15	0.496
372.61	0.498
373.07	0.497
373.54	0.494
374.00	0.496
374.46	0.493
374.92	0.491
375.39	0.489
375.85	0.483
376.31	0.485
376.78	0.481
377.24	0.482
377.70	0.478
378.16	0.478
378.63	0.477
379.09	0.476
379.55	0.472
380.01	0.472
380.48	0.470
380.94	0.470
381.40	0.468
381.87	0.464
382.33	0.467
382.79	0.467
383.25	0.456
383.72	0.462
384.18	0.457
384.64	0.460
385.10	0.455
385.56	0.451
386.03	0.449
386.49	0.453
386.95	0.449
387.41	0.449
387.88	0.445
388.34	0.447
388.80	0.447
389.26	0.442
389.72	0.440
390.19	0.443
390.65	0.441
391.11	0.441
391.57	0.436
392.04	0.438
392.50	0.436
392.96	0.436
393.42	0.428
393.88	0.428
394.34	0.427
394.81	0.427
395.27	0.429
395.73	0.423
396.19	0.425
396.65	0.426
397.12	0.419
397.58	0.422
398.04	0.419
398.50	0.422
398.96	0.419
399.42	0.415
399.89	0.415
400.35	0.414
400.81	0.411
401.27	0.412
401.73	0.412
402.19	0.411
402.65	0.410
403.12	0.408
403.58	0.403
404.04	0.404
404.50	0.407
404.96	0.403
405.42	0.402
405.88	0.400
406.34	0.400
406.81	0.397
407.27	0.394
407.73	0.399
408.19	0.394
408.65	0.392
409.11	0.390
409.57	0.391
410.03	0.388
410.49	0.390
410.96	0.389
411.42	0.385
411.88	0.384
412.34	0.383
412.80	0.383
413.26	0.381
413.72	0.383
414.18	0.378
414.64	0.377
415.10	0.378
415.56	0.379
416.02	0.378
416.48	0.382
416.95	0.372
417.41	0.373
417.87	0.371
418.33	0.372
418.79	0.370
419.25	0.369
419.71	0.369
420.17	0.369
420.63	0.365
421.09	0.368
421.55	0.367
422.01	0.365
422.47	0.365
422.93	0.362
423.39	0.363
423.85	0.361
424.31	0.360
424.77	0.359
425.23	0.359
425.69	0.356
426.15	0.355
426.61	0.356
427.07	0.354
427.53	0.350
427.99	0.350
428.45	0.353
428.91	0.351
429.37	0.349
429.83	0.351
430.29	0.350
430.75	0.350
431.21	0.352
431.67	0.343
432.13	0.345
432.59	0.341
433.05	0.342
433.51	0.342
433.97	0.338
434.43	0.342
434.89	0.335
435.35	0.341
435.81	0.336
436.27	0.335
436.73	0.333
437.19	0.332
437.65	0.334
438.11	0.335
438.57	0.331
439.03	0.329
439.48	0.331
439.94	0.330
440.40	0.326
440.86	0.327
441.32	0.326
441.78	0.326
442.24	0.321
442.70	0.320
443.16	0.322
443.62	0.323
444.08	0.324
444.54	0.321
444.99	0.322
445.45	0.320
445.91	0.316
446.37	0.318
446.83	0.314
447.29	0.313
447.75	0.313
448.21	0.314
448.67	0.314
449.12	0.309
449.58	0.311
450.04	0.311
450.50	0.304
450.96	0.307
451.42	0.305
451.88	0.307
452.34	0.307
452.79	0.308
453.25	0.306
453.71	0.306
454.17	0.303
454.63	0.301
455.09	0.303
455.55	0.302
456.00	0.299
456.46	0.301
456.92	0.294
457.38	0.296
457.84	0.299
458.30	0.292
458.75	0.293
459.21	0.293
459.67	0.295
460.13	0.291
460.59	0.292
461.04	0.296
461.50	0.293
461.96	0.293
462.42	0.290
462.88	0.289
463.33	0.288
463.79	0.291
464.25	0.289
464.71	0.288
465.17	0.288
465.62	0.286
466.08	0.288
466.54	0.287
467.00	0.287
467.46	0.285
467.91	0.283
468.37	0.282
468.83	0.286
469.29	0.285
469.74	0.281
470.20	0.281
470.66	0.281
471.12	0.281
471.57	0.280
472.03	0.277
472.49	0.278
472.95	0.277
473.40	0.274
473.86	0.277
474.32	0.277
474.78	0.274
475.23	0.270
475.69	0.275
476.15	0.272
476.60	0.271
477.06	0.271
477.52	0.270
477.98	0.269
478.43	0.267
478.89	0.268
479.35	0.267
479.80	0.268
480.26	0.270
480.72	0.268
481.18	0.264
481.63	0.266
482.09	0.262
482.55	0.264
483.00	0.263
483.46	0.266
483.92	0.261
484.37	0.263
484.83	0.261
485.29	0.264
485.74	0.261
486.20	0.263
486.66	0.263
487.11	0.260
487.57	0.257
488.03	0.259
488.48	0.257
488.94	0.260
489.40	0.258
489.85	0.258
490.31	0.255
490.77	0.258
491.22	0.256
491.68	0.253
492.13	0.252
492.59	0.253
493.05	0.253
493.50	0.251
493.96	0.252
494.42	0.249
494.87	0.251
495.33	0.251
495.78	0.251
496.24	0.251
496.70	0.248
497.15	0.249
497.61	0.247
498.06	0.249
498.52	0.245
498.98	0.248
499.43	0.249
499.89	0.246
500.34	0.245
500.80	0.245
501.25	0.246
501.71	0.243
502.17	0.243
502.62	0.244
503.08	0.242
503.53	0.241
503.99	0.242
504.44	0.242
504.90	0.240
505.36	0.240
505.81	0.238
506.27	0.240
506.72	0.239
507.18	0.239
507.63	0.238
508.09	0.239
508.54	0.236
509.00	0.235
509.45	0.236
509.91	0.237
510.36	0.237
510.82	0.237
511.27	0.238
511.73	0.236
512.19	0.232
512.64	0.235
513.10	0.233
513.55	0.230
514.01	0.232
514.46	0.229
514.92	0.231
515.37	0.229
515.83	0.230
516.28	0.228
516.73	0.228
517.19	0.228
517.64	0.228
518.10	0.230
518.55	0.226
519.01	0.226
519.46	0.224
519.92	0.227
520.37	0.228
520.83	0.228
521.28	0.227
521.74	0.224
522.19	0.222
522.65	0.223
523.10	0.223
523.55	0.223
524.01	0.223
524.46	0.225
524.92	0.224
525.37	0.223
525.83	0.221
526.28	0.220
526.73	0.221
527.19	0.221
527.64	0.220
528.10	0.219
528.55	0.219
529.01	0.218
529.46	0.220
529.91	0.218
530.37	0.219
530.82	0.216
531.28	0.216
531.73	0.217
532.18	0.217
532.64	0.215
533.09	0.214
533.54	0.215
534.00	0.213
534.45	0.214
534.91	0.216
535.36	0.213
535.81	0.212
536.27	0.214
536.72	0.215
537.17	0.213
537.63	0.213
538.08	0.212
538.54	0.212
538.99	0.212
539.44	0.210
539.90	0.210
540.35	0.211
540.80	0.211
541.26	0.208
541.71	0.207
542.16	0.209
542.62	0.209
543.07	0.206
543.52	0.207
543.98	0.207
544.43	0.205
544.88	0.208
545.34	0.206
545.79	0.203
546.24	0.207
546.69	0.207
547.15	0.207
547.60	0.203
548.05	0.206
548.51	0.204
548.96	0.202
549.41	0.202
549.86	0.202
550.32	0.203
550.77	0.201
551.22	0.204
551.68	0.203
552.13	0.202
552.58	0.201
553.03	0.200
553.49	0.200
553.94	0.202
554.39	0.199
554.84	0.198
555.30	0.201
555.75	0.198
556.20	0.197
556.65	0.199
557.11	0.198
557.56	0.198
558.01	0.198
558.46	0.198
558.92	0.200
559.37	0.198
559.82	0.195
560.27	0.195
560.72	0.196
561.18	0.197
561.63	0.196
562.08	0.196
562.53	0.196
562.99	0.196
563.44	0.198
563.89	0.193
564.34	0.194
564.79	0.195
565.25	0.192
565.70	0.195
566.15	0.194
566.60	0.191
567.05	0.192
567.50	0.194
567.96	0.192
568.41	0.195
568.86	0.191
569.31	0.194
569.76	0.192
570.21	0.190
570.67	0.193
571.12	0.190
571.57	0.188
572.02	0.190
572.47	0.187
572.92	0.189
573.37	0.189
573.83	0.188
574.28	0.186
574.73	0.187
575.18	0.188
575.63	0.187
576.08	0.188
576.53	0.185
576.98	0.188
577.44	0.187
577.89	0.186
578.34	0.186
578.79	0.185
579.24	0.184
579.69	0.185
580.14	0.187
580.59	0.185
581.04	0.186
581.49	0.185
581.95	0.187
582.40	0.184
582.85	0.184
583.30	0.184
583.75	0.185
584.20	0.185
584.65	0.183
585.10	0.183
585.55	0.184
586.00	0.185
586.45	0.182
586.90	0.185
587.35	0.184
587.80	0.183
588.25	0.182
588.71	0.181
589.16	0.182
589.61	0.181
590.06	0.183
590.51	0.182
590.96	0.181
591.41	0.181
591.86	0.181
592.31	0.182
592.76	0.179
593.21	0.179
593.66	0.183
594.11	0.182
594.56	0.180
595.01	0.182
595.46	0.181
595.91	0.180
596.36	0.180
596.81	0.181
597.26	0.181
597.71	0.181
598.16	0.181
598.61	0.181
599.06	0.181
599.51	0.181
599.96	0.180
600.41	0.180
600.86	0.181
601.31	0.181
601.76	0.181
602.21	0.180
602.65	0.179
603.10	0.179
603.55	0.181
604.00	0.180
604.45	0.179
604.90	0.179
605.35	0.180
605.80	0.179
606.25	0.180
606.70	0.179
607.15	0.178
607.60	0.179
608.05	0.178
608.50	0.180
608.95	0.177
609.39	0.176
609.84	0.178
610.29	0.179
610.74	0.179
611.19	0.178
611.64	0.177
612.09	0.176
612.54	0.176
612.99	0.176
613.44	0.176
613.88	0.174
614.33	0.176
614.78	0.173
615.23	0.175
615.68	0.173
616.13	0.175
616.58	0.177
617.03	0.175
617.47	0.175
617.92	0.175
618.37	0.174
618.82	0.174
619.27	0.174
619.72	0.173
620.17	0.173
620.61	0.176
621.06	0.172
621.51	0.175
621.96	0.173
622.41	0.173
622.86	0.172
623.30	0.174
623.75	0.172
624.20	0.174
624.65	0.173
625.10	0.172
625.54	0.169
625.99	0.171
626.44	0.173
626.89	0.171
627.34	0.170
627.78	0.171
628.23	0.170
628.68	0.171
629.13	0.172
629.58	0.167
630.02	0.170
630.47	0.171
630.92	0.170
631.37	0.171
631.81	0.170
632.26	0.170
632.71	0.171
633.16	0.171
633.61	0.170
634.05	0.170
634.50	0.170
634.95	0.172
635.40	0.172
635.84	0.170
636.29	0.169
636.74	0.171
637.18	0.169
637.63	0.168
638.08	0.169
638.53	0.170
638.97	0.169
639.42	0.170
639.87	0.169
640.32	0.168
640.76	0.170
641.21	0.169
641.66	0.168
642.10	0.169
642.55	0.172
643.00	0.170
643.44	0.171
643.89	0.168
644.34	0.168
644.79	0.172
645.23	0.169
645.68	0.171
646.13	0.169
646.57	0.170
647.02	0.170
647.47	0.172
647.91	0.171
648.36	0.171
648.81	0.173
649.25	0.170
649.70	0.171
650.15	0.170
650.59	0.169
651.04	0.171
651.48	0.170
651.93	0.170
652.38	0.170
652.82	0.170
653.27	0.169
653.72	0.172
654.16	0.171
654.61	0.173
655.06	0.173
655.50	0.167
655.95	0.168
656.39	0.171
656.84	0.173
657.29	0.172
657.73	0.172
658.18	0.172
658.62	0.171
659.07	0.172
659.52	0.169
659.96	0.171
660.41	0.172
660.85	0.169
661.30	0.169
661.74	0.172
662.19	0.169
662.64	0.171
663.08	0.170
663.53	0.171
663.97	0.170
664.42	0.169
664.86	0.168
665.31	0.169
665.75	0.167
666.20	0.169
666.65	0.172
667.09	0.168
667.54	0.166
667.98	0.167
668.43	0.165
668.87	0.167
669.32	0.167
669.76	0.164
670.21	0.164
670.65	0.166
671.10	0.163
671.54	0.164
671.99	0.163
672.43	0.161
672.88	0.159
673.32	0.161
673.77	0.163
674.21	0.159
674.66	0.160
675.10	0.158
675.55	0.156
675.99	0.156
676.44	0.157
676.88	0.156
677.33	0.155
677.77	0.154
678.22	0.152
678.66	0.151
679.11	0.151
679.55	0.153
679.99	0.151
680.44	0.152
680.88	0.151
681.33	0.149
681.77	0.147
682.22	0.147
682.66	0.146
683.11	0.144
683.55	0.144
683.99	0.143
684.44	0.145
684.88	0.142
685.33	0.143
685.77	0.142
686.21	0.140
686.66	0.140
687.10	0.138
687.55	0.140
687.99	0.140
688.44	0.139
688.88	0.137
689.32	0.136
689.77	0.137
690.21	0.137
690.65	0.133
691.10	0.137
691.54	0.137
691.99	0.134
692.43	0.132
692.87	0.133
693.32	0.133
693.76	0.132
694.20	0.132
694.65	0.131
695.09	0.131
695.53	0.132
695.98	0.131
696.42	0.130
696.86	0.129
697.31	0.130
697.75	0.132
698.19	0.130
698.64	0.129
699.08	0.130
699.52	0.127
699.97	0.127
700.41	0.129
700.85	0.127
701.30	0.127
701.74	0.128
702.18	0.128
702.63	0.127
703.07	0.126
703.51	0.129
703.96	0.128
704.40	0.126
704.84	0.126
705.28	0.127
705.73	0.126
706.17	0.125
706.61	0.126
707.06	0.124
707.50	0.125
707.94	0.124
708.38	0.122
708.83	0.127
709.27	0.123
709.71	0.125
710.15	0.125
710.60	0.124
711.04	0.122
711.48	0.124
711.92	0.121
712.37	0.126
712.81	0.124
713.25	0.123
713.69	0.124
714.13	0.125
714.58	0.125
715.02	0.126
715.46	0.121
715.90	0.124
716.35	0.124
716.79	0.121
717.23	0.121
717.67	0.124
718.11	0.125
718.56	0.122
719.00	0.122
719.44	0.122
719.88	0.123
720.32	0.121
720.76	0.124
721.21	0.122
721.65	0.120
722.09	0.123
722.53	0.120
722.97	0.125
723.41	0.122
723.86	0.123
724.30	0.122
724.74	0.122
725.18	0.122
725.62	0.122
726.06	0.120
726.50	0.126
726.95	0.122
727.39	0.122
727.83	0.122
728.27	0.120
728.71	0.119
729.15	0.122
729.59	0.124
730.03	0.120
730.48	0.121
730.92	0.124
731.36	0.120
731.80	0.121
732.24	0.120
732.68	0.121
733.12	0.124
733.56	0.124
734.00	0.124
734.44	0.122
734.89	0.123
735.33	0.121
735.77	0.122
736.21	0.123
736.65	0.122
737.09	0.121
737.53	0.123
737.97	0.125
738.41	0.122
738.85	0.123
739.29	0.123
739.73	0.123
740.17	0.125
740.61	0.123
741.05	0.125
741.49	0.122
741.93	0.120
742.37	0.123
742.81	0.122
743.26	0.120
743.70	0.121
744.14	0.119
744.58	0.122
745.02	0.120
745.46	0.122
745.90	0.120
746.34	0.124
746.78	0.122
747.22	0.121
747.66	0.121
748.10	0.120
748.54	0.121
748.98	0.118
749.42	0.122
749.86	0.123
750.29	0.119
750.73	0.116
751.17	0.119
751.61	0.120
752.05	0.121
752.49	0.120
752.93	0.117
753.37	0.121
753.81	0.120
754.25	0.118
754.69	0.122
755.13	0.119
755.57	0.120
756.01	0.119
756.45	0.116
756.89	0.116
757.33	0.122
757.77	0.115
758.21	0.115
758.64	0.119
759.08	0.114
759.52	0.115
759.96	0.118
760.40	0.116
760.84	0.118
761.28	0.116
761.72	0.116
762.16	0.120
762.60	0.118
763.03	0.115
763.47	0.116
763.91	0.117
764.35	0.114
764.79	0.114
765.23	0.116
765.67	0.116
766.11	0.114
766.54	0.120
766.98	0.119
767.42	0.114
767.86	0.116
768.30	0.116
768.74	0.114
769.17	0.112
769.61	0.113
770.05	0.117
770.49	0.116
770.93	0.116
771.37	0.115
771.80	0.114
772.24	0.114
772.68	0.114
773.12	0.118
773.56	0.117
774.00	0.114
774.43	0.110
774.87	0.113
775.31	0.113
775.75	0.111
776.19	0.113
776.62	0.112
777.06	0.111
777.50	0.111
777.94	0.115
778.37	0.114
778.81	0.113
779.25	0.114
779.69	0.111
780.13	0.115
780.56	0.113
781.00	0.116
781.44	0.114
781.88	0.112
782.31	0.116
782.75	0.111
783.19	0.113
783.63	0.110
784.06	0.111
784.50	0.112
784.94	0.113
785.37	0.107
785.81	0.113
786.25	0.110
786.69	0.108
787.12	0.111
787.56	0.109
788.00	0.112
788.43	0.109
788.87	0.109
789.31	0.110
789.75	0.113
790.18	0.110
790.62	0.114
791.06	0.109
791.49	0.111
791.93	0.110
792.37	0.108
792.80	0.107
793.24	0.107
793.68	0.110
794.11	0.109
794.55	0.106
794.99	0.107
795.42	0.105
795.86	0.104
796.30	0.107
796.73	0.106
797.17	0.109
797.61	0.107
798.04	0.106
798.48	0.107
798.91	0.106
799.35	0.108
799.79	0.106
800.22	0.107
800.66	0.107
801.10	0.106
801.53	0.106
801.97	0.105
802.40	0.107
802.84	0.106
803.28	0.108
803.71	0.106
804.15	0.108
804.58	0.106
805.02	0.105
805.46	0.110
805.89	0.110
806.33	0.105
806.76	0.107
807.20	0.107
807.63	0.107
808.07	0.106
808.51	0.106
808.94	0.106
809.38	0.105
809.81	0.109
810.25	0.105
810.68	0.103
811.12	0.104
811.55	0.104
811.99	0.105
812.42	0.104
812.86	0.107
813.29	0.107
813.73	0.099
814.17	0.106
814.60	0.106
815.04	0.105
815.47	0.103
815.91	0.111
816.34	0.106
816.78	0.102
817.21	0.100
