SpectraSuite Data File
++++++++++++++++++++++++++++++++++++
Date: Mon Jul 10 13:44:47 CEST 2017
User: IPCE
Dark Spectrum Present: Yes
Reference Spectrum Present: Yes
Number of Sampled Component Spectra: 1
Spectrometers: HR+C0708
Integration Time (usec): 1000 (HR+C0708)
Spectra Averaged: 10 (HR+C0708)
Boxcar Smoothing: 0 (HR+C0708)
Correct for Electrical Dark: No (HR+C0708)
Strobe/Lamp Enabled: No (HR+C0708)
Correct for Detector Non-linearity: No (HR+C0708)
Correct for Stray Light: No (HR+C0708)
Number of Pixels in Processed Spectrum: 2048
>>>>>Begin Processed Spectral Data<<<<<
188.76	0.544
189.23	0.656
189.70	-0.000
190.17	0.148
190.64	-0.000
191.12	-0.000
191.59	-0.000
192.06	-0.000
192.53	-0.157
193.01	-0.000
193.48	-0.000
193.95	-0.000
194.42	0.946
194.90	-0.000
195.37	0.980
195.84	0.757
196.31	-0.000
196.78	0.503
197.26	0.400
197.73	0.726
198.20	-0.000
198.67	-0.000
199.14	0.732
199.62	-0.000
200.09	0.670
200.56	0.429
201.03	0.879
201.50	0.729
201.97	0.460
202.45	0.804
202.92	0.483
203.39	0.577
203.86	0.675
204.33	0.353
204.80	0.493
205.28	1.064
205.75	0.501
206.22	0.577
206.69	0.602
207.16	0.455
207.63	0.876
208.11	0.363
208.58	0.491
209.05	0.794
209.52	0.331
209.99	0.788
210.46	0.506
210.93	0.441
211.41	0.641
211.88	0.504
212.35	0.417
212.82	0.500
213.29	0.511
213.76	0.659
214.23	0.800
214.70	0.478
215.18	0.910
215.65	0.946
216.12	0.411
216.59	0.482
217.06	0.433
217.53	0.495
218.00	0.705
218.47	0.507
218.94	0.536
219.41	0.608
219.89	0.406
220.36	0.519
220.83	0.581
221.30	0.522
221.77	0.590
222.24	0.473
222.71	0.718
223.18	0.829
223.65	0.675
224.12	0.637
224.59	0.864
225.06	0.618
225.54	0.791
226.01	1.039
226.48	0.865
226.95	-0.000
227.42	0.966
227.89	0.839
228.36	1.650
228.83	1.132
229.30	1.124
229.77	1.540
230.24	1.322
230.71	1.450
231.18	1.732
231.65	1.372
232.12	1.566
232.59	1.782
233.06	1.546
233.53	1.675
234.00	1.823
234.47	1.721
234.94	2.130
235.41	1.696
235.88	2.105
236.35	1.870
236.82	1.863
237.29	2.257
237.76	2.236
238.23	2.153
238.70	2.598
239.17	2.128
239.64	2.101
240.11	2.538
240.58	2.244
241.05	2.518
241.52	2.429
241.99	2.190
242.46	2.338
242.93	2.605
243.40	2.470
243.87	2.722
244.34	2.648
244.81	2.345
245.28	2.744
245.75	2.347
246.22	2.361
246.69	2.455
247.16	2.647
247.63	2.560
248.10	2.697
248.57	2.299
249.04	2.536
249.51	2.730
249.98	2.316
250.45	3.007
250.92	2.818
251.39	2.901
251.85	2.486
252.32	2.360
252.79	2.883
253.26	2.415
253.73	2.403
254.20	2.461
254.67	2.528
255.14	2.533
255.61	2.665
256.08	2.506
256.55	2.550
257.02	2.755
257.49	2.519
257.95	2.647
258.42	2.618
258.89	2.472
259.36	2.724
259.83	2.676
260.30	2.487
260.77	2.711
261.24	2.663
261.71	2.631
262.17	2.764
262.64	2.605
263.11	2.700
263.58	2.915
264.05	2.621
264.52	2.693
264.99	2.829
265.46	2.575
265.92	2.869
266.39	2.812
266.86	2.932
267.33	3.284
267.80	2.575
268.27	2.745
268.74	2.927
269.20	2.634
269.67	2.645
270.14	2.752
270.61	2.688
271.08	3.023
271.55	2.957
272.01	2.772
272.48	3.074
272.95	2.654
273.42	2.876
273.89	2.677
274.36	2.611
274.82	2.685
275.29	2.977
275.76	2.764
276.23	2.761
276.70	2.464
277.16	2.561
277.63	2.733
278.10	2.784
278.57	2.830
279.04	2.958
279.50	2.369
279.97	2.638
280.44	2.658
280.91	2.651
281.38	2.769
281.84	2.653
282.31	2.520
282.78	2.851
283.25	2.419
283.72	2.595
284.18	2.892
284.65	2.653
285.12	2.633
285.59	2.728
286.05	2.560
286.52	2.750
286.99	2.543
287.46	2.520
287.92	2.727
288.39	2.568
288.86	2.578
289.33	2.696
289.79	2.656
290.26	2.550
290.73	2.541
291.20	2.560
291.66	2.633
292.13	2.650
292.60	2.472
293.07	2.649
293.53	2.600
294.00	2.514
294.47	2.651
294.93	2.463
295.40	2.638
295.87	2.581
296.34	2.488
296.80	2.593
297.27	2.536
297.74	2.522
298.20	2.622
298.67	2.486
299.14	2.546
299.60	2.615
300.07	2.444
300.54	2.541
301.01	2.675
301.47	2.451
301.94	2.471
302.41	2.629
302.87	2.375
303.34	2.461
303.81	2.262
304.27	2.364
304.74	2.452
305.21	2.421
305.67	2.467
306.14	2.549
306.61	2.340
307.07	2.523
307.54	2.361
308.01	2.358
308.47	2.418
308.94	2.465
309.40	2.418
309.87	2.387
310.34	2.255
310.80	2.375
311.27	2.380
311.74	2.316
312.20	2.308
312.67	2.536
313.13	2.363
313.60	2.386
314.07	2.327
314.53	2.378
315.00	2.481
315.47	2.364
315.93	2.411
316.40	2.388
316.86	2.339
317.33	2.372
317.80	2.558
318.26	2.362
318.73	2.431
319.19	2.332
319.66	2.283
320.13	2.478
320.59	2.248
321.06	2.248
321.52	2.320
321.99	2.212
322.45	2.287
322.92	2.305
323.39	2.146
323.85	2.231
324.32	2.281
324.78	2.170
325.25	2.284
325.71	2.150
326.18	2.088
326.64	2.240
327.11	2.100
327.58	2.240
328.04	2.047
328.51	1.970
328.97	2.048
329.44	2.004
329.90	1.920
330.37	2.018
330.83	1.886
331.30	1.881
331.76	1.892
332.23	1.850
332.69	1.804
333.16	1.758
333.62	1.709
334.09	1.672
334.56	1.616
335.02	1.554
335.49	1.532
335.95	1.466
336.42	1.414
336.88	1.382
337.35	1.316
337.81	1.268
338.28	1.234
338.74	1.179
339.20	1.151
339.67	1.111
340.13	1.042
340.60	1.004
341.06	0.958
341.53	0.911
341.99	0.872
342.46	0.824
342.92	0.787
343.39	0.751
343.85	0.719
344.32	0.693
344.78	0.662
345.25	0.634
345.71	0.605
346.17	0.577
346.64	0.541
347.10	0.511
347.57	0.481
348.03	0.456
348.50	0.431
348.96	0.406
349.43	0.388
349.89	0.370
350.35	0.355
350.82	0.335
351.28	0.322
351.75	0.303
352.21	0.293
352.67	0.277
353.14	0.267
353.60	0.260
354.07	0.246
354.53	0.242
355.00	0.233
355.46	0.222
355.92	0.219
356.39	0.214
356.85	0.205
357.31	0.200
357.78	0.194
358.24	0.194
358.71	0.187
359.17	0.181
359.63	0.180
360.10	0.177
360.56	0.174
361.03	0.172
361.49	0.167
361.95	0.168
362.42	0.166
362.88	0.164
363.34	0.166
363.81	0.164
364.27	0.166
364.73	0.159
365.20	0.157
365.66	0.155
366.12	0.154
366.59	0.155
367.05	0.151
367.51	0.154
367.98	0.151
368.44	0.148
368.90	0.147
369.37	0.148
369.83	0.146
370.29	0.147
370.76	0.144
371.22	0.147
371.68	0.146
372.15	0.144
372.61	0.143
373.07	0.142
373.54	0.138
374.00	0.140
374.46	0.141
374.92	0.140
375.39	0.138
375.85	0.137
376.31	0.139
376.78	0.139
377.24	0.135
377.70	0.136
378.16	0.135
378.63	0.136
379.09	0.136
379.55	0.136
380.01	0.134
380.48	0.133
380.94	0.131
381.40	0.134
381.87	0.132
382.33	0.131
382.79	0.133
383.25	0.129
383.72	0.130
384.18	0.128
384.64	0.130
385.10	0.128
385.56	0.128
386.03	0.128
386.49	0.128
386.95	0.125
387.41	0.129
387.88	0.126
388.34	0.127
388.80	0.126
389.26	0.125
389.72	0.126
390.19	0.126
390.65	0.125
391.11	0.123
391.57	0.121
392.04	0.122
392.50	0.124
392.96	0.123
393.42	0.121
393.88	0.121
394.34	0.122
394.81	0.123
395.27	0.119
395.73	0.119
396.19	0.119
396.65	0.122
397.12	0.119
397.58	0.117
398.04	0.120
398.50	0.117
398.96	0.120
399.42	0.118
399.89	0.118
400.35	0.116
400.81	0.115
401.27	0.114
401.73	0.115
402.19	0.113
402.65	0.113
403.12	0.111
403.58	0.110
404.04	0.107
404.50	0.111
404.96	0.109
405.42	0.108
405.88	0.109
406.34	0.108
406.81	0.107
407.27	0.106
407.73	0.107
408.19	0.106
408.65	0.105
409.11	0.106
409.57	0.105
410.03	0.103
410.49	0.102
410.96	0.105
411.42	0.103
411.88	0.101
412.34	0.100
412.80	0.102
413.26	0.101
413.72	0.101
414.18	0.098
414.64	0.100
415.10	0.098
415.56	0.098
416.02	0.099
416.48	0.102
416.95	0.097
417.41	0.096
417.87	0.098
418.33	0.096
418.79	0.099
419.25	0.094
419.71	0.096
420.17	0.095
420.63	0.093
421.09	0.096
421.55	0.095
422.01	0.098
422.47	0.094
422.93	0.095
423.39	0.097
423.85	0.096
424.31	0.096
424.77	0.094
425.23	0.096
425.69	0.093
426.15	0.096
426.61	0.092
427.07	0.091
427.53	0.093
427.99	0.092
428.45	0.090
428.91	0.092
429.37	0.091
429.83	0.092
430.29	0.094
430.75	0.095
431.21	0.094
431.67	0.091
432.13	0.090
432.59	0.088
433.05	0.090
433.51	0.090
433.97	0.089
434.43	0.091
434.89	0.088
435.35	0.089
435.81	0.085
436.27	0.087
436.73	0.086
437.19	0.087
437.65	0.090
438.11	0.086
438.57	0.086
439.03	0.087
439.48	0.088
439.94	0.089
440.40	0.086
440.86	0.086
441.32	0.087
441.78	0.087
442.24	0.083
442.70	0.082
443.16	0.087
443.62	0.086
444.08	0.084
444.54	0.085
444.99	0.087
445.45	0.087
445.91	0.083
446.37	0.084
446.83	0.084
447.29	0.083
447.75	0.082
448.21	0.083
448.67	0.084
449.12	0.082
449.58	0.080
450.04	0.084
450.50	0.080
450.96	0.080
451.42	0.081
451.88	0.082
452.34	0.083
452.79	0.083
453.25	0.083
453.71	0.081
454.17	0.080
454.63	0.080
455.09	0.083
455.55	0.080
456.00	0.080
456.46	0.078
456.92	0.079
457.38	0.079
457.84	0.080
458.30	0.080
458.75	0.081
459.21	0.079
459.67	0.084
460.13	0.077
460.59	0.081
461.04	0.082
461.50	0.084
461.96	0.081
462.42	0.081
462.88	0.082
463.33	0.081
463.79	0.077
464.25	0.078
464.71	0.079
465.17	0.080
465.62	0.077
466.08	0.080
466.54	0.079
467.00	0.080
467.46	0.081
467.91	0.078
468.37	0.079
468.83	0.080
469.29	0.081
469.74	0.082
470.20	0.080
470.66	0.079
471.12	0.082
471.57	0.081
472.03	0.081
472.49	0.081
472.95	0.080
473.40	0.079
473.86	0.079
474.32	0.082
474.78	0.079
475.23	0.079
475.69	0.081
476.15	0.081
476.60	0.079
477.06	0.080
477.52	0.081
477.98	0.082
478.43	0.081
478.89	0.081
479.35	0.079
479.80	0.080
480.26	0.080
480.72	0.082
481.18	0.080
481.63	0.080
482.09	0.079
482.55	0.082
483.00	0.080
483.46	0.081
483.92	0.079
484.37	0.082
484.83	0.078
485.29	0.082
485.74	0.079
486.20	0.082
486.66	0.080
487.11	0.080
487.57	0.080
488.03	0.080
488.48	0.081
488.94	0.078
489.40	0.081
489.85	0.080
490.31	0.080
490.77	0.081
491.22	0.080
491.68	0.081
492.13	0.079
492.59	0.078
493.05	0.080
493.50	0.080
493.96	0.078
494.42	0.080
494.87	0.082
495.33	0.081
495.78	0.081
496.24	0.079
496.70	0.080
497.15	0.080
497.61	0.081
498.06	0.080
498.52	0.077
498.98	0.080
499.43	0.080
499.89	0.079
500.34	0.079
500.80	0.079
501.25	0.080
501.71	0.078
502.17	0.079
502.62	0.078
503.08	0.079
503.53	0.079
503.99	0.078
504.44	0.080
504.90	0.077
505.36	0.078
505.81	0.078
506.27	0.078
506.72	0.079
507.18	0.078
507.63	0.076
508.09	0.078
508.54	0.078
509.00	0.075
509.45	0.077
509.91	0.075
510.36	0.076
510.82	0.079
511.27	0.080
511.73	0.079
512.19	0.077
512.64	0.077
513.10	0.075
513.55	0.075
514.01	0.076
514.46	0.076
514.92	0.076
515.37	0.073
515.83	0.078
516.28	0.073
516.73	0.075
517.19	0.075
517.64	0.077
518.10	0.076
518.55	0.075
519.01	0.075
519.46	0.074
519.92	0.074
520.37	0.077
520.83	0.078
521.28	0.075
521.74	0.075
522.19	0.074
522.65	0.074
523.10	0.076
523.55	0.077
524.01	0.074
524.46	0.076
524.92	0.076
525.37	0.076
525.83	0.075
526.28	0.074
526.73	0.077
527.19	0.077
527.64	0.076
528.10	0.074
528.55	0.076
529.01	0.075
529.46	0.075
529.91	0.076
530.37	0.077
530.82	0.075
531.28	0.076
531.73	0.078
532.18	0.077
532.64	0.076
533.09	0.078
533.54	0.079
534.00	0.076
534.45	0.079
534.91	0.078
535.36	0.078
535.81	0.077
536.27	0.078
536.72	0.079
537.17	0.077
537.63	0.081
538.08	0.080
538.54	0.081
538.99	0.080
539.44	0.080
539.90	0.081
540.35	0.081
540.80	0.083
541.26	0.083
541.71	0.082
542.16	0.086
542.62	0.084
543.07	0.083
543.52	0.085
543.98	0.084
544.43	0.083
544.88	0.087
545.34	0.086
545.79	0.085
546.24	0.086
546.69	0.088
547.15	0.088
547.60	0.089
548.05	0.090
548.51	0.090
548.96	0.090
549.41	0.090
549.86	0.091
550.32	0.091
550.77	0.092
551.22	0.095
551.68	0.095
552.13	0.094
552.58	0.094
553.03	0.096
553.49	0.096
553.94	0.097
554.39	0.097
554.84	0.097
555.30	0.098
555.75	0.099
556.20	0.099
556.65	0.100
557.11	0.101
557.56	0.104
558.01	0.105
558.46	0.106
558.92	0.108
559.37	0.106
559.82	0.105
560.27	0.107
560.72	0.108
561.18	0.108
561.63	0.110
562.08	0.111
562.53	0.112
562.99	0.115
563.44	0.112
563.89	0.111
564.34	0.115
564.79	0.115
565.25	0.117
565.70	0.119
566.15	0.119
566.60	0.116
567.05	0.121
567.50	0.122
567.96	0.123
568.41	0.124
568.86	0.126
569.31	0.126
569.76	0.127
570.21	0.125
570.67	0.127
571.12	0.130
571.57	0.129
572.02	0.132
572.47	0.132
572.92	0.132
573.37	0.134
573.83	0.135
574.28	0.135
574.73	0.138
575.18	0.138
575.63	0.141
576.08	0.142
576.53	0.142
576.98	0.146
577.44	0.146
577.89	0.147
578.34	0.150
578.79	0.149
579.24	0.151
579.69	0.153
580.14	0.155
580.59	0.157
581.04	0.158
581.49	0.160
581.95	0.160
582.40	0.163
582.85	0.164
583.30	0.165
583.75	0.169
584.20	0.172
584.65	0.172
585.10	0.173
585.55	0.179
586.00	0.181
586.45	0.181
586.90	0.185
587.35	0.187
587.80	0.187
588.25	0.190
588.71	0.190
589.16	0.196
589.61	0.198
590.06	0.199
590.51	0.204
590.96	0.204
591.41	0.207
591.86	0.210
592.31	0.213
592.76	0.213
593.21	0.216
593.66	0.219
594.11	0.223
594.56	0.227
595.01	0.230
595.46	0.231
595.91	0.235
596.36	0.236
596.81	0.241
597.26	0.243
597.71	0.247
598.16	0.249
598.61	0.252
599.06	0.255
599.51	0.257
599.96	0.261
600.41	0.262
600.86	0.269
601.31	0.271
601.76	0.272
602.21	0.274
602.65	0.278
603.10	0.280
603.55	0.286
604.00	0.287
604.45	0.289
604.90	0.290
605.35	0.296
605.80	0.296
606.25	0.299
606.70	0.302
607.15	0.301
607.60	0.303
608.05	0.309
608.50	0.309
608.95	0.313
609.39	0.313
609.84	0.317
610.29	0.316
610.74	0.321
611.19	0.320
611.64	0.323
612.09	0.323
612.54	0.326
612.99	0.327
613.44	0.331
613.88	0.329
614.33	0.329
614.78	0.330
615.23	0.332
615.68	0.335
616.13	0.335
616.58	0.337
617.03	0.336
617.47	0.338
617.92	0.335
618.37	0.338
618.82	0.339
619.27	0.339
619.72	0.341
620.17	0.341
620.61	0.342
621.06	0.342
621.51	0.343
621.96	0.342
622.41	0.345
622.86	0.344
623.30	0.347
623.75	0.347
624.20	0.349
624.65	0.350
625.10	0.346
625.54	0.349
625.99	0.351
626.44	0.356
626.89	0.354
627.34	0.355
627.78	0.357
628.23	0.358
628.68	0.359
629.13	0.361
629.58	0.362
630.02	0.366
630.47	0.368
630.92	0.371
631.37	0.372
631.81	0.375
632.26	0.375
632.71	0.376
633.16	0.382
633.61	0.383
634.05	0.386
634.50	0.390
634.95	0.392
635.40	0.395
635.84	0.399
636.29	0.402
636.74	0.404
637.18	0.407
637.63	0.411
638.08	0.417
638.53	0.419
638.97	0.421
639.42	0.429
639.87	0.428
640.32	0.433
640.76	0.439
641.21	0.441
641.66	0.445
642.10	0.451
642.55	0.452
643.00	0.459
643.44	0.466
643.89	0.470
644.34	0.470
644.79	0.481
645.23	0.483
645.68	0.491
646.13	0.496
646.57	0.499
647.02	0.506
647.47	0.510
647.91	0.514
648.36	0.520
648.81	0.523
649.25	0.530
649.70	0.533
650.15	0.538
650.59	0.543
651.04	0.546
651.48	0.554
651.93	0.558
652.38	0.562
652.82	0.566
653.27	0.568
653.72	0.577
654.16	0.583
654.61	0.583
655.06	0.592
655.50	0.590
655.95	0.594
656.39	0.602
656.84	0.603
657.29	0.605
657.73	0.612
658.18	0.615
658.62	0.621
659.07	0.621
659.52	0.621
659.96	0.628
660.41	0.629
660.85	0.633
661.30	0.636
661.74	0.640
662.19	0.640
662.64	0.645
663.08	0.649
663.53	0.649
663.97	0.649
664.42	0.647
664.86	0.648
665.31	0.649
665.75	0.648
666.20	0.649
666.65	0.652
667.09	0.649
667.54	0.648
667.98	0.641
668.43	0.642
668.87	0.641
669.32	0.635
669.76	0.632
670.21	0.626
670.65	0.622
671.10	0.619
671.54	0.613
671.99	0.604
672.43	0.600
672.88	0.591
673.32	0.578
673.77	0.573
674.21	0.565
674.66	0.556
675.10	0.546
675.55	0.533
675.99	0.525
676.44	0.513
676.88	0.502
677.33	0.489
677.77	0.475
678.22	0.466
678.66	0.454
679.11	0.439
679.55	0.430
679.99	0.419
680.44	0.405
680.88	0.396
681.33	0.380
681.77	0.369
682.22	0.357
682.66	0.347
683.11	0.333
683.55	0.323
683.99	0.311
684.44	0.304
684.88	0.291
685.33	0.281
685.77	0.271
686.21	0.260
686.66	0.251
687.10	0.240
687.55	0.232
687.99	0.222
688.44	0.215
688.88	0.207
689.32	0.198
689.77	0.193
690.21	0.185
690.65	0.175
691.10	0.170
691.54	0.163
691.99	0.156
692.43	0.152
692.87	0.144
693.32	0.142
693.76	0.136
694.20	0.131
694.65	0.126
695.09	0.120
695.53	0.118
695.98	0.112
696.42	0.107
696.86	0.103
697.31	0.102
697.75	0.099
698.19	0.094
698.64	0.092
699.08	0.089
699.52	0.086
699.97	0.081
700.41	0.082
700.85	0.076
701.30	0.074
701.74	0.076
702.18	0.070
702.63	0.070
703.07	0.068
703.51	0.068
703.96	0.063
704.40	0.063
704.84	0.063
705.28	0.060
705.73	0.061
706.17	0.056
706.61	0.056
707.06	0.055
707.50	0.054
707.94	0.051
708.38	0.050
708.83	0.050
709.27	0.051
709.71	0.050
710.15	0.050
710.60	0.047
711.04	0.048
711.48	0.047
711.92	0.042
712.37	0.046
712.81	0.045
713.25	0.042
713.69	0.045
714.13	0.043
714.58	0.045
715.02	0.042
715.46	0.040
715.90	0.043
716.35	0.042
716.79	0.041
717.23	0.039
717.67	0.042
718.11	0.037
718.56	0.040
719.00	0.037
719.44	0.039
719.88	0.041
720.32	0.038
720.76	0.036
721.21	0.038
721.65	0.037
722.09	0.039
722.53	0.038
722.97	0.038
723.41	0.037
723.86	0.039
724.30	0.038
724.74	0.037
725.18	0.036
725.62	0.037
726.06	0.037
726.50	0.039
726.95	0.041
727.39	0.040
727.83	0.038
728.27	0.039
728.71	0.038
729.15	0.041
729.59	0.040
730.03	0.040
730.48	0.039
730.92	0.038
731.36	0.040
731.80	0.038
732.24	0.038
732.68	0.039
733.12	0.040
733.56	0.039
734.00	0.041
734.44	0.040
734.89	0.040
735.33	0.040
735.77	0.038
736.21	0.040
736.65	0.038
737.09	0.038
737.53	0.040
737.97	0.040
738.41	0.040
738.85	0.041
739.29	0.040
739.73	0.042
740.17	0.042
740.61	0.042
741.05	0.040
741.49	0.040
741.93	0.041
742.37	0.042
742.81	0.039
743.26	0.038
743.70	0.038
744.14	0.037
744.58	0.041
745.02	0.038
745.46	0.040
745.90	0.041
746.34	0.041
746.78	0.040
747.22	0.041
747.66	0.039
748.10	0.042
748.54	0.041
748.98	0.040
749.42	0.040
749.86	0.043
750.29	0.037
750.73	0.036
751.17	0.039
751.61	0.037
752.05	0.040
752.49	0.042
752.93	0.037
753.37	0.039
753.81	0.039
754.25	0.038
754.69	0.041
755.13	0.039
755.57	0.040
756.01	0.039
756.45	0.037
756.89	0.036
757.33	0.042
757.77	0.038
758.21	0.039
758.64	0.038
759.08	0.036
759.52	0.038
759.96	0.038
760.40	0.040
760.84	0.038
761.28	0.038
761.72	0.036
762.16	0.041
762.60	0.039
763.03	0.036
763.47	0.037
763.91	0.039
764.35	0.036
764.79	0.037
765.23	0.041
765.67	0.036
766.11	0.036
766.54	0.042
766.98	0.038
767.42	0.037
767.86	0.040
768.30	0.038
768.74	0.037
769.17	0.037
769.61	0.037
770.05	0.040
770.49	0.040
770.93	0.037
771.37	0.038
771.80	0.037
772.24	0.034
772.68	0.039
773.12	0.038
773.56	0.039
774.00	0.037
774.43	0.037
774.87	0.037
775.31	0.036
775.75	0.037
776.19	0.038
776.62	0.037
777.06	0.036
777.50	0.038
777.94	0.035
778.37	0.037
778.81	0.037
779.25	0.039
779.69	0.040
780.13	0.040
780.56	0.040
781.00	0.039
781.44	0.036
781.88	0.035
782.31	0.037
782.75	0.036
783.19	0.035
783.63	0.033
784.06	0.036
784.50	0.039
784.94	0.040
785.37	0.037
785.81	0.040
786.25	0.036
786.69	0.037
787.12	0.036
787.56	0.033
788.00	0.038
788.43	0.035
788.87	0.033
789.31	0.038
789.75	0.037
790.18	0.037
790.62	0.038
791.06	0.035
791.49	0.037
791.93	0.039
792.37	0.038
792.80	0.033
793.24	0.030
793.68	0.037
794.11	0.037
794.55	0.035
794.99	0.035
795.42	0.036
795.86	0.033
796.30	0.036
796.73	0.034
797.17	0.037
797.61	0.035
798.04	0.035
798.48	0.037
798.91	0.035
799.35	0.037
799.79	0.033
800.22	0.037
800.66	0.034
801.10	0.033
801.53	0.039
801.97	0.035
802.40	0.034
802.84	0.038
803.28	0.034
803.71	0.038
804.15	0.037
804.58	0.038
805.02	0.037
805.46	0.035
805.89	0.038
806.33	0.036
806.76	0.035
807.20	0.037
807.63	0.038
808.07	0.034
808.51	0.032
808.94	0.039
809.38	0.032
809.81	0.038
810.25	0.036
810.68	0.038
811.12	0.039
811.55	0.037
811.99	0.037
812.42	0.035
812.86	0.036
813.29	0.034
813.73	0.037
814.17	0.037
814.60	0.032
815.04	0.038
815.47	0.035
815.91	0.039
816.34	0.033
816.78	0.035
817.21	0.034
817.65	0.034
