SpectraSuite Data File
++++++++++++++++++++++++++++++++++++
Date: Mon Jul 10 13:34:17 CEST 2017
User: IPCE
Dark Spectrum Present: Yes
Reference Spectrum Present: Yes
Number of Sampled Component Spectra: 1
Spectrometers: HR+C0708
Integration Time (usec): 1000 (HR+C0708)
Spectra Averaged: 10 (HR+C0708)
Boxcar Smoothing: 0 (HR+C0708)
Correct for Electrical Dark: No (HR+C0708)
Strobe/Lamp Enabled: No (HR+C0708)
Correct for Detector Non-linearity: No (HR+C0708)
Correct for Stray Light: No (HR+C0708)
Number of Pixels in Processed Spectrum: 2048
>>>>>Begin Processed Spectral Data<<<<<
188.76	0.125
189.23	0.424
189.70	-0.000
190.17	0.494
190.64	-0.036
191.12	-0.131
191.59	-0.000
192.06	0.241
192.53	-0.057
193.01	-0.000
193.48	0.388
193.95	0.896
194.42	0.563
194.90	0.226
195.37	0.229
195.84	0.058
196.31	1.000
196.78	0.390
197.26	0.252
197.73	0.434
198.20	-0.000
198.67	0.413
199.14	0.306
199.62	-0.000
200.09	0.880
200.56	0.429
201.03	0.682
201.50	0.532
201.97	0.421
202.45	0.456
202.92	0.611
203.39	0.706
203.86	0.507
204.33	0.329
204.80	0.426
205.28	0.916
205.75	0.413
206.22	0.621
206.69	0.478
207.16	0.345
207.63	0.280
208.11	0.291
208.58	0.415
209.05	0.321
209.52	0.344
209.99	0.659
210.46	0.389
210.93	0.310
211.41	0.276
211.88	0.518
212.35	0.356
212.82	0.291
213.29	0.320
213.76	0.730
214.23	0.566
214.70	0.519
215.18	0.665
215.65	0.640
216.12	0.384
216.59	0.426
217.06	0.397
217.53	0.437
218.00	0.452
218.47	0.473
218.94	0.645
219.41	0.376
219.89	0.447
220.36	0.359
220.83	0.321
221.30	0.536
221.77	0.535
222.24	0.502
222.71	0.611
223.18	0.523
223.65	0.575
224.12	0.681
224.59	0.529
225.06	0.678
225.54	0.791
226.01	0.856
226.48	0.965
226.95	0.993
227.42	0.908
227.89	0.961
228.36	1.164
228.83	1.054
229.30	1.035
229.77	1.043
230.24	1.253
230.71	1.425
231.18	1.213
231.65	1.342
232.12	1.391
232.59	1.492
233.06	1.384
233.53	1.522
234.00	1.705
234.47	1.658
234.94	1.728
235.41	1.584
235.88	1.807
236.35	1.691
236.82	1.807
237.29	2.075
237.76	2.123
238.23	2.115
238.70	2.108
239.17	1.945
239.64	2.109
240.11	2.095
240.58	2.102
241.05	2.328
241.52	2.124
241.99	2.113
242.46	2.376
242.93	2.498
243.40	2.360
243.87	2.320
244.34	2.465
244.81	2.175
245.28	2.470
245.75	2.308
246.22	2.456
246.69	2.364
247.16	2.339
247.63	2.507
248.10	2.526
248.57	2.366
249.04	2.366
249.51	2.442
249.98	2.289
250.45	2.479
250.92	2.636
251.39	2.506
251.85	2.357
252.32	2.410
252.79	2.810
253.26	2.331
253.73	2.499
254.20	2.306
254.67	2.474
255.14	2.553
255.61	2.469
256.08	2.515
256.55	2.481
257.02	2.516
257.49	2.567
257.95	2.650
258.42	2.504
258.89	2.543
259.36	2.597
259.83	2.637
260.30	2.448
260.77	2.620
261.24	2.676
261.71	2.640
262.17	2.616
262.64	2.751
263.11	2.724
263.58	2.712
264.05	2.557
264.52	2.457
264.99	2.655
265.46	2.462
265.92	2.761
266.39	2.648
266.86	2.895
267.33	2.712
267.80	2.667
268.27	2.717
268.74	2.613
269.20	2.690
269.67	2.634
270.14	2.560
270.61	2.499
271.08	2.491
271.55	2.621
272.01	2.656
272.48	2.692
272.95	2.604
273.42	2.667
273.89	2.426
274.36	2.611
274.82	2.711
275.29	2.564
275.76	2.571
276.23	2.544
276.70	2.482
277.16	2.535
277.63	2.512
278.10	2.561
278.57	2.874
279.04	2.507
279.50	2.426
279.97	2.450
280.44	2.416
280.91	2.646
281.38	2.576
281.84	2.536
282.31	2.455
282.78	2.479
283.25	2.412
283.72	2.499
284.18	2.455
284.65	2.573
285.12	2.410
285.59	2.542
286.05	2.419
286.52	2.623
286.99	2.550
287.46	2.489
287.92	2.608
288.39	2.541
288.86	2.601
289.33	2.486
289.79	2.523
290.26	2.461
290.73	2.394
291.20	2.493
291.66	2.448
292.13	2.483
292.60	2.439
293.07	2.622
293.53	2.518
294.00	2.441
294.47	2.514
294.93	2.471
295.40	2.488
295.87	2.370
296.34	2.503
296.80	2.712
297.27	2.504
297.74	2.427
298.20	2.637
298.67	2.498
299.14	2.572
299.60	2.460
300.07	2.364
300.54	2.557
301.01	2.465
301.47	2.446
301.94	2.426
302.41	2.475
302.87	2.410
303.34	2.496
303.81	2.263
304.27	2.264
304.74	2.320
305.21	2.306
305.67	2.429
306.14	2.347
306.61	2.296
307.07	2.416
307.54	2.260
308.01	2.361
308.47	2.355
308.94	2.349
309.40	2.286
309.87	2.300
310.34	2.246
310.80	2.402
311.27	2.269
311.74	2.321
312.20	2.280
312.67	2.366
313.13	2.312
313.60	2.341
314.07	2.309
314.53	2.189
315.00	2.242
315.47	2.227
315.93	2.249
316.40	2.160
316.86	2.150
317.33	2.192
317.80	2.099
318.26	2.105
318.73	2.107
319.19	2.034
319.66	1.935
320.13	1.976
320.59	1.851
321.06	1.823
321.52	1.761
321.99	1.717
322.45	1.662
322.92	1.618
323.39	1.547
323.85	1.490
324.32	1.431
324.78	1.353
325.25	1.307
325.71	1.230
326.18	1.163
326.64	1.107
327.11	1.040
327.58	0.974
328.04	0.918
328.51	0.855
328.97	0.804
329.44	0.749
329.90	0.694
330.37	0.648
330.83	0.597
331.30	0.561
331.76	0.522
332.23	0.486
332.69	0.448
333.16	0.413
333.62	0.382
334.09	0.358
334.56	0.326
335.02	0.303
335.49	0.281
335.95	0.257
336.42	0.242
336.88	0.222
337.35	0.208
337.81	0.196
338.28	0.180
338.74	0.174
339.20	0.165
339.67	0.152
340.13	0.143
340.60	0.136
341.06	0.132
341.53	0.128
341.99	0.118
342.46	0.114
342.92	0.110
343.39	0.104
343.85	0.104
344.32	0.100
344.78	0.101
345.25	0.095
345.71	0.096
346.17	0.091
346.64	0.090
347.10	0.084
347.57	0.084
348.03	0.086
348.50	0.082
348.96	0.079
349.43	0.080
349.89	0.077
350.35	0.080
350.82	0.076
351.28	0.077
351.75	0.073
352.21	0.076
352.67	0.071
353.14	0.072
353.60	0.071
354.07	0.071
354.53	0.071
355.00	0.067
355.46	0.070
355.92	0.071
356.39	0.072
356.85	0.069
357.31	0.066
357.78	0.066
358.24	0.066
358.71	0.063
359.17	0.060
359.63	0.062
360.10	0.061
360.56	0.061
361.03	0.061
361.49	0.061
361.95	0.061
362.42	0.064
362.88	0.061
363.34	0.063
363.81	0.060
364.27	0.063
364.73	0.060
365.20	0.058
365.66	0.057
366.12	0.059
366.59	0.057
367.05	0.057
367.51	0.058
367.98	0.060
368.44	0.057
368.90	0.059
369.37	0.056
369.83	0.056
370.29	0.057
370.76	0.057
371.22	0.059
371.68	0.054
372.15	0.057
372.61	0.056
373.07	0.055
373.54	0.053
374.00	0.055
374.46	0.056
374.92	0.055
375.39	0.056
375.85	0.054
376.31	0.057
376.78	0.055
377.24	0.055
377.70	0.054
378.16	0.054
378.63	0.056
379.09	0.055
379.55	0.056
380.01	0.054
380.48	0.051
380.94	0.053
381.40	0.053
381.87	0.054
382.33	0.054
382.79	0.053
383.25	0.051
383.72	0.053
384.18	0.053
384.64	0.055
385.10	0.054
385.56	0.052
386.03	0.051
386.49	0.053
386.95	0.050
387.41	0.053
387.88	0.051
388.34	0.051
388.80	0.052
389.26	0.049
389.72	0.054
390.19	0.054
390.65	0.052
391.11	0.052
391.57	0.052
392.04	0.049
392.50	0.053
392.96	0.052
393.42	0.051
393.88	0.051
394.34	0.052
394.81	0.052
395.27	0.054
395.73	0.048
396.19	0.050
396.65	0.055
397.12	0.049
397.58	0.047
398.04	0.049
398.50	0.049
398.96	0.053
399.42	0.049
399.89	0.048
400.35	0.048
400.81	0.050
401.27	0.051
401.73	0.049
402.19	0.046
402.65	0.047
403.12	0.047
403.58	0.046
404.04	0.045
404.50	0.047
404.96	0.045
405.42	0.044
405.88	0.044
406.34	0.044
406.81	0.046
407.27	0.043
407.73	0.046
408.19	0.041
408.65	0.042
409.11	0.044
409.57	0.040
410.03	0.040
410.49	0.041
410.96	0.043
411.42	0.042
411.88	0.040
412.34	0.038
412.80	0.042
413.26	0.042
413.72	0.042
414.18	0.040
414.64	0.037
415.10	0.040
415.56	0.041
416.02	0.041
416.48	0.044
416.95	0.037
417.41	0.039
417.87	0.040
418.33	0.039
418.79	0.040
419.25	0.038
419.71	0.040
420.17	0.041
420.63	0.037
421.09	0.040
421.55	0.039
422.01	0.039
422.47	0.041
422.93	0.040
423.39	0.041
423.85	0.038
424.31	0.040
424.77	0.039
425.23	0.041
425.69	0.039
426.15	0.039
426.61	0.038
427.07	0.042
427.53	0.039
427.99	0.039
428.45	0.038
428.91	0.037
429.37	0.038
429.83	0.039
430.29	0.040
430.75	0.040
431.21	0.040
431.67	0.038
432.13	0.037
432.59	0.035
433.05	0.036
433.51	0.038
433.97	0.038
434.43	0.039
434.89	0.039
435.35	0.037
435.81	0.036
436.27	0.037
436.73	0.035
437.19	0.037
437.65	0.036
438.11	0.037
438.57	0.036
439.03	0.032
439.48	0.037
439.94	0.037
440.40	0.036
440.86	0.037
441.32	0.033
441.78	0.036
442.24	0.035
442.70	0.037
443.16	0.039
443.62	0.037
444.08	0.035
444.54	0.040
444.99	0.037
445.45	0.037
445.91	0.036
446.37	0.037
446.83	0.036
447.29	0.035
447.75	0.036
448.21	0.036
448.67	0.040
449.12	0.036
449.58	0.035
450.04	0.038
450.50	0.036
450.96	0.035
451.42	0.034
451.88	0.038
452.34	0.034
452.79	0.036
453.25	0.038
453.71	0.037
454.17	0.035
454.63	0.037
455.09	0.035
455.55	0.034
456.00	0.035
456.46	0.037
456.92	0.036
457.38	0.034
457.84	0.035
458.30	0.038
458.75	0.037
459.21	0.035
459.67	0.039
460.13	0.035
460.59	0.038
461.04	0.036
461.50	0.039
461.96	0.038
462.42	0.037
462.88	0.037
463.33	0.036
463.79	0.037
464.25	0.037
464.71	0.036
465.17	0.037
465.62	0.035
466.08	0.038
466.54	0.039
467.00	0.039
467.46	0.039
467.91	0.038
468.37	0.036
468.83	0.037
469.29	0.040
469.74	0.039
470.20	0.038
470.66	0.037
471.12	0.040
471.57	0.039
472.03	0.037
472.49	0.041
472.95	0.037
473.40	0.038
473.86	0.039
474.32	0.040
474.78	0.040
475.23	0.038
475.69	0.040
476.15	0.040
476.60	0.040
477.06	0.039
477.52	0.039
477.98	0.041
478.43	0.042
478.89	0.039
479.35	0.041
479.80	0.040
480.26	0.041
480.72	0.042
481.18	0.042
481.63	0.042
482.09	0.041
482.55	0.043
483.00	0.042
483.46	0.042
483.92	0.041
484.37	0.042
484.83	0.040
485.29	0.042
485.74	0.041
486.20	0.043
486.66	0.044
487.11	0.044
487.57	0.041
488.03	0.042
488.48	0.041
488.94	0.042
489.40	0.043
489.85	0.043
490.31	0.043
490.77	0.042
491.22	0.042
491.68	0.045
492.13	0.043
492.59	0.044
493.05	0.042
493.50	0.044
493.96	0.044
494.42	0.044
494.87	0.043
495.33	0.044
495.78	0.046
496.24	0.044
496.70	0.044
497.15	0.043
497.61	0.045
498.06	0.046
498.52	0.043
498.98	0.043
499.43	0.045
499.89	0.044
500.34	0.045
500.80	0.044
501.25	0.046
501.71	0.043
502.17	0.045
502.62	0.044
503.08	0.045
503.53	0.045
503.99	0.043
504.44	0.045
504.90	0.044
505.36	0.044
505.81	0.043
506.27	0.044
506.72	0.044
507.18	0.045
507.63	0.044
508.09	0.045
508.54	0.043
509.00	0.044
509.45	0.046
509.91	0.044
510.36	0.041
510.82	0.044
511.27	0.045
511.73	0.044
512.19	0.044
512.64	0.044
513.10	0.044
513.55	0.044
514.01	0.043
514.46	0.043
514.92	0.044
515.37	0.041
515.83	0.045
516.28	0.044
516.73	0.044
517.19	0.041
517.64	0.044
518.10	0.044
518.55	0.042
519.01	0.042
519.46	0.042
519.92	0.044
520.37	0.042
520.83	0.044
521.28	0.044
521.74	0.044
522.19	0.042
522.65	0.043
523.10	0.043
523.55	0.046
524.01	0.043
524.46	0.045
524.92	0.045
525.37	0.046
525.83	0.044
526.28	0.044
526.73	0.044
527.19	0.045
527.64	0.044
528.10	0.043
528.55	0.047
529.01	0.047
529.46	0.046
529.91	0.045
530.37	0.047
530.82	0.045
531.28	0.047
531.73	0.049
532.18	0.049
532.64	0.047
533.09	0.049
533.54	0.048
534.00	0.046
534.45	0.051
534.91	0.050
535.36	0.049
535.81	0.051
536.27	0.051
536.72	0.050
537.17	0.051
537.63	0.055
538.08	0.053
538.54	0.052
538.99	0.054
539.44	0.053
539.90	0.053
540.35	0.054
540.80	0.056
541.26	0.055
541.71	0.053
542.16	0.056
542.62	0.058
543.07	0.057
543.52	0.058
543.98	0.057
544.43	0.059
544.88	0.061
545.34	0.061
545.79	0.059
546.24	0.061
546.69	0.062
547.15	0.063
547.60	0.065
548.05	0.064
548.51	0.065
548.96	0.065
549.41	0.067
549.86	0.067
550.32	0.069
550.77	0.068
551.22	0.071
551.68	0.071
552.13	0.072
552.58	0.073
553.03	0.074
553.49	0.073
553.94	0.076
554.39	0.076
554.84	0.076
555.30	0.076
555.75	0.077
556.20	0.077
556.65	0.080
557.11	0.081
557.56	0.082
558.01	0.082
558.46	0.084
558.92	0.086
559.37	0.087
559.82	0.085
560.27	0.086
560.72	0.086
561.18	0.089
561.63	0.090
562.08	0.091
562.53	0.092
562.99	0.093
563.44	0.094
563.89	0.094
564.34	0.096
564.79	0.097
565.25	0.098
565.70	0.101
566.15	0.099
566.60	0.099
567.05	0.102
567.50	0.104
567.96	0.106
568.41	0.107
568.86	0.108
569.31	0.108
569.76	0.112
570.21	0.110
570.67	0.113
571.12	0.112
571.57	0.114
572.02	0.115
572.47	0.114
572.92	0.119
573.37	0.118
573.83	0.119
574.28	0.120
574.73	0.123
575.18	0.125
575.63	0.125
576.08	0.128
576.53	0.127
576.98	0.130
577.44	0.132
577.89	0.133
578.34	0.138
578.79	0.135
579.24	0.138
579.69	0.140
580.14	0.145
580.59	0.145
581.04	0.146
581.49	0.149
581.95	0.149
582.40	0.153
582.85	0.156
583.30	0.157
583.75	0.159
584.20	0.161
584.65	0.162
585.10	0.166
585.55	0.170
586.00	0.172
586.45	0.172
586.90	0.177
587.35	0.180
587.80	0.182
588.25	0.183
588.71	0.186
589.16	0.191
589.61	0.194
590.06	0.195
590.51	0.200
590.96	0.199
591.41	0.204
591.86	0.208
592.31	0.212
592.76	0.212
593.21	0.214
593.66	0.220
594.11	0.221
594.56	0.226
595.01	0.229
595.46	0.231
595.91	0.237
596.36	0.238
596.81	0.241
597.26	0.245
597.71	0.249
598.16	0.252
598.61	0.257
599.06	0.258
599.51	0.265
599.96	0.264
600.41	0.271
600.86	0.273
601.31	0.277
601.76	0.278
602.21	0.282
602.65	0.285
603.10	0.287
603.55	0.292
604.00	0.296
604.45	0.300
604.90	0.302
605.35	0.304
605.80	0.306
606.25	0.312
606.70	0.312
607.15	0.316
607.60	0.316
608.05	0.320
608.50	0.324
608.95	0.324
609.39	0.327
609.84	0.332
610.29	0.334
610.74	0.337
611.19	0.337
611.64	0.338
612.09	0.339
612.54	0.342
612.99	0.341
613.44	0.343
613.88	0.346
614.33	0.347
614.78	0.347
615.23	0.350
615.68	0.349
616.13	0.352
616.58	0.353
617.03	0.352
617.47	0.354
617.92	0.351
618.37	0.354
618.82	0.356
619.27	0.357
619.72	0.356
620.17	0.358
620.61	0.360
621.06	0.358
621.51	0.360
621.96	0.361
622.41	0.363
622.86	0.362
623.30	0.363
623.75	0.365
624.20	0.366
624.65	0.366
625.10	0.368
625.54	0.364
625.99	0.369
626.44	0.373
626.89	0.372
627.34	0.373
627.78	0.378
628.23	0.377
628.68	0.377
629.13	0.380
629.58	0.380
630.02	0.384
630.47	0.387
630.92	0.388
631.37	0.391
631.81	0.390
632.26	0.396
632.71	0.398
633.16	0.402
633.61	0.403
634.05	0.407
634.50	0.413
634.95	0.413
635.40	0.417
635.84	0.419
636.29	0.426
636.74	0.429
637.18	0.434
637.63	0.434
638.08	0.439
638.53	0.446
638.97	0.449
639.42	0.458
639.87	0.457
640.32	0.463
640.76	0.467
641.21	0.473
641.66	0.475
642.10	0.483
642.55	0.488
643.00	0.494
643.44	0.501
643.89	0.507
644.34	0.509
644.79	0.514
645.23	0.520
645.68	0.526
646.13	0.533
646.57	0.538
647.02	0.545
647.47	0.553
647.91	0.556
648.36	0.559
648.81	0.569
649.25	0.573
649.70	0.579
650.15	0.584
650.59	0.590
651.04	0.592
651.48	0.603
651.93	0.605
652.38	0.610
652.82	0.612
653.27	0.623
653.72	0.625
654.16	0.634
654.61	0.636
655.06	0.643
655.50	0.645
655.95	0.651
656.39	0.655
656.84	0.658
657.29	0.667
657.73	0.670
658.18	0.674
658.62	0.677
659.07	0.679
659.52	0.685
659.96	0.690
660.41	0.693
660.85	0.694
661.30	0.699
661.74	0.706
662.19	0.707
662.64	0.708
663.08	0.710
663.53	0.715
663.97	0.716
664.42	0.717
664.86	0.717
665.31	0.719
665.75	0.713
666.20	0.717
666.65	0.716
667.09	0.717
667.54	0.713
667.98	0.712
668.43	0.711
668.87	0.703
669.32	0.700
669.76	0.697
670.21	0.689
670.65	0.688
671.10	0.681
671.54	0.675
671.99	0.668
672.43	0.656
672.88	0.648
673.32	0.642
673.77	0.633
674.21	0.621
674.66	0.611
675.10	0.597
675.55	0.588
675.99	0.577
676.44	0.562
676.88	0.550
677.33	0.538
677.77	0.523
678.22	0.511
678.66	0.498
679.11	0.481
679.55	0.471
679.99	0.456
680.44	0.442
680.88	0.429
681.33	0.411
681.77	0.398
682.22	0.386
682.66	0.373
683.11	0.359
683.55	0.344
683.99	0.332
684.44	0.324
684.88	0.308
685.33	0.296
685.77	0.287
686.21	0.275
686.66	0.264
687.10	0.251
687.55	0.242
687.99	0.233
688.44	0.224
688.88	0.214
689.32	0.205
689.77	0.198
690.21	0.190
690.65	0.178
691.10	0.171
691.54	0.164
691.99	0.158
692.43	0.151
692.87	0.146
693.32	0.137
693.76	0.130
694.20	0.128
694.65	0.123
695.09	0.117
695.53	0.113
695.98	0.106
696.42	0.099
696.86	0.096
697.31	0.094
697.75	0.091
698.19	0.087
698.64	0.083
699.08	0.080
699.52	0.076
699.97	0.072
700.41	0.072
700.85	0.067
701.30	0.066
701.74	0.065
702.18	0.058
702.63	0.057
703.07	0.056
703.51	0.058
703.96	0.054
704.40	0.052
704.84	0.052
705.28	0.048
705.73	0.048
706.17	0.044
706.61	0.043
707.06	0.043
707.50	0.042
707.94	0.040
708.38	0.039
708.83	0.040
709.27	0.036
709.71	0.034
710.15	0.039
710.60	0.036
711.04	0.035
711.48	0.033
711.92	0.030
712.37	0.031
712.81	0.030
713.25	0.030
713.69	0.030
714.13	0.029
714.58	0.029
715.02	0.029
715.46	0.027
715.90	0.028
716.35	0.026
716.79	0.027
717.23	0.028
717.67	0.028
718.11	0.028
718.56	0.026
719.00	0.025
719.44	0.026
719.88	0.026
720.32	0.025
720.76	0.026
721.21	0.024
721.65	0.023
722.09	0.025
722.53	0.026
722.97	0.027
723.41	0.025
723.86	0.025
724.30	0.023
724.74	0.024
725.18	0.027
725.62	0.024
726.06	0.024
726.50	0.025
726.95	0.025
727.39	0.025
727.83	0.025
728.27	0.023
728.71	0.024
729.15	0.026
729.59	0.027
730.03	0.024
730.48	0.025
730.92	0.024
731.36	0.025
731.80	0.024
732.24	0.022
732.68	0.026
733.12	0.026
733.56	0.025
734.00	0.025
734.44	0.027
734.89	0.026
735.33	0.026
735.77	0.027
736.21	0.027
736.65	0.025
737.09	0.026
737.53	0.027
737.97	0.027
738.41	0.025
738.85	0.027
739.29	0.026
739.73	0.028
740.17	0.027
740.61	0.026
741.05	0.028
741.49	0.025
741.93	0.026
742.37	0.028
742.81	0.027
743.26	0.027
743.70	0.025
744.14	0.026
744.58	0.028
745.02	0.026
745.46	0.028
745.90	0.029
746.34	0.029
746.78	0.026
747.22	0.027
747.66	0.028
748.10	0.028
748.54	0.027
748.98	0.027
749.42	0.028
749.86	0.028
750.29	0.024
750.73	0.026
751.17	0.028
751.61	0.028
752.05	0.028
752.49	0.027
752.93	0.024
753.37	0.028
753.81	0.027
754.25	0.026
754.69	0.030
755.13	0.026
755.57	0.027
756.01	0.026
756.45	0.025
756.89	0.026
757.33	0.031
757.77	0.025
758.21	0.023
758.64	0.027
759.08	0.025
759.52	0.025
759.96	0.025
760.40	0.026
760.84	0.028
761.28	0.023
761.72	0.026
762.16	0.026
762.60	0.029
763.03	0.024
763.47	0.027
763.91	0.025
764.35	0.023
764.79	0.025
765.23	0.029
765.67	0.027
766.11	0.024
766.54	0.029
766.98	0.026
767.42	0.026
767.86	0.028
768.30	0.026
768.74	0.025
769.17	0.025
769.61	0.026
770.05	0.031
770.49	0.030
770.93	0.025
771.37	0.023
771.80	0.025
772.24	0.026
772.68	0.027
773.12	0.025
773.56	0.025
774.00	0.024
774.43	0.022
774.87	0.024
775.31	0.027
775.75	0.024
776.19	0.025
776.62	0.028
777.06	0.027
777.50	0.026
777.94	0.025
778.37	0.027
778.81	0.027
779.25	0.026
779.69	0.024
780.13	0.028
780.56	0.027
781.00	0.026
781.44	0.026
781.88	0.027
782.31	0.028
782.75	0.024
783.19	0.027
783.63	0.023
784.06	0.026
784.50	0.028
784.94	0.030
785.37	0.025
785.81	0.029
786.25	0.024
786.69	0.026
787.12	0.024
787.56	0.023
788.00	0.027
788.43	0.027
788.87	0.027
789.31	0.025
789.75	0.029
790.18	0.023
790.62	0.026
791.06	0.026
791.49	0.025
791.93	0.025
792.37	0.026
792.80	0.025
793.24	0.020
793.68	0.026
794.11	0.028
794.55	0.026
794.99	0.022
795.42	0.023
795.86	0.023
796.30	0.025
796.73	0.024
797.17	0.026
797.61	0.025
798.04	0.025
798.48	0.022
798.91	0.023
799.35	0.026
799.79	0.022
800.22	0.024
800.66	0.026
801.10	0.025
801.53	0.022
801.97	0.024
802.40	0.025
802.84	0.027
803.28	0.023
803.71	0.026
804.15	0.022
804.58	0.025
805.02	0.024
805.46	0.027
805.89	0.027
806.33	0.027
806.76	0.025
807.20	0.023
807.63	0.027
808.07	0.025
808.51	0.021
808.94	0.030
809.38	0.028
809.81	0.026
810.25	0.027
810.68	0.024
811.12	0.025
811.55	0.027
811.99	0.028
812.42	0.025
812.86	0.024
813.29	0.026
813.73	0.027
814.17	0.028
814.60	0.025
815.04	0.025
815.47	0.026
815.91	0.028
816.34	0.024
816.78	0.024
817.21	0.023
817.65	0.024
818.08	0.026
