SpectraSuite Data File
++++++++++++++++++++++++++++++++++++
Date: Mon Jul 10 14:17:17 CEST 2017
User: IPCE
Dark Spectrum Present: Yes
Reference Spectrum Present: Yes
Number of Sampled Component Spectra: 1
Spectrometers: HR+C0708
Integration Time (usec): 1000 (HR+C0708)
Spectra Averaged: 10 (HR+C0708)
Boxcar Smoothing: 0 (HR+C0708)
Correct for Electrical Dark: No (HR+C0708)
Strobe/Lamp Enabled: No (HR+C0708)
Correct for Detector Non-linearity: No (HR+C0708)
Correct for Stray Light: No (HR+C0708)
Number of Pixels in Processed Spectrum: 2048
>>>>>Begin Processed Spectral Data<<<<<
188.76	0.354
189.23	0.710
189.70	-0.000
190.17	-0.000
190.64	-0.000
191.12	-0.000
191.59	0.542
192.06	-0.000
192.53	0.445
193.01	0.990
193.48	-0.000
193.95	-0.000
194.42	-0.000
194.90	0.408
195.37	-0.000
195.84	1.000
196.31	-0.000
196.78	-0.000
197.26	-0.000
197.73	-0.000
198.20	0.597
198.67	0.453
199.14	-0.000
199.62	-0.000
200.09	0.652
200.56	1.863
201.03	-0.000
201.50	1.248
201.97	0.549
202.45	0.758
202.92	1.787
203.39	1.099
203.86	0.699
204.33	0.806
204.80	0.951
205.28	-0.000
205.75	1.316
206.22	0.491
206.69	0.534
207.16	0.464
207.63	0.470
208.11	0.366
208.58	0.487
209.05	0.507
209.52	0.770
209.99	1.190
210.46	0.675
210.93	0.709
211.41	0.654
211.88	0.593
212.35	0.804
212.82	1.034
213.29	0.787
213.76	0.903
214.23	0.600
214.70	0.739
215.18	1.220
215.65	0.929
216.12	0.746
216.59	0.797
217.06	0.557
217.53	0.622
218.00	0.955
218.47	1.138
218.94	0.840
219.41	0.739
219.89	0.888
220.36	0.814
220.83	0.635
221.30	-0.000
221.77	0.596
222.24	0.622
222.71	1.332
223.18	0.789
223.65	1.020
224.12	1.131
224.59	1.075
225.06	0.933
225.54	1.181
226.01	1.501
226.48	2.060
226.95	1.353
227.42	1.120
227.89	1.153
228.36	-0.000
228.83	1.358
229.30	1.430
229.77	1.391
230.24	1.585
230.71	1.687
231.18	1.838
231.65	1.906
232.12	1.610
232.59	1.533
233.06	1.722
233.53	1.872
234.00	1.831
234.47	2.180
234.94	2.216
235.41	1.878
235.88	1.918
236.35	1.801
236.82	2.241
237.29	2.564
237.76	2.115
238.23	2.368
238.70	-0.000
239.17	2.343
239.64	2.631
240.11	2.444
240.58	2.381
241.05	2.850
241.52	2.619
241.99	2.584
242.46	2.570
242.93	3.138
243.40	2.943
243.87	2.758
244.34	2.615
244.81	2.384
245.28	2.807
245.75	2.387
246.22	2.559
246.69	2.668
247.16	3.047
247.63	2.857
248.10	2.597
248.57	2.534
249.04	2.733
249.51	2.700
249.98	2.516
250.45	2.780
250.92	3.315
251.39	2.720
251.85	2.715
252.32	2.646
252.79	3.156
253.26	2.533
253.73	2.711
254.20	2.661
254.67	2.514
255.14	2.945
255.61	2.839
256.08	2.851
256.55	2.757
257.02	2.895
257.49	3.343
257.95	3.130
258.42	2.669
258.89	2.785
259.36	2.831
259.83	2.693
260.30	2.957
260.77	2.898
261.24	2.769
261.71	2.976
262.17	3.035
262.64	2.807
263.11	2.857
263.58	3.125
264.05	2.849
264.52	2.781
264.99	2.789
265.46	2.633
265.92	2.976
266.39	2.709
266.86	3.299
267.33	2.803
267.80	2.637
268.27	2.751
268.74	2.622
269.20	2.762
269.67	2.725
270.14	2.838
270.61	2.839
271.08	2.772
271.55	2.873
272.01	3.047
272.48	3.047
272.95	2.604
273.42	2.762
273.89	2.737
274.36	2.803
274.82	2.625
275.29	2.826
275.76	2.596
276.23	2.754
276.70	2.447
277.16	2.615
277.63	2.638
278.10	2.636
278.57	2.956
279.04	2.712
279.50	2.508
279.97	2.437
280.44	2.521
280.91	2.782
281.38	2.625
281.84	2.460
282.31	2.621
282.78	2.538
283.25	2.479
283.72	2.524
284.18	2.602
284.65	2.794
285.12	2.567
285.59	2.634
286.05	2.588
286.52	2.524
286.99	2.532
287.46	2.501
287.92	2.591
288.39	2.492
288.86	2.441
289.33	2.525
289.79	2.560
290.26	2.408
290.73	2.376
291.20	2.450
291.66	2.411
292.13	2.325
292.60	2.469
293.07	2.506
293.53	2.405
294.00	2.310
294.47	2.340
294.93	2.391
295.40	2.386
295.87	2.306
296.34	2.336
296.80	2.386
297.27	2.327
297.74	2.364
298.20	2.388
298.67	2.349
299.14	2.333
299.60	2.422
300.07	2.230
300.54	2.288
301.01	2.277
301.47	2.323
301.94	2.260
302.41	2.226
302.87	2.222
303.34	2.367
303.81	2.115
304.27	2.207
304.74	2.222
305.21	2.189
305.67	2.243
306.14	2.178
306.61	2.147
307.07	2.141
307.54	2.089
308.01	2.108
308.47	2.166
308.94	2.147
309.40	2.167
309.87	2.090
310.34	2.086
310.80	2.117
311.27	2.107
311.74	2.074
312.20	2.110
312.67	2.129
313.13	2.108
313.60	2.075
314.07	2.053
314.53	2.122
315.00	2.102
315.47	2.040
315.93	2.078
316.40	2.058
316.86	2.083
317.33	2.050
317.80	2.044
318.26	2.102
318.73	2.046
319.19	2.018
319.66	2.001
320.13	2.073
320.59	2.000
321.06	2.002
321.52	2.002
321.99	2.003
322.45	2.003
322.92	2.007
323.39	1.979
323.85	1.979
324.32	1.965
324.78	1.987
325.25	2.025
325.71	1.947
326.18	1.944
326.64	1.970
327.11	1.932
327.58	1.961
328.04	1.864
328.51	1.897
328.97	1.884
329.44	1.853
329.90	1.882
330.37	1.892
330.83	1.817
331.30	1.857
331.76	1.823
332.23	1.849
332.69	1.807
333.16	1.760
333.62	1.783
334.09	1.771
334.56	1.720
335.02	1.694
335.49	1.684
335.95	1.645
336.42	1.618
336.88	1.607
337.35	1.558
337.81	1.540
338.28	1.515
338.74	1.489
339.20	1.486
339.67	1.436
340.13	1.419
340.60	1.378
341.06	1.336
341.53	1.314
341.99	1.275
342.46	1.244
342.92	1.209
343.39	1.186
343.85	1.157
344.32	1.126
344.78	1.108
345.25	1.076
345.71	1.041
346.17	1.012
346.64	0.994
347.10	0.954
347.57	0.916
348.03	0.896
348.50	0.872
348.96	0.843
349.43	0.825
349.89	0.796
350.35	0.780
350.82	0.755
351.28	0.742
351.75	0.724
352.21	0.707
352.67	0.683
353.14	0.669
353.60	0.652
354.07	0.639
354.53	0.622
355.00	0.605
355.46	0.598
355.92	0.590
356.39	0.573
356.85	0.563
357.31	0.554
357.78	0.537
358.24	0.540
358.71	0.534
359.17	0.518
359.63	0.513
360.10	0.506
360.56	0.504
361.03	0.497
361.49	0.494
361.95	0.490
362.42	0.485
362.88	0.479
363.34	0.480
363.81	0.476
364.27	0.474
364.73	0.468
365.20	0.465
365.66	0.466
366.12	0.462
366.59	0.458
367.05	0.455
367.51	0.460
367.98	0.449
368.44	0.451
368.90	0.451
369.37	0.450
369.83	0.443
370.29	0.443
370.76	0.439
371.22	0.437
371.68	0.435
372.15	0.437
372.61	0.435
373.07	0.431
373.54	0.429
374.00	0.429
374.46	0.431
374.92	0.424
375.39	0.426
375.85	0.423
376.31	0.417
376.78	0.419
377.24	0.420
377.70	0.417
378.16	0.414
378.63	0.414
379.09	0.415
379.55	0.413
380.01	0.411
380.48	0.410
380.94	0.406
381.40	0.405
381.87	0.406
382.33	0.408
382.79	0.405
383.25	0.399
383.72	0.406
384.18	0.399
384.64	0.400
385.10	0.398
385.56	0.393
386.03	0.393
386.49	0.390
386.95	0.391
387.41	0.389
387.88	0.388
388.34	0.387
388.80	0.389
389.26	0.383
389.72	0.386
390.19	0.386
390.65	0.383
391.11	0.383
391.57	0.379
392.04	0.377
392.50	0.382
392.96	0.379
393.42	0.376
393.88	0.376
394.34	0.372
394.81	0.373
395.27	0.374
395.73	0.366
396.19	0.366
396.65	0.372
397.12	0.366
397.58	0.366
398.04	0.365
398.50	0.364
398.96	0.366
399.42	0.360
399.89	0.362
400.35	0.363
400.81	0.361
401.27	0.357
401.73	0.360
402.19	0.355
402.65	0.355
403.12	0.348
403.58	0.349
404.04	0.350
404.50	0.351
404.96	0.350
405.42	0.349
405.88	0.347
406.34	0.347
406.81	0.347
407.27	0.343
407.73	0.345
408.19	0.341
408.65	0.339
409.11	0.340
409.57	0.339
410.03	0.339
410.49	0.338
410.96	0.335
411.42	0.335
411.88	0.332
412.34	0.332
412.80	0.334
413.26	0.331
413.72	0.333
414.18	0.327
414.64	0.328
415.10	0.328
415.56	0.329
416.02	0.327
416.48	0.328
416.95	0.322
417.41	0.322
417.87	0.322
418.33	0.322
418.79	0.324
419.25	0.319
419.71	0.322
420.17	0.319
420.63	0.316
421.09	0.317
421.55	0.316
422.01	0.316
422.47	0.316
422.93	0.317
423.39	0.313
423.85	0.311
424.31	0.313
424.77	0.311
425.23	0.312
425.69	0.312
426.15	0.309
426.61	0.308
427.07	0.305
427.53	0.308
427.99	0.306
428.45	0.304
428.91	0.305
429.37	0.301
429.83	0.303
430.29	0.303
430.75	0.307
431.21	0.304
431.67	0.300
432.13	0.299
432.59	0.296
433.05	0.297
433.51	0.298
433.97	0.294
434.43	0.297
434.89	0.293
435.35	0.294
435.81	0.291
436.27	0.289
436.73	0.289
437.19	0.290
437.65	0.291
438.11	0.289
438.57	0.289
439.03	0.286
439.48	0.288
439.94	0.288
440.40	0.284
440.86	0.285
441.32	0.283
441.78	0.281
442.24	0.281
442.70	0.281
443.16	0.282
443.62	0.279
444.08	0.279
444.54	0.275
444.99	0.279
445.45	0.278
445.91	0.275
446.37	0.277
446.83	0.274
447.29	0.272
447.75	0.273
448.21	0.272
448.67	0.270
449.12	0.267
449.58	0.270
450.04	0.270
450.50	0.269
450.96	0.266
451.42	0.267
451.88	0.272
452.34	0.266
452.79	0.269
453.25	0.268
453.71	0.266
454.17	0.264
454.63	0.262
455.09	0.261
455.55	0.261
456.00	0.259
456.46	0.258
456.92	0.256
457.38	0.258
457.84	0.259
458.30	0.257
458.75	0.258
459.21	0.255
459.67	0.255
460.13	0.253
460.59	0.254
461.04	0.256
461.50	0.255
461.96	0.253
462.42	0.253
462.88	0.255
463.33	0.252
463.79	0.252
464.25	0.252
464.71	0.251
465.17	0.249
465.62	0.249
466.08	0.254
466.54	0.251
467.00	0.249
467.46	0.250
467.91	0.247
468.37	0.246
468.83	0.247
469.29	0.247
469.74	0.247
470.20	0.244
470.66	0.246
471.12	0.245
471.57	0.245
472.03	0.243
472.49	0.243
472.95	0.241
473.40	0.238
473.86	0.244
474.32	0.243
474.78	0.240
475.23	0.240
475.69	0.240
476.15	0.239
476.60	0.238
477.06	0.238
477.52	0.237
477.98	0.237
478.43	0.237
478.89	0.235
479.35	0.234
479.80	0.235
480.26	0.234
480.72	0.235
481.18	0.231
481.63	0.233
482.09	0.231
482.55	0.234
483.00	0.233
483.46	0.229
483.92	0.230
484.37	0.231
484.83	0.228
485.29	0.232
485.74	0.231
486.20	0.228
486.66	0.229
487.11	0.231
487.57	0.228
488.03	0.227
488.48	0.229
488.94	0.228
489.40	0.225
489.85	0.227
490.31	0.227
490.77	0.225
491.22	0.224
491.68	0.226
492.13	0.222
492.59	0.225
493.05	0.223
493.50	0.221
493.96	0.221
494.42	0.221
494.87	0.220
495.33	0.221
495.78	0.220
496.24	0.220
496.70	0.221
497.15	0.218
497.61	0.220
498.06	0.218
498.52	0.217
498.98	0.218
499.43	0.217
499.89	0.216
500.34	0.215
500.80	0.217
501.25	0.216
501.71	0.214
502.17	0.214
502.62	0.214
503.08	0.212
503.53	0.214
503.99	0.212
504.44	0.213
504.90	0.212
505.36	0.213
505.81	0.210
506.27	0.214
506.72	0.212
507.18	0.211
507.63	0.210
508.09	0.209
508.54	0.207
509.00	0.208
509.45	0.208
509.91	0.208
510.36	0.208
510.82	0.209
511.27	0.207
511.73	0.207
512.19	0.206
512.64	0.206
513.10	0.206
513.55	0.204
514.01	0.208
514.46	0.204
514.92	0.202
515.37	0.204
515.83	0.204
516.28	0.203
516.73	0.201
517.19	0.199
517.64	0.203
518.10	0.201
518.55	0.200
519.01	0.200
519.46	0.200
519.92	0.201
520.37	0.200
520.83	0.201
521.28	0.200
521.74	0.199
522.19	0.198
522.65	0.196
523.10	0.197
523.55	0.198
524.01	0.198
524.46	0.197
524.92	0.196
525.37	0.198
525.83	0.194
526.28	0.194
526.73	0.195
527.19	0.196
527.64	0.197
528.10	0.195
528.55	0.193
529.01	0.194
529.46	0.193
529.91	0.193
530.37	0.192
530.82	0.189
531.28	0.192
531.73	0.193
532.18	0.192
532.64	0.192
533.09	0.191
533.54	0.193
534.00	0.190
534.45	0.192
534.91	0.190
535.36	0.192
535.81	0.189
536.27	0.190
536.72	0.190
537.17	0.188
537.63	0.192
538.08	0.191
538.54	0.188
538.99	0.189
539.44	0.189
539.90	0.188
540.35	0.187
540.80	0.188
541.26	0.186
541.71	0.186
542.16	0.186
542.62	0.186
543.07	0.184
543.52	0.184
543.98	0.185
544.43	0.186
544.88	0.186
545.34	0.186
545.79	0.185
546.24	0.186
546.69	0.185
547.15	0.185
547.60	0.185
548.05	0.185
548.51	0.184
548.96	0.184
549.41	0.184
549.86	0.183
550.32	0.185
550.77	0.184
551.22	0.185
551.68	0.184
552.13	0.184
552.58	0.186
553.03	0.183
553.49	0.183
553.94	0.185
554.39	0.183
554.84	0.181
555.30	0.182
555.75	0.183
556.20	0.181
556.65	0.183
557.11	0.183
557.56	0.183
558.01	0.182
558.46	0.183
558.92	0.184
559.37	0.183
559.82	0.181
560.27	0.182
560.72	0.182
561.18	0.183
561.63	0.182
562.08	0.182
562.53	0.182
562.99	0.183
563.44	0.181
563.89	0.182
564.34	0.182
564.79	0.180
565.25	0.181
565.70	0.183
566.15	0.183
566.60	0.179
567.05	0.183
567.50	0.183
567.96	0.184
568.41	0.182
568.86	0.181
569.31	0.183
569.76	0.183
570.21	0.181
570.67	0.181
571.12	0.181
571.57	0.181
572.02	0.183
572.47	0.180
572.92	0.182
573.37	0.181
573.83	0.181
574.28	0.181
574.73	0.180
575.18	0.181
575.63	0.180
576.08	0.181
576.53	0.181
576.98	0.182
577.44	0.181
577.89	0.182
578.34	0.183
578.79	0.180
579.24	0.181
579.69	0.183
580.14	0.184
580.59	0.180
581.04	0.182
581.49	0.183
581.95	0.181
582.40	0.184
582.85	0.183
583.30	0.184
583.75	0.185
584.20	0.185
584.65	0.183
585.10	0.185
585.55	0.185
586.00	0.186
586.45	0.187
586.90	0.187
587.35	0.186
587.80	0.186
588.25	0.185
588.71	0.185
589.16	0.191
589.61	0.189
590.06	0.189
590.51	0.190
590.96	0.188
591.41	0.191
591.86	0.189
592.31	0.192
592.76	0.189
593.21	0.189
593.66	0.191
594.11	0.193
594.56	0.194
595.01	0.192
595.46	0.193
595.91	0.193
596.36	0.193
596.81	0.194
597.26	0.197
597.71	0.197
598.16	0.197
598.61	0.195
599.06	0.198
599.51	0.197
599.96	0.199
600.41	0.199
600.86	0.198
601.31	0.198
601.76	0.199
602.21	0.200
602.65	0.199
603.10	0.201
603.55	0.203
604.00	0.201
604.45	0.203
604.90	0.204
605.35	0.204
605.80	0.204
606.25	0.202
606.70	0.205
607.15	0.204
607.60	0.203
608.05	0.204
608.50	0.205
608.95	0.208
609.39	0.207
609.84	0.206
610.29	0.206
610.74	0.207
611.19	0.208
611.64	0.207
612.09	0.206
612.54	0.207
612.99	0.207
613.44	0.207
613.88	0.207
614.33	0.208
614.78	0.206
615.23	0.207
615.68	0.208
616.13	0.208
616.58	0.209
617.03	0.208
617.47	0.209
617.92	0.207
618.37	0.207
618.82	0.206
619.27	0.210
619.72	0.209
620.17	0.206
620.61	0.208
621.06	0.208
621.51	0.210
621.96	0.208
622.41	0.209
622.86	0.209
623.30	0.210
623.75	0.208
624.20	0.209
624.65	0.210
625.10	0.209
625.54	0.207
625.99	0.209
626.44	0.212
626.89	0.208
627.34	0.211
627.78	0.210
628.23	0.210
628.68	0.212
629.13	0.211
629.58	0.209
630.02	0.211
630.47	0.213
630.92	0.213
631.37	0.212
631.81	0.212
632.26	0.213
632.71	0.213
633.16	0.216
633.61	0.215
634.05	0.214
634.50	0.215
634.95	0.214
635.40	0.217
635.84	0.217
636.29	0.220
636.74	0.218
637.18	0.219
637.63	0.220
638.08	0.222
638.53	0.222
638.97	0.222
639.42	0.225
639.87	0.222
640.32	0.223
640.76	0.227
641.21	0.228
641.66	0.226
642.10	0.227
642.55	0.229
643.00	0.229
643.44	0.230
643.89	0.231
644.34	0.230
644.79	0.234
645.23	0.231
645.68	0.236
646.13	0.237
646.57	0.236
647.02	0.238
647.47	0.240
647.91	0.239
648.36	0.242
648.81	0.242
649.25	0.243
649.70	0.244
650.15	0.245
650.59	0.247
651.04	0.245
651.48	0.247
651.93	0.248
652.38	0.249
652.82	0.249
653.27	0.248
653.72	0.250
654.16	0.253
654.61	0.253
655.06	0.253
655.50	0.252
655.95	0.253
656.39	0.253
656.84	0.259
657.29	0.257
657.73	0.255
658.18	0.258
658.62	0.257
659.07	0.256
659.52	0.260
659.96	0.260
660.41	0.261
660.85	0.259
661.30	0.260
661.74	0.262
662.19	0.262
662.64	0.261
663.08	0.261
663.53	0.262
663.97	0.263
664.42	0.259
664.86	0.260
665.31	0.261
665.75	0.261
666.20	0.259
666.65	0.263
667.09	0.259
667.54	0.256
667.98	0.257
668.43	0.256
668.87	0.256
669.32	0.253
669.76	0.253
670.21	0.253
670.65	0.250
671.10	0.250
671.54	0.247
671.99	0.247
672.43	0.244
672.88	0.241
673.32	0.241
673.77	0.239
674.21	0.236
674.66	0.232
675.10	0.230
675.55	0.226
675.99	0.225
676.44	0.222
676.88	0.220
677.33	0.217
677.77	0.214
678.22	0.209
678.66	0.210
679.11	0.206
679.55	0.202
679.99	0.200
680.44	0.199
680.88	0.196
681.33	0.190
681.77	0.188
682.22	0.187
682.66	0.184
683.11	0.179
683.55	0.177
683.99	0.175
684.44	0.174
684.88	0.170
685.33	0.168
685.77	0.168
686.21	0.163
686.66	0.162
687.10	0.154
687.55	0.157
687.99	0.157
688.44	0.152
688.88	0.149
689.32	0.147
689.77	0.148
690.21	0.146
690.65	0.140
691.10	0.141
691.54	0.140
691.99	0.139
692.43	0.135
692.87	0.136
693.32	0.133
693.76	0.132
694.20	0.133
694.65	0.130
695.09	0.128
695.53	0.131
695.98	0.127
696.42	0.125
696.86	0.125
697.31	0.127
697.75	0.126
698.19	0.125
698.64	0.122
699.08	0.121
699.52	0.120
699.97	0.121
700.41	0.120
700.85	0.118
701.30	0.118
701.74	0.118
702.18	0.118
702.63	0.115
703.07	0.116
703.51	0.118
703.96	0.115
704.40	0.116
704.84	0.115
705.28	0.113
705.73	0.114
706.17	0.112
706.61	0.112
707.06	0.113
707.50	0.112
707.94	0.109
708.38	0.109
708.83	0.112
709.27	0.108
709.71	0.110
710.15	0.113
710.60	0.110
711.04	0.111
711.48	0.110
711.92	0.107
712.37	0.110
712.81	0.108
713.25	0.109
713.69	0.110
714.13	0.109
714.58	0.108
715.02	0.108
715.46	0.105
715.90	0.108
716.35	0.106
716.79	0.108
717.23	0.107
717.67	0.110
718.11	0.108
718.56	0.108
719.00	0.108
719.44	0.106
719.88	0.107
720.32	0.106
720.76	0.107
721.21	0.108
721.65	0.106
722.09	0.107
722.53	0.106
722.97	0.108
723.41	0.106
723.86	0.110
724.30	0.109
724.74	0.106
725.18	0.106
725.62	0.108
726.06	0.106
726.50	0.107
726.95	0.107
727.39	0.110
727.83	0.109
728.27	0.107
728.71	0.106
729.15	0.107
729.59	0.109
730.03	0.107
730.48	0.107
730.92	0.106
731.36	0.107
731.80	0.106
732.24	0.102
732.68	0.105
733.12	0.109
733.56	0.107
734.00	0.109
734.44	0.109
734.89	0.108
735.33	0.108
735.77	0.106
736.21	0.109
736.65	0.107
737.09	0.106
737.53	0.106
737.97	0.109
738.41	0.107
738.85	0.111
739.29	0.107
739.73	0.108
740.17	0.109
740.61	0.108
741.05	0.107
741.49	0.107
741.93	0.109
742.37	0.108
742.81	0.107
743.26	0.108
743.70	0.105
744.14	0.105
744.58	0.107
745.02	0.106
745.46	0.107
745.90	0.105
746.34	0.107
746.78	0.106
747.22	0.106
747.66	0.107
748.10	0.105
748.54	0.107
748.98	0.106
749.42	0.107
749.86	0.105
750.29	0.106
750.73	0.101
751.17	0.107
751.61	0.104
752.05	0.105
752.49	0.107
752.93	0.102
753.37	0.105
753.81	0.104
754.25	0.100
754.69	0.105
755.13	0.102
755.57	0.104
756.01	0.103
756.45	0.103
756.89	0.101
757.33	0.106
757.77	0.103
758.21	0.104
758.64	0.105
759.08	0.101
759.52	0.102
759.96	0.101
760.40	0.102
760.84	0.103
761.28	0.101
761.72	0.104
762.16	0.103
762.60	0.104
763.03	0.102
763.47	0.100
763.91	0.099
764.35	0.098
764.79	0.100
765.23	0.103
765.67	0.103
766.11	0.103
766.54	0.103
766.98	0.102
767.42	0.100
767.86	0.104
768.30	0.103
768.74	0.103
769.17	0.101
769.61	0.100
770.05	0.104
770.49	0.104
770.93	0.101
771.37	0.100
771.80	0.098
772.24	0.097
772.68	0.100
773.12	0.103
773.56	0.099
774.00	0.102
774.43	0.101
774.87	0.099
775.31	0.102
775.75	0.098
776.19	0.099
776.62	0.099
777.06	0.102
777.50	0.101
777.94	0.100
778.37	0.100
778.81	0.101
779.25	0.100
779.69	0.097
780.13	0.100
780.56	0.099
781.00	0.101
781.44	0.099
781.88	0.100
782.31	0.099
782.75	0.096
783.19	0.096
783.63	0.099
784.06	0.099
784.50	0.097
784.94	0.101
785.37	0.095
785.81	0.100
786.25	0.096
786.69	0.097
787.12	0.096
787.56	0.095
788.00	0.098
788.43	0.097
788.87	0.099
789.31	0.095
789.75	0.098
790.18	0.094
790.62	0.100
791.06	0.097
791.49	0.100
791.93	0.100
792.37	0.095
792.80	0.091
793.24	0.095
793.68	0.095
794.11	0.096
794.55	0.098
794.99	0.092
795.42	0.091
795.86	0.093
796.30	0.094
796.73	0.094
797.17	0.098
797.61	0.091
798.04	0.091
798.48	0.096
798.91	0.093
799.35	0.095
799.79	0.091
800.22	0.096
800.66	0.095
801.10	0.092
801.53	0.097
801.97	0.097
802.40	0.090
802.84	0.095
803.28	0.093
803.71	0.095
804.15	0.093
804.58	0.092
805.02	0.094
805.46	0.095
805.89	0.097
806.33	0.094
806.76	0.095
807.20	0.091
807.63	0.097
808.07	0.094
808.51	0.084
808.94	0.096
809.38	0.095
809.81	0.091
810.25	0.091
810.68	0.090
811.12	0.096
811.55	0.092
811.99	0.093
812.42	0.092
812.86	0.091
813.29	0.093
813.73	0.089
814.17	0.098
814.60	0.092
815.04	0.094
815.47	0.091
815.91	0.096
816.34	0.090
816.78	0.089
817.21	0.090
817.65	0.092
