SpectraSuite Data File
++++++++++++++++++++++++++++++++++++
Date: Mon Jul 10 14:34:17 CEST 2017
User: IPCE
Dark Spectrum Present: Yes
Reference Spectrum Present: Yes
Number of Sampled Component Spectra: 1
Spectrometers: HR+C0708
Integration Time (usec): 1000 (HR+C0708)
Spectra Averaged: 10 (HR+C0708)
Boxcar Smoothing: 0 (HR+C0708)
Correct for Electrical Dark: No (HR+C0708)
Strobe/Lamp Enabled: No (HR+C0708)
Correct for Detector Non-linearity: No (HR+C0708)
Correct for Stray Light: No (HR+C0708)
Number of Pixels in Processed Spectrum: 2048
>>>>>Begin Processed Spectral Data<<<<<
188.76	0.590
189.23	-0.000
189.70	-0.000
190.17	0.610
190.64	-0.000
191.12	-0.000
191.59	-0.000
192.06	1.693
192.53	-0.000
193.01	-0.000
193.48	-0.000
193.95	-0.000
194.42	-0.000
194.90	-0.000
195.37	-0.000
195.84	-0.000
196.31	-0.000
196.78	-0.000
197.26	1.366
197.73	1.010
198.20	-0.000
198.67	-0.000
199.14	-0.000
199.62	-0.000
200.09	-0.000
200.56	1.057
201.03	-0.000
201.50	0.801
201.97	0.812
202.45	1.655
202.92	-0.000
203.39	1.125
203.86	0.709
204.33	1.120
204.80	1.614
205.28	1.265
205.75	-0.000
206.22	0.992
206.69	0.903
207.16	0.566
207.63	0.714
208.11	0.965
208.58	0.562
209.05	0.449
209.52	0.838
209.99	1.852
210.46	0.696
210.93	1.506
211.41	0.810
211.88	0.650
212.35	0.685
212.82	1.248
213.29	0.931
213.76	0.821
214.23	0.794
214.70	1.595
215.18	-0.000
215.65	0.847
216.12	0.694
216.59	1.047
217.06	0.713
217.53	0.598
218.00	0.932
218.47	0.657
218.94	0.712
219.41	0.600
219.89	1.016
220.36	0.586
220.83	0.852
221.30	1.522
221.77	1.419
222.24	0.654
222.71	1.405
223.18	1.335
223.65	1.065
224.12	0.793
224.59	1.023
225.06	1.338
225.54	0.997
226.01	1.083
226.48	1.935
226.95	-0.000
227.42	1.267
227.89	1.365
228.36	-0.000
228.83	1.430
229.30	1.345
229.77	1.560
230.24	2.706
230.71	2.981
231.18	2.396
231.65	2.179
232.12	1.911
232.59	1.931
233.06	1.931
233.53	2.012
234.00	2.052
234.47	2.037
234.94	1.920
235.41	1.936
235.88	2.202
236.35	1.940
236.82	2.161
237.29	-0.000
237.76	2.375
238.23	2.990
238.70	3.630
239.17	2.328
239.64	2.622
240.11	2.697
240.58	2.462
241.05	2.512
241.52	2.599
241.99	2.680
242.46	2.611
242.93	2.975
243.40	2.775
243.87	-0.000
244.34	-0.000
244.81	2.390
245.28	4.093
245.75	2.619
246.22	2.642
246.69	2.643
247.16	2.952
247.63	2.667
248.10	2.597
248.57	2.501
249.04	2.618
249.51	2.798
249.98	2.584
250.45	3.246
250.92	-0.000
251.39	-0.000
251.85	2.593
252.32	2.892
252.79	-0.000
253.26	2.857
253.73	2.735
254.20	2.507
254.67	2.632
255.14	2.698
255.61	2.884
256.08	2.729
256.55	2.851
257.02	2.775
257.49	3.778
257.95	3.156
258.42	2.621
258.89	2.884
259.36	3.484
259.83	2.771
260.30	2.764
260.77	2.802
261.24	2.840
261.71	2.981
262.17	2.851
262.64	2.945
263.11	2.797
263.58	3.073
264.05	3.026
264.52	2.731
264.99	2.700
265.46	2.713
265.92	3.068
266.39	2.854
266.86	2.818
267.33	3.019
267.80	2.767
268.27	2.803
268.74	2.964
269.20	2.781
269.67	2.662
270.14	2.755
270.61	2.730
271.08	2.759
271.55	2.659
272.01	2.686
272.48	2.611
272.95	2.626
273.42	2.729
273.89	2.557
274.36	2.843
274.82	2.654
275.29	2.507
275.76	2.603
276.23	2.617
276.70	2.461
277.16	2.627
277.63	2.686
278.10	2.672
278.57	2.746
279.04	2.795
279.50	2.480
279.97	2.507
280.44	2.419
280.91	2.810
281.38	2.811
281.84	2.530
282.31	2.441
282.78	2.647
283.25	2.395
283.72	2.484
284.18	2.533
284.65	2.589
285.12	2.430
285.59	2.480
286.05	2.514
286.52	2.450
286.99	2.357
287.46	2.353
287.92	2.417
288.39	2.312
288.86	2.389
289.33	2.368
289.79	2.449
290.26	2.353
290.73	2.243
291.20	2.331
291.66	2.299
292.13	2.236
292.60	2.304
293.07	2.376
293.53	2.263
294.00	2.263
294.47	2.279
294.93	2.196
295.40	2.264
295.87	2.201
296.34	2.253
296.80	2.267
297.27	2.273
297.74	2.239
298.20	2.275
298.67	2.198
299.14	2.222
299.60	2.239
300.07	2.129
300.54	2.180
301.01	2.176
301.47	2.226
301.94	2.147
302.41	2.148
302.87	2.120
303.34	2.137
303.81	2.055
304.27	2.130
304.74	2.087
305.21	2.054
305.67	2.089
306.14	2.055
306.61	2.072
307.07	2.116
307.54	2.016
308.01	2.078
308.47	2.075
308.94	2.011
309.40	2.049
309.87	2.025
310.34	2.030
310.80	2.010
311.27	2.008
311.74	2.024
312.20	2.005
312.67	2.011
313.13	2.016
313.60	2.028
314.07	1.968
314.53	1.978
315.00	1.970
315.47	1.972
315.93	1.973
316.40	1.971
316.86	1.966
317.33	1.970
317.80	1.930
318.26	1.979
318.73	1.961
319.19	1.938
319.66	1.918
320.13	1.989
320.59	1.915
321.06	1.889
321.52	1.892
321.99	1.868
322.45	1.875
322.92	1.855
323.39	1.861
323.85	1.861
324.32	1.847
324.78	1.858
325.25	1.880
325.71	1.836
326.18	1.783
326.64	1.834
327.11	1.774
327.58	1.803
328.04	1.731
328.51	1.753
328.97	1.736
329.44	1.697
329.90	1.713
330.37	1.746
330.83	1.673
331.30	1.699
331.76	1.698
332.23	1.659
332.69	1.656
333.16	1.636
333.62	1.630
334.09	1.611
334.56	1.584
335.02	1.560
335.49	1.558
335.95	1.512
336.42	1.495
336.88	1.480
337.35	1.451
337.81	1.434
338.28	1.407
338.74	1.390
339.20	1.393
339.67	1.344
340.13	1.339
340.60	1.321
341.06	1.264
341.53	1.250
341.99	1.225
342.46	1.191
342.92	1.171
343.39	1.151
343.85	1.131
344.32	1.108
344.78	1.093
345.25	1.079
345.71	1.045
346.17	1.026
346.64	1.007
347.10	0.983
347.57	0.955
348.03	0.934
348.50	0.912
348.96	0.896
349.43	0.882
349.89	0.857
350.35	0.849
350.82	0.833
351.28	0.814
351.75	0.805
352.21	0.786
352.67	0.781
353.14	0.769
353.60	0.748
354.07	0.740
354.53	0.728
355.00	0.707
355.46	0.701
355.92	0.706
356.39	0.688
356.85	0.678
357.31	0.665
357.78	0.649
358.24	0.653
358.71	0.644
359.17	0.633
359.63	0.628
360.10	0.623
360.56	0.626
361.03	0.619
361.49	0.607
361.95	0.604
362.42	0.604
362.88	0.595
363.34	0.597
363.81	0.591
364.27	0.594
364.73	0.584
365.20	0.581
365.66	0.580
366.12	0.578
366.59	0.571
367.05	0.573
367.51	0.572
367.98	0.567
368.44	0.564
368.90	0.568
369.37	0.561
369.83	0.555
370.29	0.557
370.76	0.555
371.22	0.551
371.68	0.551
372.15	0.545
372.61	0.550
373.07	0.541
373.54	0.537
374.00	0.538
374.46	0.541
374.92	0.536
375.39	0.534
375.85	0.535
376.31	0.526
376.78	0.530
377.24	0.527
377.70	0.526
378.16	0.526
378.63	0.526
379.09	0.521
379.55	0.517
380.01	0.517
380.48	0.516
380.94	0.514
381.40	0.513
381.87	0.513
382.33	0.513
382.79	0.513
383.25	0.506
383.72	0.507
384.18	0.506
384.64	0.506
385.10	0.501
385.56	0.499
386.03	0.496
386.49	0.497
386.95	0.488
387.41	0.495
387.88	0.490
388.34	0.486
388.80	0.489
389.26	0.489
389.72	0.487
390.19	0.485
390.65	0.483
391.11	0.482
391.57	0.479
392.04	0.475
392.50	0.479
392.96	0.477
393.42	0.472
393.88	0.471
394.34	0.474
394.81	0.472
395.27	0.470
395.73	0.467
396.19	0.467
396.65	0.467
397.12	0.461
397.58	0.463
398.04	0.463
398.50	0.461
398.96	0.460
399.42	0.459
399.89	0.461
400.35	0.455
400.81	0.455
401.27	0.454
401.73	0.450
402.19	0.450
402.65	0.448
403.12	0.442
403.58	0.444
404.04	0.446
404.50	0.445
404.96	0.440
405.42	0.445
405.88	0.442
406.34	0.439
406.81	0.439
407.27	0.436
407.73	0.431
408.19	0.431
408.65	0.432
409.11	0.434
409.57	0.432
410.03	0.429
410.49	0.426
410.96	0.430
411.42	0.425
411.88	0.421
412.34	0.419
412.80	0.424
413.26	0.422
413.72	0.421
414.18	0.418
414.64	0.418
415.10	0.418
415.56	0.417
416.02	0.413
416.48	0.415
416.95	0.409
417.41	0.411
417.87	0.410
418.33	0.410
418.79	0.409
419.25	0.405
419.71	0.407
420.17	0.405
420.63	0.404
421.09	0.406
421.55	0.404
422.01	0.404
422.47	0.400
422.93	0.397
423.39	0.398
423.85	0.395
424.31	0.397
424.77	0.394
425.23	0.391
425.69	0.396
426.15	0.395
426.61	0.390
427.07	0.389
427.53	0.390
427.99	0.387
428.45	0.385
428.91	0.382
429.37	0.383
429.83	0.388
430.29	0.386
430.75	0.389
431.21	0.386
431.67	0.383
432.13	0.382
432.59	0.376
433.05	0.377
433.51	0.376
433.97	0.375
434.43	0.379
434.89	0.373
435.35	0.374
435.81	0.370
436.27	0.367
436.73	0.366
437.19	0.368
437.65	0.369
438.11	0.366
438.57	0.363
439.03	0.365
439.48	0.366
439.94	0.365
440.40	0.361
440.86	0.362
441.32	0.358
441.78	0.355
442.24	0.358
442.70	0.355
443.16	0.356
443.62	0.354
444.08	0.355
444.54	0.355
444.99	0.353
445.45	0.352
445.91	0.350
446.37	0.350
446.83	0.347
447.29	0.343
447.75	0.347
448.21	0.345
448.67	0.345
449.12	0.343
449.58	0.344
450.04	0.346
450.50	0.340
450.96	0.340
451.42	0.338
451.88	0.343
452.34	0.338
452.79	0.338
453.25	0.338
453.71	0.339
454.17	0.336
454.63	0.333
455.09	0.331
455.55	0.332
456.00	0.333
456.46	0.331
456.92	0.328
457.38	0.326
457.84	0.330
458.30	0.327
458.75	0.328
459.21	0.324
459.67	0.327
460.13	0.319
460.59	0.322
461.04	0.323
461.50	0.324
461.96	0.322
462.42	0.322
462.88	0.321
463.33	0.318
463.79	0.319
464.25	0.318
464.71	0.319
465.17	0.318
465.62	0.315
466.08	0.320
466.54	0.315
467.00	0.314
467.46	0.316
467.91	0.313
468.37	0.311
468.83	0.312
469.29	0.311
469.74	0.311
470.20	0.310
470.66	0.311
471.12	0.311
471.57	0.309
472.03	0.307
472.49	0.307
472.95	0.305
473.40	0.303
473.86	0.304
474.32	0.305
474.78	0.304
475.23	0.301
475.69	0.301
476.15	0.299
476.60	0.299
477.06	0.300
477.52	0.299
477.98	0.297
478.43	0.297
478.89	0.296
479.35	0.297
479.80	0.296
480.26	0.295
480.72	0.297
481.18	0.293
481.63	0.294
482.09	0.293
482.55	0.294
483.00	0.290
483.46	0.290
483.92	0.290
484.37	0.290
484.83	0.289
485.29	0.289
485.74	0.288
486.20	0.287
486.66	0.286
487.11	0.287
487.57	0.286
488.03	0.285
488.48	0.283
488.94	0.285
489.40	0.285
489.85	0.283
490.31	0.282
490.77	0.281
491.22	0.281
491.68	0.281
492.13	0.279
492.59	0.279
493.05	0.279
493.50	0.277
493.96	0.279
494.42	0.276
494.87	0.278
495.33	0.278
495.78	0.279
496.24	0.275
496.70	0.273
497.15	0.273
497.61	0.274
498.06	0.271
498.52	0.272
498.98	0.274
499.43	0.273
499.89	0.270
500.34	0.269
500.80	0.271
501.25	0.273
501.71	0.268
502.17	0.268
502.62	0.269
503.08	0.267
503.53	0.268
503.99	0.264
504.44	0.268
504.90	0.265
505.36	0.265
505.81	0.265
506.27	0.266
506.72	0.265
507.18	0.266
507.63	0.263
508.09	0.262
508.54	0.262
509.00	0.261
509.45	0.261
509.91	0.260
510.36	0.260
510.82	0.261
511.27	0.260
511.73	0.258
512.19	0.257
512.64	0.260
513.10	0.254
513.55	0.256
514.01	0.258
514.46	0.255
514.92	0.252
515.37	0.252
515.83	0.252
516.28	0.253
516.73	0.252
517.19	0.249
517.64	0.252
518.10	0.251
518.55	0.249
519.01	0.250
519.46	0.251
519.92	0.249
520.37	0.250
520.83	0.249
521.28	0.251
521.74	0.247
522.19	0.247
522.65	0.247
523.10	0.245
523.55	0.248
524.01	0.245
524.46	0.247
524.92	0.246
525.37	0.246
525.83	0.243
526.28	0.244
526.73	0.243
527.19	0.244
527.64	0.241
528.10	0.241
528.55	0.240
529.01	0.242
529.46	0.244
529.91	0.239
530.37	0.241
530.82	0.237
531.28	0.238
531.73	0.242
532.18	0.238
532.64	0.238
533.09	0.236
533.54	0.237
534.00	0.235
534.45	0.235
534.91	0.233
535.36	0.233
535.81	0.237
536.27	0.237
536.72	0.234
537.17	0.230
537.63	0.235
538.08	0.235
538.54	0.233
538.99	0.231
539.44	0.233
539.90	0.231
540.35	0.231
540.80	0.231
541.26	0.230
541.71	0.229
542.16	0.231
542.62	0.229
543.07	0.230
543.52	0.229
543.98	0.229
544.43	0.228
544.88	0.229
545.34	0.229
545.79	0.226
546.24	0.227
546.69	0.223
547.15	0.228
547.60	0.226
548.05	0.227
548.51	0.225
548.96	0.224
549.41	0.225
549.86	0.224
550.32	0.227
550.77	0.223
551.22	0.225
551.68	0.223
552.13	0.222
552.58	0.223
553.03	0.224
553.49	0.219
553.94	0.222
554.39	0.220
554.84	0.218
555.30	0.221
555.75	0.221
556.20	0.218
556.65	0.220
557.11	0.221
557.56	0.218
558.01	0.218
558.46	0.221
558.92	0.221
559.37	0.217
559.82	0.217
560.27	0.216
560.72	0.216
561.18	0.216
561.63	0.217
562.08	0.215
562.53	0.214
562.99	0.216
563.44	0.214
563.89	0.213
564.34	0.214
564.79	0.214
565.25	0.214
565.70	0.215
566.15	0.213
566.60	0.210
567.05	0.215
567.50	0.212
567.96	0.212
568.41	0.212
568.86	0.213
569.31	0.213
569.76	0.211
570.21	0.211
570.67	0.211
571.12	0.209
571.57	0.209
572.02	0.210
572.47	0.208
572.92	0.207
573.37	0.209
573.83	0.205
574.28	0.206
574.73	0.205
575.18	0.208
575.63	0.206
576.08	0.206
576.53	0.204
576.98	0.207
577.44	0.205
577.89	0.206
578.34	0.207
578.79	0.205
579.24	0.201
579.69	0.204
580.14	0.203
580.59	0.202
581.04	0.203
581.49	0.203
581.95	0.202
582.40	0.203
582.85	0.204
583.30	0.204
583.75	0.202
584.20	0.204
584.65	0.199
585.10	0.200
585.55	0.200
586.00	0.201
586.45	0.201
586.90	0.203
587.35	0.200
587.80	0.199
588.25	0.197
588.71	0.198
589.16	0.201
589.61	0.201
590.06	0.201
590.51	0.201
590.96	0.199
591.41	0.198
591.86	0.200
592.31	0.199
592.76	0.198
593.21	0.198
593.66	0.197
594.11	0.197
594.56	0.199
595.01	0.200
595.46	0.198
595.91	0.197
596.36	0.196
596.81	0.197
597.26	0.196
597.71	0.197
598.16	0.197
598.61	0.198
599.06	0.197
599.51	0.197
599.96	0.198
600.41	0.196
600.86	0.196
601.31	0.198
601.76	0.194
602.21	0.195
602.65	0.194
603.10	0.196
603.55	0.196
604.00	0.196
604.45	0.196
604.90	0.194
605.35	0.196
605.80	0.195
606.25	0.194
606.70	0.195
607.15	0.194
607.60	0.192
608.05	0.195
608.50	0.194
608.95	0.195
609.39	0.195
609.84	0.192
610.29	0.195
610.74	0.195
611.19	0.194
611.64	0.193
612.09	0.190
612.54	0.191
612.99	0.192
613.44	0.193
613.88	0.191
614.33	0.190
614.78	0.189
615.23	0.191
615.68	0.189
616.13	0.189
616.58	0.190
617.03	0.190
617.47	0.190
617.92	0.189
618.37	0.190
618.82	0.189
619.27	0.188
619.72	0.190
620.17	0.186
620.61	0.187
621.06	0.188
621.51	0.188
621.96	0.186
622.41	0.186
622.86	0.187
623.30	0.189
623.75	0.187
624.20	0.186
624.65	0.188
625.10	0.187
625.54	0.185
625.99	0.184
626.44	0.185
626.89	0.186
627.34	0.184
627.78	0.185
628.23	0.186
628.68	0.185
629.13	0.187
629.58	0.183
630.02	0.186
630.47	0.184
630.92	0.185
631.37	0.184
631.81	0.184
632.26	0.185
632.71	0.183
633.16	0.185
633.61	0.184
634.05	0.185
634.50	0.183
634.95	0.185
635.40	0.185
635.84	0.184
636.29	0.183
636.74	0.184
637.18	0.185
637.63	0.183
638.08	0.184
638.53	0.184
638.97	0.183
639.42	0.185
639.87	0.184
640.32	0.185
640.76	0.184
641.21	0.183
641.66	0.182
642.10	0.183
642.55	0.182
643.00	0.184
643.44	0.182
643.89	0.183
644.34	0.181
644.79	0.184
645.23	0.182
645.68	0.183
646.13	0.184
646.57	0.182
647.02	0.183
647.47	0.184
647.91	0.184
648.36	0.184
648.81	0.184
649.25	0.184
649.70	0.185
650.15	0.182
650.59	0.182
651.04	0.182
651.48	0.185
651.93	0.185
652.38	0.183
652.82	0.182
653.27	0.183
653.72	0.181
654.16	0.185
654.61	0.183
655.06	0.185
655.50	0.182
655.95	0.181
656.39	0.182
656.84	0.184
657.29	0.184
657.73	0.183
658.18	0.183
658.62	0.181
659.07	0.183
659.52	0.180
659.96	0.184
660.41	0.183
660.85	0.179
661.30	0.181
661.74	0.182
662.19	0.181
662.64	0.182
663.08	0.181
663.53	0.180
663.97	0.180
664.42	0.181
664.86	0.182
665.31	0.179
665.75	0.179
666.20	0.181
666.65	0.180
667.09	0.177
667.54	0.178
667.98	0.178
668.43	0.177
668.87	0.176
669.32	0.176
669.76	0.176
670.21	0.174
670.65	0.176
671.10	0.176
671.54	0.176
671.99	0.177
672.43	0.174
672.88	0.171
673.32	0.171
673.77	0.172
674.21	0.173
674.66	0.170
675.10	0.172
675.55	0.168
675.99	0.169
676.44	0.166
676.88	0.168
677.33	0.167
677.77	0.165
678.22	0.165
678.66	0.165
679.11	0.163
679.55	0.164
679.99	0.162
680.44	0.163
680.88	0.163
681.33	0.159
681.77	0.160
682.22	0.159
682.66	0.156
683.11	0.157
683.55	0.156
683.99	0.156
684.44	0.157
684.88	0.154
685.33	0.154
685.77	0.153
686.21	0.152
686.66	0.153
687.10	0.148
687.55	0.150
687.99	0.153
688.44	0.151
688.88	0.150
689.32	0.149
689.77	0.152
690.21	0.151
690.65	0.147
691.10	0.146
691.54	0.147
691.99	0.147
692.43	0.145
692.87	0.147
693.32	0.147
693.76	0.144
694.20	0.145
694.65	0.144
695.09	0.145
695.53	0.145
695.98	0.142
696.42	0.142
696.86	0.141
697.31	0.143
697.75	0.144
698.19	0.142
698.64	0.141
699.08	0.142
699.52	0.140
699.97	0.141
700.41	0.141
700.85	0.140
701.30	0.141
701.74	0.139
702.18	0.140
702.63	0.140
703.07	0.140
703.51	0.142
703.96	0.141
704.40	0.139
704.84	0.139
705.28	0.138
705.73	0.140
706.17	0.140
706.61	0.140
707.06	0.139
707.50	0.138
707.94	0.136
708.38	0.135
708.83	0.138
709.27	0.139
709.71	0.138
710.15	0.137
710.60	0.136
711.04	0.136
711.48	0.136
711.92	0.136
712.37	0.137
712.81	0.138
713.25	0.139
713.69	0.136
714.13	0.138
714.58	0.138
715.02	0.138
715.46	0.134
715.90	0.134
716.35	0.136
716.79	0.135
717.23	0.135
717.67	0.135
718.11	0.137
718.56	0.135
719.00	0.133
719.44	0.135
719.88	0.137
720.32	0.135
720.76	0.134
721.21	0.133
721.65	0.132
722.09	0.134
722.53	0.133
722.97	0.138
723.41	0.134
723.86	0.136
724.30	0.133
724.74	0.133
725.18	0.134
725.62	0.133
726.06	0.132
726.50	0.133
726.95	0.135
727.39	0.133
727.83	0.135
728.27	0.133
728.71	0.131
729.15	0.134
729.59	0.134
730.03	0.133
730.48	0.135
730.92	0.133
731.36	0.132
731.80	0.135
732.24	0.130
732.68	0.135
733.12	0.135
733.56	0.135
734.00	0.136
734.44	0.136
734.89	0.133
735.33	0.137
735.77	0.134
736.21	0.137
736.65	0.135
737.09	0.133
737.53	0.134
737.97	0.136
738.41	0.134
738.85	0.135
739.29	0.135
739.73	0.135
740.17	0.136
740.61	0.134
741.05	0.134
741.49	0.132
741.93	0.135
742.37	0.133
742.81	0.134
743.26	0.133
743.70	0.132
744.14	0.129
744.58	0.133
745.02	0.135
745.46	0.133
745.90	0.134
746.34	0.135
746.78	0.134
747.22	0.131
747.66	0.134
748.10	0.130
748.54	0.133
748.98	0.132
749.42	0.134
749.86	0.133
750.29	0.130
750.73	0.129
751.17	0.130
751.61	0.131
752.05	0.133
752.49	0.131
752.93	0.127
753.37	0.132
753.81	0.131
754.25	0.127
754.69	0.132
755.13	0.128
755.57	0.131
756.01	0.129
756.45	0.130
756.89	0.128
757.33	0.134
757.77	0.128
758.21	0.126
758.64	0.130
759.08	0.127
759.52	0.124
759.96	0.126
760.40	0.125
760.84	0.128
761.28	0.128
761.72	0.127
762.16	0.127
762.60	0.129
763.03	0.124
763.47	0.126
763.91	0.126
764.35	0.125
764.79	0.121
765.23	0.124
765.67	0.127
766.11	0.126
766.54	0.129
766.98	0.126
767.42	0.126
767.86	0.127
768.30	0.128
768.74	0.125
769.17	0.127
769.61	0.126
770.05	0.128
770.49	0.128
770.93	0.123
771.37	0.123
771.80	0.125
772.24	0.126
772.68	0.126
773.12	0.128
773.56	0.122
774.00	0.121
774.43	0.122
774.87	0.122
775.31	0.121
775.75	0.120
776.19	0.125
776.62	0.125
777.06	0.125
777.50	0.123
777.94	0.121
778.37	0.125
778.81	0.126
779.25	0.124
779.69	0.119
780.13	0.124
780.56	0.127
781.00	0.124
781.44	0.124
781.88	0.124
782.31	0.123
782.75	0.124
783.19	0.118
783.63	0.119
784.06	0.122
784.50	0.122
784.94	0.124
785.37	0.118
785.81	0.123
786.25	0.120
786.69	0.124
787.12	0.120
787.56	0.119
788.00	0.120
788.43	0.123
788.87	0.120
789.31	0.121
789.75	0.121
790.18	0.119
790.62	0.122
791.06	0.122
791.49	0.119
791.93	0.121
792.37	0.120
792.80	0.120
793.24	0.116
793.68	0.118
794.11	0.116
794.55	0.118
794.99	0.115
795.42	0.118
795.86	0.114
796.30	0.115
796.73	0.119
797.17	0.123
797.61	0.119
798.04	0.117
798.48	0.118
798.91	0.112
799.35	0.119
799.79	0.116
800.22	0.117
800.66	0.116
801.10	0.118
801.53	0.117
801.97	0.117
802.40	0.113
802.84	0.119
803.28	0.114
803.71	0.117
804.15	0.115
804.58	0.119
805.02	0.114
805.46	0.119
805.89	0.117
806.33	0.114
806.76	0.116
807.20	0.117
807.63	0.115
808.07	0.116
808.51	0.115
808.94	0.116
809.38	0.115
809.81	0.115
810.25	0.117
810.68	0.112
811.12	0.115
811.55	0.113
811.99	0.116
812.42	0.114
812.86	0.116
813.29	0.118
813.73	0.113
814.17	0.116
814.60	0.113
815.04	0.115
815.47	0.114
815.91	0.118
816.34	0.111
816.78	0.108
817.21	0.116
