SpectraSuite Data File
++++++++++++++++++++++++++++++++++++
Date: Mon Jul 10 13:51:47 CEST 2017
User: IPCE
Dark Spectrum Present: Yes
Reference Spectrum Present: Yes
Number of Sampled Component Spectra: 1
Spectrometers: HR+C0708
Integration Time (usec): 1000 (HR+C0708)
Spectra Averaged: 10 (HR+C0708)
Boxcar Smoothing: 0 (HR+C0708)
Correct for Electrical Dark: No (HR+C0708)
Strobe/Lamp Enabled: No (HR+C0708)
Correct for Detector Non-linearity: No (HR+C0708)
Correct for Stray Light: No (HR+C0708)
Number of Pixels in Processed Spectrum: 2048
>>>>>Begin Processed Spectral Data<<<<<
188.76	0.182
189.23	0.773
189.70	-0.000
190.17	0.724
190.64	0.314
191.12	-0.131
191.59	-0.000
192.06	1.170
192.53	0.211
193.01	-0.000
193.48	-0.000
193.95	-0.000
194.42	0.434
194.90	-0.000
195.37	-0.000
195.84	-0.000
196.31	-0.000
196.78	0.758
197.26	0.205
197.73	0.443
198.20	0.689
198.67	1.342
199.14	-0.000
199.62	-0.000
200.09	0.504
200.56	0.830
201.03	0.908
201.50	0.646
201.97	0.656
202.45	1.150
202.92	0.655
203.39	0.711
203.86	0.671
204.33	0.467
204.80	0.623
205.28	1.382
205.75	0.934
206.22	0.788
206.69	0.831
207.16	0.536
207.63	0.406
208.11	0.331
208.58	0.361
209.05	0.459
209.52	0.527
209.99	0.638
210.46	0.797
210.93	0.608
211.41	0.445
211.88	0.507
212.35	0.554
212.82	0.827
213.29	0.582
213.76	0.693
214.23	0.765
214.70	0.529
215.18	0.749
215.65	0.890
216.12	0.569
216.59	0.621
217.06	0.662
217.53	0.466
218.00	0.714
218.47	0.410
218.94	1.023
219.41	0.507
219.89	0.650
220.36	0.569
220.83	0.712
221.30	0.605
221.77	0.477
222.24	0.682
222.71	0.803
223.18	0.810
223.65	0.832
224.12	0.809
224.59	0.967
225.06	0.896
225.54	1.099
226.01	1.024
226.48	1.014
226.95	1.603
227.42	1.072
227.89	1.067
228.36	1.839
228.83	1.173
229.30	1.254
229.77	1.276
230.24	1.548
230.71	1.534
231.18	1.629
231.65	1.407
232.12	1.752
232.59	1.804
233.06	1.705
233.53	1.851
234.00	1.789
234.47	1.921
234.94	2.077
235.41	1.797
235.88	1.898
236.35	1.907
236.82	1.972
237.29	2.112
237.76	2.354
238.23	2.280
238.70	2.507
239.17	2.124
239.64	2.481
240.11	2.492
240.58	2.164
241.05	2.649
241.52	2.131
241.99	2.318
242.46	2.790
242.93	2.546
243.40	2.392
243.87	2.683
244.34	2.821
244.81	2.411
245.28	3.002
245.75	2.378
246.22	2.486
246.69	2.658
247.16	2.590
247.63	2.881
248.10	2.973
248.57	2.577
249.04	2.728
249.51	2.746
249.98	2.391
250.45	2.736
250.92	2.925
251.39	2.706
251.85	2.519
252.32	2.546
252.79	2.707
253.26	2.530
253.73	2.538
254.20	2.448
254.67	2.543
255.14	2.609
255.61	2.549
256.08	2.674
256.55	2.734
257.02	2.744
257.49	2.734
257.95	2.957
258.42	2.693
258.89	2.658
259.36	2.920
259.83	2.699
260.30	2.677
260.77	2.723
261.24	2.703
261.71	2.843
262.17	2.737
262.64	2.719
263.11	2.810
263.58	3.153
264.05	2.804
264.52	2.997
264.99	2.922
265.46	2.807
265.92	3.113
266.39	2.865
266.86	3.087
267.33	2.890
267.80	2.764
268.27	2.720
268.74	3.015
269.20	2.641
269.67	2.763
270.14	2.734
270.61	2.664
271.08	2.820
271.55	2.729
272.01	2.920
272.48	3.022
272.95	2.685
273.42	2.664
273.89	2.715
274.36	2.750
274.82	2.807
275.29	2.791
275.76	2.697
276.23	2.684
276.70	2.546
277.16	3.016
277.63	2.753
278.10	2.721
278.57	2.903
279.04	2.690
279.50	2.518
279.97	2.545
280.44	2.552
280.91	2.790
281.38	2.956
281.84	2.653
282.31	2.623
282.78	2.740
283.25	2.547
283.72	2.631
284.18	2.636
284.65	2.876
285.12	2.587
285.59	2.851
286.05	2.694
286.52	2.663
286.99	2.600
287.46	2.513
287.92	2.676
288.39	2.622
288.86	2.657
289.33	2.670
289.79	2.615
290.26	2.556
290.73	2.458
291.20	2.490
291.66	2.563
292.13	2.690
292.60	2.464
293.07	2.725
293.53	2.458
294.00	2.541
294.47	2.791
294.93	2.509
295.40	2.588
295.87	2.417
296.34	2.507
296.80	2.588
297.27	2.623
297.74	2.458
298.20	2.622
298.67	2.498
299.14	2.541
299.60	2.527
300.07	2.363
300.54	2.516
301.01	2.575
301.47	2.482
301.94	2.458
302.41	2.434
302.87	2.375
303.34	2.461
303.81	2.219
304.27	2.341
304.74	2.383
305.21	2.276
305.67	2.356
306.14	2.389
306.61	2.265
307.07	2.437
307.54	2.310
308.01	2.402
308.47	2.378
308.94	2.331
309.40	2.343
309.87	2.335
310.34	2.182
310.80	2.380
311.27	2.320
311.74	2.312
312.20	2.293
312.67	2.378
313.13	2.399
313.60	2.302
314.07	2.279
314.53	2.349
315.00	2.401
315.47	2.311
315.93	2.282
316.40	2.337
316.86	2.342
317.33	2.416
317.80	2.221
318.26	2.284
318.73	2.366
319.19	2.306
319.66	2.172
320.13	2.381
320.59	2.188
321.06	2.269
321.52	2.304
321.99	2.241
322.45	2.257
322.92	2.276
323.39	2.178
323.85	2.197
324.32	2.287
324.78	2.193
325.25	2.368
325.71	2.223
326.18	2.101
326.64	2.172
327.11	2.111
327.58	2.173
328.04	2.070
328.51	1.995
328.97	2.172
329.44	2.054
329.90	2.015
330.37	2.093
330.83	1.991
331.30	1.989
331.76	2.000
332.23	1.941
332.69	1.907
333.16	1.868
333.62	1.880
334.09	1.884
334.56	1.795
335.02	1.719
335.49	1.703
335.95	1.650
336.42	1.599
336.88	1.562
337.35	1.517
337.81	1.484
338.28	1.426
338.74	1.381
339.20	1.363
339.67	1.332
340.13	1.268
340.60	1.237
341.06	1.182
341.53	1.132
341.99	1.080
342.46	1.044
342.92	1.008
343.39	0.967
343.85	0.926
344.32	0.903
344.78	0.866
345.25	0.834
345.71	0.802
346.17	0.770
346.64	0.731
347.10	0.693
347.57	0.662
348.03	0.631
348.50	0.603
348.96	0.579
349.43	0.552
349.89	0.522
350.35	0.508
350.82	0.482
351.28	0.463
351.75	0.449
352.21	0.426
352.67	0.407
353.14	0.396
353.60	0.380
354.07	0.367
354.53	0.356
355.00	0.339
355.46	0.332
355.92	0.329
356.39	0.318
356.85	0.309
357.31	0.298
357.78	0.291
358.24	0.289
358.71	0.283
359.17	0.275
359.63	0.272
360.10	0.265
360.56	0.267
361.03	0.261
361.49	0.258
361.95	0.255
362.42	0.254
362.88	0.250
363.34	0.251
363.81	0.248
364.27	0.249
364.73	0.244
365.20	0.240
365.66	0.237
366.12	0.238
366.59	0.235
367.05	0.234
367.51	0.233
367.98	0.233
368.44	0.228
368.90	0.228
369.37	0.227
369.83	0.228
370.29	0.227
370.76	0.223
371.22	0.226
371.68	0.222
372.15	0.221
372.61	0.221
373.07	0.217
373.54	0.217
374.00	0.219
374.46	0.217
374.92	0.217
375.39	0.215
375.85	0.214
376.31	0.212
376.78	0.212
377.24	0.211
377.70	0.210
378.16	0.209
378.63	0.209
379.09	0.211
379.55	0.210
380.01	0.207
380.48	0.205
380.94	0.208
381.40	0.205
381.87	0.204
382.33	0.204
382.79	0.206
383.25	0.201
383.72	0.201
384.18	0.202
384.64	0.205
385.10	0.199
385.56	0.199
386.03	0.196
386.49	0.197
386.95	0.196
387.41	0.198
387.88	0.197
388.34	0.197
388.80	0.195
389.26	0.193
389.72	0.194
390.19	0.192
390.65	0.193
391.11	0.193
391.57	0.188
392.04	0.189
392.50	0.192
392.96	0.192
393.42	0.189
393.88	0.188
394.34	0.184
394.81	0.189
395.27	0.189
395.73	0.186
396.19	0.187
396.65	0.189
397.12	0.184
397.58	0.182
398.04	0.183
398.50	0.182
398.96	0.184
399.42	0.183
399.89	0.185
400.35	0.180
400.81	0.179
401.27	0.179
401.73	0.180
402.19	0.177
402.65	0.174
403.12	0.173
403.58	0.174
404.04	0.174
404.50	0.174
404.96	0.173
405.42	0.172
405.88	0.171
406.34	0.171
406.81	0.173
407.27	0.169
407.73	0.168
408.19	0.169
408.65	0.168
409.11	0.165
409.57	0.164
410.03	0.165
410.49	0.167
410.96	0.163
411.42	0.163
411.88	0.160
412.34	0.163
412.80	0.166
413.26	0.162
413.72	0.160
414.18	0.158
414.64	0.162
415.10	0.161
415.56	0.158
416.02	0.159
416.48	0.162
416.95	0.153
417.41	0.157
417.87	0.157
418.33	0.158
418.79	0.156
419.25	0.153
419.71	0.154
420.17	0.154
420.63	0.153
421.09	0.155
421.55	0.156
422.01	0.155
422.47	0.151
422.93	0.153
423.39	0.152
423.85	0.152
424.31	0.151
424.77	0.151
425.23	0.156
425.69	0.150
426.15	0.151
426.61	0.149
427.07	0.149
427.53	0.150
427.99	0.147
428.45	0.147
428.91	0.144
429.37	0.146
429.83	0.149
430.29	0.148
430.75	0.150
431.21	0.148
431.67	0.147
432.13	0.145
432.59	0.141
433.05	0.144
433.51	0.146
433.97	0.142
434.43	0.143
434.89	0.145
435.35	0.141
435.81	0.139
436.27	0.141
436.73	0.139
437.19	0.140
437.65	0.143
438.11	0.142
438.57	0.141
439.03	0.139
439.48	0.142
439.94	0.140
440.40	0.142
440.86	0.138
441.32	0.137
441.78	0.135
442.24	0.137
442.70	0.135
443.16	0.137
443.62	0.137
444.08	0.139
444.54	0.138
444.99	0.140
445.45	0.135
445.91	0.133
446.37	0.134
446.83	0.131
447.29	0.132
447.75	0.133
448.21	0.135
448.67	0.132
449.12	0.128
449.58	0.133
450.04	0.135
450.50	0.129
450.96	0.130
451.42	0.130
451.88	0.133
452.34	0.132
452.79	0.129
453.25	0.134
453.71	0.131
454.17	0.129
454.63	0.128
455.09	0.129
455.55	0.128
456.00	0.127
456.46	0.125
456.92	0.130
457.38	0.126
457.84	0.128
458.30	0.127
458.75	0.129
459.21	0.125
459.67	0.130
460.13	0.125
460.59	0.127
461.04	0.128
461.50	0.128
461.96	0.128
462.42	0.128
462.88	0.127
463.33	0.125
463.79	0.126
464.25	0.125
464.71	0.125
465.17	0.125
465.62	0.124
466.08	0.127
466.54	0.125
467.00	0.125
467.46	0.126
467.91	0.123
468.37	0.123
468.83	0.124
469.29	0.127
469.74	0.125
470.20	0.125
470.66	0.125
471.12	0.124
471.57	0.125
472.03	0.124
472.49	0.125
472.95	0.124
473.40	0.124
473.86	0.123
474.32	0.123
474.78	0.124
475.23	0.122
475.69	0.124
476.15	0.123
476.60	0.122
477.06	0.121
477.52	0.123
477.98	0.123
478.43	0.122
478.89	0.122
479.35	0.122
479.80	0.122
480.26	0.123
480.72	0.123
481.18	0.121
481.63	0.122
482.09	0.119
482.55	0.121
483.00	0.120
483.46	0.122
483.92	0.120
484.37	0.121
484.83	0.122
485.29	0.121
485.74	0.122
486.20	0.122
486.66	0.119
487.11	0.121
487.57	0.119
488.03	0.120
488.48	0.120
488.94	0.120
489.40	0.122
489.85	0.121
490.31	0.118
490.77	0.120
491.22	0.116
491.68	0.120
492.13	0.119
492.59	0.119
493.05	0.118
493.50	0.118
493.96	0.118
494.42	0.118
494.87	0.118
495.33	0.119
495.78	0.118
496.24	0.118
496.70	0.119
497.15	0.117
497.61	0.116
498.06	0.117
498.52	0.116
498.98	0.119
499.43	0.119
499.89	0.117
500.34	0.118
500.80	0.117
501.25	0.117
501.71	0.115
502.17	0.116
502.62	0.114
503.08	0.115
503.53	0.116
503.99	0.114
504.44	0.117
504.90	0.112
505.36	0.114
505.81	0.115
506.27	0.114
506.72	0.115
507.18	0.116
507.63	0.113
508.09	0.114
508.54	0.112
509.00	0.113
509.45	0.113
509.91	0.114
510.36	0.112
510.82	0.114
511.27	0.115
511.73	0.114
512.19	0.113
512.64	0.111
513.10	0.113
513.55	0.112
514.01	0.114
514.46	0.111
514.92	0.110
515.37	0.109
515.83	0.111
516.28	0.112
516.73	0.111
517.19	0.107
517.64	0.111
518.10	0.112
518.55	0.109
519.01	0.109
519.46	0.110
519.92	0.109
520.37	0.111
520.83	0.110
521.28	0.110
521.74	0.110
522.19	0.107
522.65	0.109
523.10	0.110
523.55	0.110
524.01	0.110
524.46	0.109
524.92	0.110
525.37	0.108
525.83	0.109
526.28	0.109
526.73	0.108
527.19	0.110
527.64	0.110
528.10	0.108
528.55	0.108
529.01	0.108
529.46	0.108
529.91	0.111
530.37	0.113
530.82	0.106
531.28	0.112
531.73	0.111
532.18	0.107
532.64	0.109
533.09	0.109
533.54	0.109
534.00	0.105
534.45	0.110
534.91	0.109
535.36	0.109
535.81	0.109
536.27	0.110
536.72	0.112
537.17	0.109
537.63	0.112
538.08	0.111
538.54	0.110
538.99	0.111
539.44	0.113
539.90	0.110
540.35	0.113
540.80	0.113
541.26	0.112
541.71	0.111
542.16	0.111
542.62	0.113
543.07	0.113
543.52	0.113
543.98	0.112
544.43	0.113
544.88	0.117
545.34	0.114
545.79	0.115
546.24	0.115
546.69	0.115
547.15	0.116
547.60	0.117
548.05	0.119
548.51	0.118
548.96	0.117
549.41	0.120
549.86	0.118
550.32	0.120
550.77	0.119
551.22	0.121
551.68	0.121
552.13	0.121
552.58	0.123
553.03	0.124
553.49	0.123
553.94	0.124
554.39	0.124
554.84	0.124
555.30	0.125
555.75	0.126
556.20	0.125
556.65	0.128
557.11	0.128
557.56	0.129
558.01	0.127
558.46	0.130
558.92	0.131
559.37	0.131
559.82	0.130
560.27	0.130
560.72	0.133
561.18	0.133
561.63	0.133
562.08	0.136
562.53	0.135
562.99	0.137
563.44	0.135
563.89	0.135
564.34	0.137
564.79	0.138
565.25	0.139
565.70	0.141
566.15	0.141
566.60	0.140
567.05	0.142
567.50	0.143
567.96	0.143
568.41	0.145
568.86	0.145
569.31	0.147
569.76	0.147
570.21	0.147
570.67	0.149
571.12	0.149
571.57	0.149
572.02	0.150
572.47	0.153
572.92	0.153
573.37	0.153
573.83	0.152
574.28	0.153
574.73	0.156
575.18	0.157
575.63	0.158
576.08	0.160
576.53	0.161
576.98	0.162
577.44	0.163
577.89	0.163
578.34	0.165
578.79	0.167
579.24	0.166
579.69	0.168
580.14	0.169
580.59	0.172
581.04	0.173
581.49	0.174
581.95	0.173
582.40	0.177
582.85	0.180
583.30	0.179
583.75	0.182
584.20	0.185
584.65	0.184
585.10	0.186
585.55	0.189
586.00	0.191
586.45	0.193
586.90	0.196
587.35	0.196
587.80	0.198
588.25	0.199
588.71	0.201
589.16	0.205
589.61	0.207
590.06	0.210
590.51	0.214
590.96	0.212
591.41	0.216
591.86	0.217
592.31	0.219
592.76	0.220
593.21	0.223
593.66	0.226
594.11	0.227
594.56	0.231
595.01	0.233
595.46	0.235
595.91	0.238
596.36	0.241
596.81	0.243
597.26	0.246
597.71	0.247
598.16	0.250
598.61	0.253
599.06	0.256
599.51	0.258
599.96	0.260
600.41	0.263
600.86	0.265
601.31	0.268
601.76	0.270
602.21	0.268
602.65	0.275
603.10	0.277
603.55	0.283
604.00	0.281
604.45	0.284
604.90	0.288
605.35	0.290
605.80	0.291
606.25	0.294
606.70	0.296
607.15	0.296
607.60	0.297
608.05	0.302
608.50	0.301
608.95	0.305
609.39	0.304
609.84	0.308
610.29	0.310
610.74	0.312
611.19	0.313
611.64	0.313
612.09	0.312
612.54	0.314
612.99	0.317
613.44	0.319
613.88	0.318
614.33	0.320
614.78	0.319
615.23	0.324
615.68	0.323
616.13	0.324
616.58	0.325
617.03	0.324
617.47	0.324
617.92	0.322
618.37	0.327
618.82	0.325
619.27	0.328
619.72	0.327
620.17	0.325
620.61	0.329
621.06	0.331
621.51	0.330
621.96	0.330
622.41	0.333
622.86	0.332
623.30	0.333
623.75	0.333
624.20	0.335
624.65	0.337
625.10	0.336
625.54	0.337
625.99	0.338
626.44	0.341
626.89	0.341
627.34	0.339
627.78	0.341
628.23	0.342
628.68	0.345
629.13	0.347
629.58	0.348
630.02	0.350
630.47	0.354
630.92	0.354
631.37	0.355
631.81	0.357
632.26	0.359
632.71	0.359
633.16	0.365
633.61	0.364
634.05	0.368
634.50	0.370
634.95	0.374
635.40	0.377
635.84	0.379
636.29	0.382
636.74	0.383
637.18	0.387
637.63	0.389
638.08	0.392
638.53	0.396
638.97	0.399
639.42	0.403
639.87	0.404
640.32	0.408
640.76	0.413
641.21	0.417
641.66	0.418
642.10	0.423
642.55	0.427
643.00	0.431
643.44	0.433
643.89	0.439
644.34	0.445
644.79	0.449
645.23	0.448
645.68	0.457
646.13	0.461
646.57	0.464
647.02	0.471
647.47	0.474
647.91	0.479
648.36	0.483
648.81	0.489
649.25	0.488
649.70	0.492
650.15	0.498
650.59	0.501
651.04	0.504
651.48	0.511
651.93	0.512
652.38	0.520
652.82	0.521
653.27	0.521
653.72	0.531
654.16	0.533
654.61	0.537
655.06	0.539
655.50	0.544
655.95	0.545
656.39	0.548
656.84	0.553
657.29	0.556
657.73	0.561
658.18	0.561
658.62	0.566
659.07	0.568
659.52	0.570
659.96	0.574
660.41	0.580
660.85	0.577
661.30	0.578
661.74	0.585
662.19	0.584
662.64	0.583
663.08	0.584
663.53	0.590
663.97	0.590
664.42	0.587
664.86	0.588
665.31	0.592
665.75	0.590
666.20	0.589
666.65	0.596
667.09	0.588
667.54	0.586
667.98	0.583
668.43	0.585
668.87	0.581
669.32	0.578
669.76	0.574
670.21	0.570
670.65	0.566
671.10	0.560
671.54	0.556
671.99	0.549
672.43	0.543
672.88	0.534
673.32	0.529
673.77	0.522
674.21	0.514
674.66	0.507
675.10	0.499
675.55	0.486
675.99	0.480
676.44	0.470
676.88	0.462
677.33	0.452
677.77	0.440
678.22	0.428
678.66	0.417
679.11	0.404
679.55	0.400
679.99	0.387
680.44	0.377
680.88	0.369
681.33	0.354
681.77	0.346
682.22	0.336
682.66	0.327
683.11	0.316
683.55	0.305
683.99	0.295
684.44	0.288
684.88	0.278
685.33	0.269
685.77	0.260
686.21	0.251
686.66	0.242
687.10	0.230
687.55	0.225
687.99	0.220
688.44	0.213
688.88	0.203
689.32	0.197
689.77	0.192
690.21	0.186
690.65	0.177
691.10	0.172
691.54	0.168
691.99	0.160
692.43	0.157
692.87	0.151
693.32	0.147
693.76	0.141
694.20	0.138
694.65	0.133
695.09	0.129
695.53	0.126
695.98	0.123
696.42	0.116
696.86	0.114
697.31	0.113
697.75	0.111
698.19	0.105
698.64	0.104
699.08	0.102
699.52	0.099
699.97	0.094
700.41	0.094
700.85	0.090
701.30	0.091
701.74	0.087
702.18	0.086
702.63	0.085
703.07	0.084
703.51	0.083
703.96	0.079
704.40	0.080
704.84	0.079
705.28	0.077
705.73	0.075
706.17	0.073
706.61	0.072
707.06	0.072
707.50	0.070
707.94	0.068
708.38	0.068
708.83	0.069
709.27	0.069
709.71	0.065
710.15	0.068
710.60	0.065
711.04	0.064
711.48	0.062
711.92	0.061
712.37	0.065
712.81	0.062
713.25	0.060
713.69	0.062
714.13	0.061
714.58	0.060
715.02	0.061
715.46	0.057
715.90	0.059
716.35	0.057
716.79	0.057
717.23	0.058
717.67	0.057
718.11	0.060
718.56	0.058
719.00	0.056
719.44	0.057
719.88	0.058
720.32	0.057
720.76	0.056
721.21	0.054
721.65	0.053
722.09	0.058
722.53	0.057
722.97	0.059
723.41	0.057
723.86	0.058
724.30	0.056
724.74	0.054
725.18	0.058
725.62	0.055
726.06	0.056
726.50	0.057
726.95	0.055
727.39	0.056
727.83	0.058
728.27	0.057
728.71	0.055
729.15	0.057
729.59	0.058
730.03	0.057
730.48	0.055
730.92	0.055
731.36	0.057
731.80	0.056
732.24	0.057
732.68	0.058
733.12	0.059
733.56	0.056
734.00	0.060
734.44	0.059
734.89	0.058
735.33	0.058
735.77	0.057
736.21	0.059
736.65	0.058
737.09	0.058
737.53	0.058
737.97	0.058
738.41	0.055
738.85	0.061
739.29	0.058
739.73	0.059
740.17	0.059
740.61	0.058
741.05	0.057
741.49	0.058
741.93	0.059
742.37	0.059
742.81	0.057
743.26	0.057
743.70	0.056
744.14	0.057
744.58	0.060
745.02	0.057
745.46	0.058
745.90	0.056
746.34	0.057
746.78	0.058
747.22	0.055
747.66	0.057
748.10	0.056
748.54	0.058
748.98	0.056
749.42	0.058
749.86	0.060
750.29	0.056
750.73	0.054
751.17	0.057
751.61	0.055
752.05	0.057
752.49	0.058
752.93	0.051
753.37	0.057
753.81	0.056
754.25	0.054
754.69	0.058
755.13	0.053
755.57	0.057
756.01	0.055
756.45	0.053
756.89	0.054
757.33	0.060
757.77	0.056
758.21	0.056
758.64	0.057
759.08	0.052
759.52	0.055
759.96	0.054
760.40	0.055
760.84	0.056
761.28	0.054
761.72	0.056
762.16	0.056
762.60	0.056
763.03	0.053
763.47	0.055
763.91	0.054
764.35	0.052
764.79	0.053
765.23	0.055
765.67	0.053
766.11	0.053
766.54	0.056
766.98	0.054
767.42	0.054
767.86	0.056
768.30	0.056
768.74	0.053
769.17	0.054
769.61	0.053
770.05	0.057
770.49	0.054
770.93	0.055
771.37	0.053
771.80	0.052
772.24	0.052
772.68	0.056
773.12	0.056
773.56	0.053
774.00	0.057
774.43	0.053
774.87	0.050
775.31	0.053
775.75	0.051
776.19	0.053
776.62	0.054
777.06	0.053
777.50	0.056
777.94	0.053
778.37	0.053
778.81	0.052
779.25	0.054
779.69	0.051
780.13	0.056
780.56	0.053
781.00	0.055
781.44	0.056
781.88	0.055
782.31	0.053
782.75	0.053
783.19	0.051
783.63	0.052
784.06	0.053
784.50	0.049
784.94	0.056
785.37	0.050
785.81	0.055
786.25	0.053
786.69	0.052
787.12	0.052
787.56	0.053
788.00	0.054
788.43	0.052
788.87	0.050
789.31	0.052
789.75	0.053
790.18	0.052
790.62	0.051
791.06	0.057
791.49	0.051
791.93	0.052
792.37	0.054
792.80	0.052
793.24	0.052
793.68	0.050
794.11	0.053
794.55	0.051
794.99	0.050
795.42	0.050
795.86	0.050
796.30	0.047
796.73	0.048
797.17	0.053
797.61	0.048
798.04	0.049
798.48	0.051
798.91	0.052
799.35	0.055
799.79	0.046
800.22	0.053
800.66	0.050
801.10	0.054
801.53	0.054
801.97	0.053
802.40	0.051
802.84	0.049
803.28	0.051
803.71	0.054
804.15	0.051
804.58	0.050
805.02	0.050
805.46	0.053
805.89	0.049
806.33	0.052
806.76	0.052
807.20	0.054
807.63	0.053
808.07	0.051
808.51	0.047
808.94	0.054
809.38	0.051
809.81	0.051
810.25	0.053
810.68	0.053
811.12	0.053
811.55	0.050
811.99	0.050
812.42	0.051
812.86	0.047
813.29	0.050
813.73	0.050
814.17	0.053
814.60	0.051
815.04	0.050
815.47	0.049
815.91	0.055
816.34	0.054
816.78	0.047
817.21	0.051
817.65	0.050
