SpectraSuite Data File
++++++++++++++++++++++++++++++++++++
Date: Mon Jul 10 14:32:47 CEST 2017
User: IPCE
Dark Spectrum Present: Yes
Reference Spectrum Present: Yes
Number of Sampled Component Spectra: 1
Spectrometers: HR+C0708
Integration Time (usec): 1000 (HR+C0708)
Spectra Averaged: 10 (HR+C0708)
Boxcar Smoothing: 0 (HR+C0708)
Correct for Electrical Dark: No (HR+C0708)
Strobe/Lamp Enabled: No (HR+C0708)
Correct for Detector Non-linearity: No (HR+C0708)
Correct for Stray Light: No (HR+C0708)
Number of Pixels in Processed Spectrum: 2048
>>>>>Begin Processed Spectral Data<<<<<
188.76	0.628
189.23	-0.000
189.70	-0.000
190.17	1.356
190.64	-0.000
191.12	-0.000
191.59	-0.000
192.06	-0.000
192.53	1.193
193.01	-0.000
193.48	-0.000
193.95	-0.000
194.42	0.821
194.90	0.619
195.37	-0.000
195.84	-0.000
196.31	-0.000
196.78	-0.000
197.26	0.607
197.73	-0.000
198.20	-0.000
198.67	-0.000
199.14	-0.000
199.62	-0.000
200.09	1.643
200.56	1.717
201.03	-0.000
201.50	0.771
201.97	0.621
202.45	0.721
202.92	0.951
203.39	0.898
203.86	0.790
204.33	0.657
204.80	0.801
205.28	-0.000
205.75	1.268
206.22	1.390
206.69	0.694
207.16	0.710
207.63	-0.000
208.11	0.781
208.58	0.765
209.05	1.039
209.52	0.727
209.99	1.648
210.46	1.053
210.93	-0.000
211.41	1.187
211.88	0.975
212.35	0.822
212.82	1.210
213.29	0.769
213.76	1.349
214.23	-0.000
214.70	0.851
215.18	-0.000
215.65	-0.000
216.12	0.995
216.59	1.524
217.06	0.579
217.53	0.821
218.00	0.980
218.47	0.746
218.94	0.942
219.41	1.089
219.89	0.740
220.36	0.658
220.83	0.786
221.30	0.762
221.77	0.742
222.24	0.796
222.71	1.256
223.18	1.065
223.65	0.897
224.12	0.943
224.59	0.941
225.06	0.909
225.54	0.888
226.01	1.273
226.48	1.552
226.95	1.673
227.42	1.084
227.89	1.254
228.36	-0.000
228.83	1.443
229.30	1.224
229.77	1.791
230.24	1.418
230.71	1.856
231.18	-0.000
231.65	2.714
232.12	2.122
232.59	2.066
233.06	1.938
233.53	1.976
234.00	1.904
234.47	1.951
234.94	-0.000
235.41	1.779
235.88	2.128
236.35	2.018
236.82	2.370
237.29	-0.000
237.76	3.047
238.23	-0.000
238.70	-0.000
239.17	2.461
239.64	2.285
240.11	2.677
240.58	2.321
241.05	2.674
241.52	2.340
241.99	2.486
242.46	3.286
242.93	2.827
243.40	2.751
243.87	3.522
244.34	2.758
244.81	2.539
245.28	-0.000
245.75	2.518
246.22	2.614
246.69	2.726
247.16	2.816
247.63	2.822
248.10	2.813
248.57	3.337
249.04	2.760
249.51	2.685
249.98	2.871
250.45	3.619
250.92	-0.000
251.39	3.623
251.85	2.692
252.32	2.642
252.79	-0.000
253.26	2.735
253.73	2.942
254.20	2.669
254.67	2.549
255.14	3.061
255.61	3.024
256.08	2.721
256.55	2.795
257.02	4.030
257.49	2.969
257.95	2.864
258.42	2.762
258.89	2.857
259.36	3.065
259.83	2.617
260.30	2.757
260.77	2.925
261.24	2.776
261.71	2.851
262.17	2.950
262.64	2.800
263.11	2.738
263.58	3.509
264.05	2.852
264.52	2.814
264.99	2.945
265.46	2.827
265.92	3.022
266.39	2.793
266.86	2.805
267.33	3.135
267.80	2.785
268.27	2.796
268.74	2.945
269.20	2.778
269.67	2.760
270.14	2.701
270.61	2.814
271.08	3.185
271.55	2.908
272.01	2.875
272.48	2.852
272.95	2.660
273.42	2.717
273.89	2.721
274.36	2.900
274.82	2.543
275.29	2.739
275.76	2.754
276.23	2.600
276.70	2.423
277.16	2.561
277.63	2.720
278.10	2.489
278.57	2.684
279.04	2.575
279.50	2.411
279.97	2.485
280.44	2.566
280.91	2.651
281.38	2.780
281.84	2.546
282.31	2.537
282.78	2.568
283.25	2.462
283.72	2.460
284.18	2.667
284.65	2.618
285.12	2.430
285.59	2.484
286.05	2.421
286.52	2.511
286.99	2.475
287.46	2.387
287.92	2.410
288.39	2.397
288.86	2.397
289.33	2.463
289.79	2.399
290.26	2.367
290.73	2.276
291.20	2.373
291.66	2.296
292.13	2.332
292.60	2.293
293.07	2.365
293.53	2.246
294.00	2.248
294.47	2.341
294.93	2.275
295.40	2.275
295.87	2.255
296.34	2.288
296.80	2.332
297.27	2.311
297.74	2.258
298.20	2.276
298.67	2.170
299.14	2.246
299.60	2.196
300.07	2.128
300.54	2.227
301.01	2.208
301.47	2.236
301.94	2.146
302.41	2.194
302.87	2.158
303.34	2.195
303.81	2.000
304.27	2.158
304.74	2.133
305.21	2.111
305.67	2.106
306.14	2.087
306.61	2.065
307.07	2.124
307.54	2.127
308.01	2.114
308.47	2.071
308.94	2.053
309.40	2.044
309.87	2.100
310.34	2.019
310.80	2.040
311.27	2.064
311.74	2.046
312.20	2.017
312.67	2.054
313.13	2.031
313.60	2.008
314.07	2.002
314.53	2.000
315.00	2.035
315.47	1.950
315.93	1.981
316.40	2.026
316.86	1.985
317.33	1.977
317.80	1.960
318.26	1.964
318.73	1.973
319.19	1.915
319.66	1.930
320.13	1.990
320.59	1.915
321.06	1.906
321.52	1.949
321.99	1.865
322.45	1.916
322.92	1.930
323.39	1.860
323.85	1.861
324.32	1.859
324.78	1.840
325.25	1.872
325.71	1.825
326.18	1.802
326.64	1.830
327.11	1.786
327.58	1.801
328.04	1.775
328.51	1.726
328.97	1.752
329.44	1.730
329.90	1.733
330.37	1.748
330.83	1.677
331.30	1.706
331.76	1.721
332.23	1.679
332.69	1.676
333.16	1.663
333.62	1.655
334.09	1.623
334.56	1.594
335.02	1.581
335.49	1.574
335.95	1.510
336.42	1.501
336.88	1.508
337.35	1.455
337.81	1.435
338.28	1.419
338.74	1.404
339.20	1.386
339.67	1.364
340.13	1.329
340.60	1.305
341.06	1.275
341.53	1.255
341.99	1.233
342.46	1.197
342.92	1.174
343.39	1.143
343.85	1.121
344.32	1.102
344.78	1.090
345.25	1.065
345.71	1.041
346.17	1.013
346.64	0.995
347.10	0.974
347.57	0.943
348.03	0.925
348.50	0.908
348.96	0.891
349.43	0.871
349.89	0.852
350.35	0.838
350.82	0.832
351.28	0.805
351.75	0.795
352.21	0.781
352.67	0.758
353.14	0.758
353.60	0.733
354.07	0.724
354.53	0.714
355.00	0.709
355.46	0.693
355.92	0.685
356.39	0.672
356.85	0.662
357.31	0.652
357.78	0.638
358.24	0.639
358.71	0.633
359.17	0.622
359.63	0.613
360.10	0.613
360.56	0.609
361.03	0.602
361.49	0.597
361.95	0.594
362.42	0.592
362.88	0.587
363.34	0.585
363.81	0.582
364.27	0.575
364.73	0.574
365.20	0.574
365.66	0.571
366.12	0.567
366.59	0.561
367.05	0.563
367.51	0.560
367.98	0.554
368.44	0.551
368.90	0.549
369.37	0.545
369.83	0.546
370.29	0.546
370.76	0.544
371.22	0.544
371.68	0.541
372.15	0.536
372.61	0.536
373.07	0.529
373.54	0.528
374.00	0.530
374.46	0.523
374.92	0.524
375.39	0.528
375.85	0.520
376.31	0.521
376.78	0.517
377.24	0.518
377.70	0.515
378.16	0.516
378.63	0.513
379.09	0.513
379.55	0.512
380.01	0.504
380.48	0.503
380.94	0.506
381.40	0.502
381.87	0.500
382.33	0.503
382.79	0.499
383.25	0.496
383.72	0.499
384.18	0.491
384.64	0.491
385.10	0.491
385.56	0.488
386.03	0.487
386.49	0.484
386.95	0.484
387.41	0.484
387.88	0.483
388.34	0.478
388.80	0.484
389.26	0.477
389.72	0.478
390.19	0.476
390.65	0.473
391.11	0.474
391.57	0.473
392.04	0.470
392.50	0.468
392.96	0.464
393.42	0.466
393.88	0.465
394.34	0.464
394.81	0.464
395.27	0.464
395.73	0.461
396.19	0.457
396.65	0.458
397.12	0.454
397.58	0.454
398.04	0.452
398.50	0.449
398.96	0.452
399.42	0.448
399.89	0.448
400.35	0.449
400.81	0.446
401.27	0.445
401.73	0.443
402.19	0.445
402.65	0.441
403.12	0.436
403.58	0.440
404.04	0.436
404.50	0.433
404.96	0.434
405.42	0.434
405.88	0.434
406.34	0.432
406.81	0.428
407.27	0.424
407.73	0.428
408.19	0.425
408.65	0.423
409.11	0.423
409.57	0.421
410.03	0.423
410.49	0.420
410.96	0.418
411.42	0.417
411.88	0.413
412.34	0.417
412.80	0.418
413.26	0.416
413.72	0.412
414.18	0.410
414.64	0.408
415.10	0.410
415.56	0.411
416.02	0.409
416.48	0.406
416.95	0.400
417.41	0.405
417.87	0.401
418.33	0.401
418.79	0.400
419.25	0.396
419.71	0.400
420.17	0.397
420.63	0.397
421.09	0.396
421.55	0.396
422.01	0.395
422.47	0.394
422.93	0.393
423.39	0.391
423.85	0.391
424.31	0.389
424.77	0.387
425.23	0.389
425.69	0.387
426.15	0.387
426.61	0.380
427.07	0.384
427.53	0.382
427.99	0.380
428.45	0.376
428.91	0.376
429.37	0.378
429.83	0.379
430.29	0.379
430.75	0.379
431.21	0.379
431.67	0.375
432.13	0.374
432.59	0.367
433.05	0.368
433.51	0.369
433.97	0.369
434.43	0.371
434.89	0.364
435.35	0.362
435.81	0.367
436.27	0.362
436.73	0.359
437.19	0.364
437.65	0.363
438.11	0.362
438.57	0.360
439.03	0.358
439.48	0.356
439.94	0.352
440.40	0.355
440.86	0.354
441.32	0.352
441.78	0.353
442.24	0.352
442.70	0.346
443.16	0.349
443.62	0.348
444.08	0.346
444.54	0.348
444.99	0.345
445.45	0.345
445.91	0.344
446.37	0.340
446.83	0.339
447.29	0.339
447.75	0.339
448.21	0.334
448.67	0.338
449.12	0.336
449.58	0.335
450.04	0.338
450.50	0.333
450.96	0.333
451.42	0.333
451.88	0.335
452.34	0.333
452.79	0.328
453.25	0.331
453.71	0.330
454.17	0.331
454.63	0.326
455.09	0.327
455.55	0.324
456.00	0.323
456.46	0.325
456.92	0.323
457.38	0.320
457.84	0.323
458.30	0.320
458.75	0.321
459.21	0.316
459.67	0.325
460.13	0.314
460.59	0.316
461.04	0.321
461.50	0.317
461.96	0.314
462.42	0.315
462.88	0.316
463.33	0.313
463.79	0.313
464.25	0.314
464.71	0.312
465.17	0.310
465.62	0.310
466.08	0.312
466.54	0.310
467.00	0.309
467.46	0.308
467.91	0.309
468.37	0.304
468.83	0.306
469.29	0.305
469.74	0.305
470.20	0.301
470.66	0.302
471.12	0.303
471.57	0.303
472.03	0.301
472.49	0.303
472.95	0.299
473.40	0.295
473.86	0.298
474.32	0.297
474.78	0.295
475.23	0.293
475.69	0.296
476.15	0.295
476.60	0.293
477.06	0.295
477.52	0.294
477.98	0.294
478.43	0.294
478.89	0.290
479.35	0.291
479.80	0.289
480.26	0.291
480.72	0.289
481.18	0.286
481.63	0.288
482.09	0.285
482.55	0.289
483.00	0.287
483.46	0.285
483.92	0.286
484.37	0.286
484.83	0.282
485.29	0.284
485.74	0.282
486.20	0.282
486.66	0.284
487.11	0.283
487.57	0.281
488.03	0.281
488.48	0.279
488.94	0.278
489.40	0.277
489.85	0.277
490.31	0.279
490.77	0.276
491.22	0.276
491.68	0.278
492.13	0.273
492.59	0.273
493.05	0.272
493.50	0.273
493.96	0.273
494.42	0.271
494.87	0.274
495.33	0.271
495.78	0.273
496.24	0.270
496.70	0.269
497.15	0.268
497.61	0.270
498.06	0.268
498.52	0.268
498.98	0.268
499.43	0.269
499.89	0.264
500.34	0.267
500.80	0.265
501.25	0.266
501.71	0.265
502.17	0.265
502.62	0.264
503.08	0.262
503.53	0.265
503.99	0.264
504.44	0.264
504.90	0.260
505.36	0.259
505.81	0.259
506.27	0.260
506.72	0.260
507.18	0.260
507.63	0.258
508.09	0.258
508.54	0.257
509.00	0.258
509.45	0.257
509.91	0.258
510.36	0.254
510.82	0.257
511.27	0.255
511.73	0.258
512.19	0.253
512.64	0.252
513.10	0.253
513.55	0.250
514.01	0.249
514.46	0.249
514.92	0.247
515.37	0.246
515.83	0.250
516.28	0.249
516.73	0.249
517.19	0.244
517.64	0.246
518.10	0.247
518.55	0.245
519.01	0.246
519.46	0.244
519.92	0.247
520.37	0.245
520.83	0.245
521.28	0.246
521.74	0.242
522.19	0.243
522.65	0.241
523.10	0.240
523.55	0.242
524.01	0.241
524.46	0.241
524.92	0.242
525.37	0.240
525.83	0.240
526.28	0.238
526.73	0.241
527.19	0.238
527.64	0.238
528.10	0.236
528.55	0.238
529.01	0.237
529.46	0.237
529.91	0.235
530.37	0.234
530.82	0.234
531.28	0.232
531.73	0.235
532.18	0.237
532.64	0.232
533.09	0.233
533.54	0.235
534.00	0.230
534.45	0.232
534.91	0.231
535.36	0.234
535.81	0.232
536.27	0.229
536.72	0.231
537.17	0.229
537.63	0.232
538.08	0.229
538.54	0.229
538.99	0.228
539.44	0.228
539.90	0.228
540.35	0.228
540.80	0.227
541.26	0.226
541.71	0.225
542.16	0.224
542.62	0.228
543.07	0.224
543.52	0.225
543.98	0.224
544.43	0.223
544.88	0.226
545.34	0.225
545.79	0.221
546.24	0.222
546.69	0.221
547.15	0.224
547.60	0.221
548.05	0.223
548.51	0.221
548.96	0.220
549.41	0.221
549.86	0.219
550.32	0.221
550.77	0.219
551.22	0.222
551.68	0.219
552.13	0.218
552.58	0.218
553.03	0.216
553.49	0.220
553.94	0.219
554.39	0.217
554.84	0.216
555.30	0.215
555.75	0.216
556.20	0.215
556.65	0.216
557.11	0.216
557.56	0.215
558.01	0.215
558.46	0.214
558.92	0.217
559.37	0.214
559.82	0.214
560.27	0.212
560.72	0.213
561.18	0.215
561.63	0.213
562.08	0.212
562.53	0.210
562.99	0.211
563.44	0.212
563.89	0.210
564.34	0.210
564.79	0.210
565.25	0.211
565.70	0.210
566.15	0.211
566.60	0.206
567.05	0.210
567.50	0.208
567.96	0.209
568.41	0.207
568.86	0.207
569.31	0.209
569.76	0.210
570.21	0.207
570.67	0.206
571.12	0.206
571.57	0.205
572.02	0.206
572.47	0.205
572.92	0.205
573.37	0.205
573.83	0.203
574.28	0.204
574.73	0.201
575.18	0.204
575.63	0.204
576.08	0.203
576.53	0.202
576.98	0.202
577.44	0.203
577.89	0.202
578.34	0.203
578.79	0.201
579.24	0.200
579.69	0.201
580.14	0.203
580.59	0.200
581.04	0.199
581.49	0.201
581.95	0.198
582.40	0.200
582.85	0.198
583.30	0.199
583.75	0.200
584.20	0.201
584.65	0.198
585.10	0.199
585.55	0.199
586.00	0.197
586.45	0.198
586.90	0.199
587.35	0.198
587.80	0.198
588.25	0.198
588.71	0.196
589.16	0.200
589.61	0.198
590.06	0.198
590.51	0.198
590.96	0.195
591.41	0.197
591.86	0.197
592.31	0.197
592.76	0.193
593.21	0.195
593.66	0.196
594.11	0.196
594.56	0.195
595.01	0.195
595.46	0.196
595.91	0.195
596.36	0.196
596.81	0.195
597.26	0.197
597.71	0.196
598.16	0.195
598.61	0.195
599.06	0.197
599.51	0.194
599.96	0.195
600.41	0.193
600.86	0.195
601.31	0.195
601.76	0.194
602.21	0.195
602.65	0.192
603.10	0.195
603.55	0.194
604.00	0.195
604.45	0.196
604.90	0.194
605.35	0.193
605.80	0.194
606.25	0.195
606.70	0.193
607.15	0.193
607.60	0.193
608.05	0.191
608.50	0.192
608.95	0.194
609.39	0.191
609.84	0.191
610.29	0.192
610.74	0.191
611.19	0.191
611.64	0.191
612.09	0.190
612.54	0.191
612.99	0.192
613.44	0.191
613.88	0.192
614.33	0.189
614.78	0.188
615.23	0.190
615.68	0.190
616.13	0.189
616.58	0.191
617.03	0.189
617.47	0.190
617.92	0.188
618.37	0.188
618.82	0.187
619.27	0.187
619.72	0.187
620.17	0.188
620.61	0.187
621.06	0.187
621.51	0.188
621.96	0.186
622.41	0.186
622.86	0.185
623.30	0.187
623.75	0.186
624.20	0.187
624.65	0.188
625.10	0.183
625.54	0.185
625.99	0.184
626.44	0.186
626.89	0.184
627.34	0.184
627.78	0.184
628.23	0.184
628.68	0.183
629.13	0.185
629.58	0.184
630.02	0.186
630.47	0.184
630.92	0.184
631.37	0.183
631.81	0.184
632.26	0.184
632.71	0.184
633.16	0.184
633.61	0.183
634.05	0.183
634.50	0.183
634.95	0.183
635.40	0.184
635.84	0.183
636.29	0.184
636.74	0.184
637.18	0.184
637.63	0.184
638.08	0.185
638.53	0.184
638.97	0.184
639.42	0.185
639.87	0.181
640.32	0.182
640.76	0.182
641.21	0.183
641.66	0.181
642.10	0.182
642.55	0.184
643.00	0.184
643.44	0.182
643.89	0.182
644.34	0.184
644.79	0.184
645.23	0.183
645.68	0.185
646.13	0.182
646.57	0.184
647.02	0.185
647.47	0.184
647.91	0.183
648.36	0.183
648.81	0.185
649.25	0.185
649.70	0.183
650.15	0.183
650.59	0.182
651.04	0.183
651.48	0.183
651.93	0.185
652.38	0.183
652.82	0.185
653.27	0.183
653.72	0.183
654.16	0.185
654.61	0.185
655.06	0.185
655.50	0.182
655.95	0.180
656.39	0.183
656.84	0.182
657.29	0.184
657.73	0.183
658.18	0.185
658.62	0.186
659.07	0.183
659.52	0.182
659.96	0.183
660.41	0.181
660.85	0.181
661.30	0.182
661.74	0.183
662.19	0.182
662.64	0.181
663.08	0.183
663.53	0.184
663.97	0.182
664.42	0.181
664.86	0.181
665.31	0.182
665.75	0.180
666.20	0.182
666.65	0.180
667.09	0.179
667.54	0.176
667.98	0.179
668.43	0.176
668.87	0.178
669.32	0.179
669.76	0.177
670.21	0.176
670.65	0.176
671.10	0.177
671.54	0.177
671.99	0.175
672.43	0.174
672.88	0.172
673.32	0.171
673.77	0.174
674.21	0.171
674.66	0.170
675.10	0.170
675.55	0.168
675.99	0.168
676.44	0.166
676.88	0.169
677.33	0.168
677.77	0.165
678.22	0.164
678.66	0.163
679.11	0.161
679.55	0.163
679.99	0.162
680.44	0.160
680.88	0.161
681.33	0.158
681.77	0.159
682.22	0.158
682.66	0.158
683.11	0.156
683.55	0.153
683.99	0.155
684.44	0.155
684.88	0.152
685.33	0.153
685.77	0.155
686.21	0.151
686.66	0.150
687.10	0.147
687.55	0.150
687.99	0.149
688.44	0.149
688.88	0.148
689.32	0.146
689.77	0.148
690.21	0.146
690.65	0.144
691.10	0.145
691.54	0.145
691.99	0.145
692.43	0.143
692.87	0.145
693.32	0.143
693.76	0.143
694.20	0.144
694.65	0.142
695.09	0.143
695.53	0.144
695.98	0.142
696.42	0.140
696.86	0.140
697.31	0.140
697.75	0.142
698.19	0.136
698.64	0.139
699.08	0.140
699.52	0.141
699.97	0.138
700.41	0.138
700.85	0.136
701.30	0.141
701.74	0.137
702.18	0.137
702.63	0.138
703.07	0.138
703.51	0.139
703.96	0.137
704.40	0.140
704.84	0.139
705.28	0.138
705.73	0.137
706.17	0.135
706.61	0.136
707.06	0.137
707.50	0.137
707.94	0.136
708.38	0.134
708.83	0.136
709.27	0.133
709.71	0.134
710.15	0.134
710.60	0.135
711.04	0.133
711.48	0.133
711.92	0.130
712.37	0.134
712.81	0.134
713.25	0.133
713.69	0.134
714.13	0.135
714.58	0.134
715.02	0.133
715.46	0.134
715.90	0.132
716.35	0.132
716.79	0.133
717.23	0.134
717.67	0.135
718.11	0.134
718.56	0.131
719.00	0.134
719.44	0.133
719.88	0.134
720.32	0.135
720.76	0.132
721.21	0.134
721.65	0.128
722.09	0.133
722.53	0.131
722.97	0.131
723.41	0.132
723.86	0.134
724.30	0.133
724.74	0.131
725.18	0.132
725.62	0.130
726.06	0.131
726.50	0.135
726.95	0.133
727.39	0.134
727.83	0.131
728.27	0.132
728.71	0.130
729.15	0.132
729.59	0.135
730.03	0.133
730.48	0.131
730.92	0.130
731.36	0.131
731.80	0.130
732.24	0.130
732.68	0.132
733.12	0.134
733.56	0.131
734.00	0.133
734.44	0.131
734.89	0.130
735.33	0.132
735.77	0.131
736.21	0.133
736.65	0.129
737.09	0.131
737.53	0.132
737.97	0.132
738.41	0.132
738.85	0.134
739.29	0.129
739.73	0.132
740.17	0.131
740.61	0.131
741.05	0.130
741.49	0.132
741.93	0.129
742.37	0.131
742.81	0.129
743.26	0.132
743.70	0.130
744.14	0.128
744.58	0.129
745.02	0.129
745.46	0.128
745.90	0.132
746.34	0.131
746.78	0.129
747.22	0.131
747.66	0.131
748.10	0.129
748.54	0.132
748.98	0.129
749.42	0.132
749.86	0.129
750.29	0.124
750.73	0.127
751.17	0.128
751.61	0.129
752.05	0.126
752.49	0.128
752.93	0.123
753.37	0.129
753.81	0.129
754.25	0.127
754.69	0.129
755.13	0.126
755.57	0.129
756.01	0.126
756.45	0.127
756.89	0.124
757.33	0.128
757.77	0.126
758.21	0.124
758.64	0.129
759.08	0.126
759.52	0.124
759.96	0.123
760.40	0.121
760.84	0.126
761.28	0.125
761.72	0.126
762.16	0.128
762.60	0.127
763.03	0.123
763.47	0.127
763.91	0.123
764.35	0.124
764.79	0.120
765.23	0.126
765.67	0.122
766.11	0.125
766.54	0.129
766.98	0.127
767.42	0.122
767.86	0.123
768.30	0.126
768.74	0.123
769.17	0.122
769.61	0.123
770.05	0.125
770.49	0.124
770.93	0.123
771.37	0.123
771.80	0.122
772.24	0.122
772.68	0.124
773.12	0.126
773.56	0.123
774.00	0.122
774.43	0.121
774.87	0.122
775.31	0.122
775.75	0.123
776.19	0.123
776.62	0.123
777.06	0.125
777.50	0.122
777.94	0.121
778.37	0.124
778.81	0.123
779.25	0.122
779.69	0.119
780.13	0.123
780.56	0.121
781.00	0.123
781.44	0.121
781.88	0.125
782.31	0.121
782.75	0.119
783.19	0.117
783.63	0.116
784.06	0.120
784.50	0.118
784.94	0.121
785.37	0.118
785.81	0.120
786.25	0.117
786.69	0.120
787.12	0.117
787.56	0.120
788.00	0.118
788.43	0.120
788.87	0.116
789.31	0.114
789.75	0.119
790.18	0.119
790.62	0.119
791.06	0.118
791.49	0.119
791.93	0.118
792.37	0.117
792.80	0.114
793.24	0.112
793.68	0.115
794.11	0.117
794.55	0.118
794.99	0.116
795.42	0.114
795.86	0.112
796.30	0.112
796.73	0.113
797.17	0.119
797.61	0.111
798.04	0.115
798.48	0.114
798.91	0.112
799.35	0.115
799.79	0.114
800.22	0.120
800.66	0.113
801.10	0.115
801.53	0.115
801.97	0.114
802.40	0.115
802.84	0.113
803.28	0.115
803.71	0.112
804.15	0.116
804.58	0.115
805.02	0.114
805.46	0.111
805.89	0.117
806.33	0.116
806.76	0.117
807.20	0.111
807.63	0.115
808.07	0.114
808.51	0.113
808.94	0.113
809.38	0.111
809.81	0.114
810.25	0.115
810.68	0.114
811.12	0.117
811.55	0.114
811.99	0.115
812.42	0.114
812.86	0.114
813.29	0.112
813.73	0.112
814.17	0.111
814.60	0.111
815.04	0.110
815.47	0.110
815.91	0.115
816.34	0.111
816.78	0.106
817.21	0.113
