SpectraSuite Data File
++++++++++++++++++++++++++++++++++++
Date: Mon Jul 10 14:23:17 CEST 2017
User: IPCE
Dark Spectrum Present: Yes
Reference Spectrum Present: Yes
Number of Sampled Component Spectra: 1
Spectrometers: HR+C0708
Integration Time (usec): 1000 (HR+C0708)
Spectra Averaged: 10 (HR+C0708)
Boxcar Smoothing: 0 (HR+C0708)
Correct for Electrical Dark: No (HR+C0708)
Strobe/Lamp Enabled: No (HR+C0708)
Correct for Detector Non-linearity: No (HR+C0708)
Correct for Stray Light: No (HR+C0708)
Number of Pixels in Processed Spectrum: 2048
>>>>>Begin Processed Spectral Data<<<<<
188.76	0.422
189.23	-0.000
189.70	0.985
190.17	0.477
190.64	-0.000
191.12	-0.000
191.59	-0.000
192.06	-0.000
192.53	0.591
193.01	-0.000
193.48	-0.000
193.95	-0.000
194.42	-0.000
194.90	-0.000
195.37	-0.000
195.84	-0.000
196.31	-0.000
196.78	-0.000
197.26	0.377
197.73	-0.000
198.20	-0.000
198.67	-0.000
199.14	0.795
199.62	-0.000
200.09	1.020
200.56	-0.000
201.03	1.104
201.50	-0.000
201.97	0.725
202.45	0.899
202.92	0.781
203.39	1.426
203.86	0.890
204.33	0.518
204.80	-0.000
205.28	1.349
205.75	-0.000
206.22	0.831
206.69	1.426
207.16	0.964
207.63	0.642
208.11	0.457
208.58	0.591
209.05	0.555
209.52	0.594
209.99	-0.000
210.46	0.771
210.93	0.673
211.41	0.736
211.88	0.799
212.35	0.798
212.82	0.988
213.29	0.781
213.76	-0.000
214.23	1.323
214.70	0.817
215.18	-0.000
215.65	1.073
216.12	0.497
216.59	0.713
217.06	0.467
217.53	1.145
218.00	0.812
218.47	0.572
218.94	1.161
219.41	1.045
219.89	0.867
220.36	0.670
220.83	0.578
221.30	0.834
221.77	0.935
222.24	0.945
222.71	1.191
223.18	0.965
223.65	0.913
224.12	1.074
224.59	1.000
225.06	0.721
225.54	1.048
226.01	1.247
226.48	1.342
226.95	2.190
227.42	1.185
227.89	1.601
228.36	-0.000
228.83	1.548
229.30	1.210
229.77	1.334
230.24	1.592
230.71	2.555
231.18	-0.000
231.65	1.640
232.12	1.740
232.59	1.539
233.06	1.713
233.53	1.836
234.00	2.221
234.47	1.773
234.94	1.890
235.41	1.889
235.88	1.963
236.35	2.048
236.82	1.863
237.29	3.079
237.76	2.488
238.23	2.964
238.70	2.910
239.17	2.181
239.64	2.475
240.11	2.376
240.58	2.338
241.05	2.536
241.52	2.403
241.99	2.208
242.46	3.031
242.93	3.119
243.40	3.198
243.87	3.030
244.34	3.684
244.81	2.483
245.28	3.190
245.75	2.436
246.22	2.704
246.69	2.709
247.16	2.611
247.63	3.843
248.10	2.707
248.57	2.780
249.04	2.738
249.51	2.810
249.98	2.669
250.45	2.669
250.92	-0.000
251.39	2.813
251.85	2.832
252.32	2.824
252.79	3.816
253.26	2.625
253.73	2.658
254.20	2.954
254.67	2.675
255.14	2.975
255.61	2.644
256.08	2.964
256.55	2.632
257.02	2.835
257.49	2.662
257.95	2.986
258.42	2.626
258.89	2.637
259.36	3.542
259.83	2.879
260.30	2.798
260.77	2.813
261.24	2.920
261.71	2.905
262.17	2.656
262.64	2.780
263.11	2.641
263.58	3.280
264.05	2.856
264.52	2.791
264.99	2.854
265.46	2.680
265.92	2.957
266.39	2.966
266.86	2.883
267.33	2.867
267.80	2.669
268.27	2.806
268.74	2.886
269.20	2.711
269.67	2.828
270.14	2.677
270.61	2.718
271.08	2.851
271.55	2.802
272.01	3.131
272.48	2.783
272.95	2.597
273.42	2.736
273.89	2.727
274.36	2.730
274.82	2.724
275.29	2.850
275.76	2.673
276.23	2.565
276.70	2.413
277.16	2.709
277.63	2.638
278.10	2.681
278.57	2.697
279.04	2.608
279.50	2.369
279.97	2.568
280.44	2.434
280.91	2.739
281.38	2.705
281.84	2.516
282.31	2.737
282.78	2.548
283.25	2.504
283.72	2.593
284.18	2.515
284.65	2.515
285.12	2.359
285.59	2.471
286.05	2.391
286.52	2.447
286.99	2.357
287.46	2.478
287.92	2.555
288.39	2.380
288.86	2.533
289.33	2.523
289.79	2.391
290.26	2.320
290.73	2.367
291.20	2.352
291.66	2.358
292.13	2.331
292.60	2.415
293.07	2.369
293.53	2.385
294.00	2.332
294.47	2.340
294.93	2.228
295.40	2.326
295.87	2.280
296.34	2.330
296.80	2.291
297.27	2.264
297.74	2.268
298.20	2.321
298.67	2.256
299.14	2.310
299.60	2.187
300.07	2.165
300.54	2.297
301.01	2.181
301.47	2.169
301.94	2.187
302.41	2.218
302.87	2.224
303.34	2.212
303.81	2.082
304.27	2.135
304.74	2.172
305.21	2.083
305.67	2.165
306.14	2.216
306.61	2.123
307.07	2.206
307.54	2.098
308.01	2.149
308.47	2.131
308.94	2.098
309.40	2.151
309.87	2.095
310.34	2.022
310.80	2.101
311.27	2.070
311.74	2.051
312.20	2.088
312.67	2.065
313.13	2.097
313.60	2.063
314.07	2.045
314.53	2.040
315.00	2.048
315.47	2.007
315.93	1.995
316.40	2.024
316.86	2.037
317.33	2.044
317.80	2.014
318.26	2.027
318.73	2.032
319.19	1.986
319.66	1.960
320.13	2.018
320.59	1.945
321.06	1.986
321.52	2.008
321.99	1.942
322.45	1.977
322.92	1.959
323.39	1.923
323.85	1.905
324.32	1.937
324.78	1.939
325.25	1.943
325.71	1.898
326.18	1.869
326.64	1.890
327.11	1.865
327.58	1.897
328.04	1.851
328.51	1.832
328.97	1.834
329.44	1.815
329.90	1.780
330.37	1.820
330.83	1.760
331.30	1.804
331.76	1.788
332.23	1.728
332.69	1.733
333.16	1.697
333.62	1.700
334.09	1.699
334.56	1.641
335.02	1.620
335.49	1.597
335.95	1.571
336.42	1.562
336.88	1.524
337.35	1.498
337.81	1.463
338.28	1.451
338.74	1.419
339.20	1.405
339.67	1.390
340.13	1.349
340.60	1.335
341.06	1.272
341.53	1.260
341.99	1.224
342.46	1.194
342.92	1.167
343.39	1.144
343.85	1.106
344.32	1.082
344.78	1.067
345.25	1.046
345.71	1.014
346.17	0.990
346.64	0.960
347.10	0.933
347.57	0.910
348.03	0.890
348.50	0.865
348.96	0.843
349.43	0.820
349.89	0.803
350.35	0.787
350.82	0.775
351.28	0.752
351.75	0.748
352.21	0.724
352.67	0.707
353.14	0.705
353.60	0.681
354.07	0.679
354.53	0.658
355.00	0.650
355.46	0.641
355.92	0.633
356.39	0.616
356.85	0.609
357.31	0.601
357.78	0.590
358.24	0.584
358.71	0.576
359.17	0.566
359.63	0.562
360.10	0.557
360.56	0.553
361.03	0.549
361.49	0.545
361.95	0.542
362.42	0.535
362.88	0.527
363.34	0.532
363.81	0.527
364.27	0.523
364.73	0.520
365.20	0.517
365.66	0.514
366.12	0.510
366.59	0.508
367.05	0.509
367.51	0.505
367.98	0.504
368.44	0.502
368.90	0.498
369.37	0.495
369.83	0.492
370.29	0.491
370.76	0.485
371.22	0.489
371.68	0.483
372.15	0.481
372.61	0.482
373.07	0.479
373.54	0.478
374.00	0.481
374.46	0.479
374.92	0.474
375.39	0.473
375.85	0.469
376.31	0.468
376.78	0.467
377.24	0.466
377.70	0.463
378.16	0.464
378.63	0.465
379.09	0.461
379.55	0.457
380.01	0.457
380.48	0.457
380.94	0.452
381.40	0.452
381.87	0.451
382.33	0.452
382.79	0.448
383.25	0.445
383.72	0.446
384.18	0.445
384.64	0.446
385.10	0.440
385.56	0.436
386.03	0.438
386.49	0.437
386.95	0.434
387.41	0.436
387.88	0.432
388.34	0.431
388.80	0.431
389.26	0.428
389.72	0.427
390.19	0.427
390.65	0.426
391.11	0.424
391.57	0.423
392.04	0.424
392.50	0.420
392.96	0.421
393.42	0.420
393.88	0.419
394.34	0.418
394.81	0.413
395.27	0.416
395.73	0.411
396.19	0.410
396.65	0.412
397.12	0.409
397.58	0.404
398.04	0.407
398.50	0.404
398.96	0.406
399.42	0.403
399.89	0.403
400.35	0.403
400.81	0.401
401.27	0.400
401.73	0.401
402.19	0.397
402.65	0.392
403.12	0.392
403.58	0.389
404.04	0.392
404.50	0.392
404.96	0.388
405.42	0.390
405.88	0.384
406.34	0.384
406.81	0.385
407.27	0.382
407.73	0.382
408.19	0.383
408.65	0.380
409.11	0.379
409.57	0.379
410.03	0.377
410.49	0.377
410.96	0.379
411.42	0.371
411.88	0.372
412.34	0.371
412.80	0.373
413.26	0.369
413.72	0.373
414.18	0.369
414.64	0.367
415.10	0.367
415.56	0.366
416.02	0.367
416.48	0.364
416.95	0.361
417.41	0.359
417.87	0.361
418.33	0.360
418.79	0.358
419.25	0.357
419.71	0.357
420.17	0.358
420.63	0.355
421.09	0.355
421.55	0.352
422.01	0.352
422.47	0.353
422.93	0.350
423.39	0.352
423.85	0.347
424.31	0.347
424.77	0.348
425.23	0.347
425.69	0.345
426.15	0.347
426.61	0.345
427.07	0.345
427.53	0.341
427.99	0.340
428.45	0.338
428.91	0.339
429.37	0.338
429.83	0.339
430.29	0.339
430.75	0.339
431.21	0.338
431.67	0.335
432.13	0.333
432.59	0.330
433.05	0.331
433.51	0.330
433.97	0.329
434.43	0.331
434.89	0.330
435.35	0.326
435.81	0.326
436.27	0.325
436.73	0.322
437.19	0.322
437.65	0.322
438.11	0.320
438.57	0.321
439.03	0.314
439.48	0.321
439.94	0.315
440.40	0.314
440.86	0.314
441.32	0.316
441.78	0.313
442.24	0.313
442.70	0.314
443.16	0.313
443.62	0.315
444.08	0.310
444.54	0.308
444.99	0.310
445.45	0.312
445.91	0.306
446.37	0.307
446.83	0.303
447.29	0.305
447.75	0.303
448.21	0.301
448.67	0.302
449.12	0.302
449.58	0.301
450.04	0.301
450.50	0.298
450.96	0.295
451.42	0.297
451.88	0.297
452.34	0.293
452.79	0.296
453.25	0.298
453.71	0.296
454.17	0.293
454.63	0.292
455.09	0.293
455.55	0.292
456.00	0.289
456.46	0.289
456.92	0.287
457.38	0.285
457.84	0.283
458.30	0.284
458.75	0.288
459.21	0.283
459.67	0.285
460.13	0.284
460.59	0.284
461.04	0.284
461.50	0.285
461.96	0.282
462.42	0.283
462.88	0.280
463.33	0.278
463.79	0.278
464.25	0.277
464.71	0.277
465.17	0.278
465.62	0.276
466.08	0.279
466.54	0.280
467.00	0.278
467.46	0.277
467.91	0.275
468.37	0.274
468.83	0.272
469.29	0.274
469.74	0.274
470.20	0.273
470.66	0.271
471.12	0.269
471.57	0.270
472.03	0.268
472.49	0.267
472.95	0.267
473.40	0.264
473.86	0.264
474.32	0.266
474.78	0.262
475.23	0.265
475.69	0.263
476.15	0.262
476.60	0.263
477.06	0.262
477.52	0.260
477.98	0.262
478.43	0.261
478.89	0.259
479.35	0.259
479.80	0.259
480.26	0.259
480.72	0.260
481.18	0.256
481.63	0.258
482.09	0.252
482.55	0.258
483.00	0.255
483.46	0.257
483.92	0.254
484.37	0.253
484.83	0.250
485.29	0.254
485.74	0.254
486.20	0.255
486.66	0.253
487.11	0.254
487.57	0.250
488.03	0.251
488.48	0.249
488.94	0.250
489.40	0.249
489.85	0.247
490.31	0.247
490.77	0.244
491.22	0.246
491.68	0.247
492.13	0.245
492.59	0.243
493.05	0.244
493.50	0.244
493.96	0.243
494.42	0.241
494.87	0.242
495.33	0.244
495.78	0.243
496.24	0.239
496.70	0.242
497.15	0.239
497.61	0.241
498.06	0.239
498.52	0.237
498.98	0.242
499.43	0.237
499.89	0.237
500.34	0.234
500.80	0.237
501.25	0.236
501.71	0.236
502.17	0.236
502.62	0.236
503.08	0.236
503.53	0.236
503.99	0.232
504.44	0.233
504.90	0.233
505.36	0.232
505.81	0.231
506.27	0.232
506.72	0.232
507.18	0.232
507.63	0.232
508.09	0.231
508.54	0.228
509.00	0.229
509.45	0.229
509.91	0.229
510.36	0.230
510.82	0.229
511.27	0.229
511.73	0.228
512.19	0.226
512.64	0.226
513.10	0.226
513.55	0.224
514.01	0.224
514.46	0.225
514.92	0.221
515.37	0.221
515.83	0.225
516.28	0.221
516.73	0.221
517.19	0.220
517.64	0.222
518.10	0.222
518.55	0.219
519.01	0.218
519.46	0.218
519.92	0.217
520.37	0.218
520.83	0.217
521.28	0.218
521.74	0.214
522.19	0.215
522.65	0.215
523.10	0.218
523.55	0.216
524.01	0.216
524.46	0.215
524.92	0.214
525.37	0.215
525.83	0.213
526.28	0.213
526.73	0.213
527.19	0.212
527.64	0.211
528.10	0.213
528.55	0.211
529.01	0.211
529.46	0.211
529.91	0.210
530.37	0.210
530.82	0.210
531.28	0.206
531.73	0.210
532.18	0.210
532.64	0.209
533.09	0.207
533.54	0.208
534.00	0.205
534.45	0.207
534.91	0.207
535.36	0.205
535.81	0.204
536.27	0.203
536.72	0.205
537.17	0.204
537.63	0.203
538.08	0.204
538.54	0.203
538.99	0.201
539.44	0.203
539.90	0.200
540.35	0.204
540.80	0.202
541.26	0.202
541.71	0.200
542.16	0.202
542.62	0.201
543.07	0.200
543.52	0.197
543.98	0.199
544.43	0.199
544.88	0.200
545.34	0.199
545.79	0.198
546.24	0.196
546.69	0.198
547.15	0.197
547.60	0.196
548.05	0.200
548.51	0.199
548.96	0.197
549.41	0.195
549.86	0.194
550.32	0.194
550.77	0.194
551.22	0.196
551.68	0.195
552.13	0.194
552.58	0.193
553.03	0.195
553.49	0.194
553.94	0.194
554.39	0.194
554.84	0.192
555.30	0.189
555.75	0.191
556.20	0.189
556.65	0.191
557.11	0.191
557.56	0.191
558.01	0.190
558.46	0.189
558.92	0.193
559.37	0.190
559.82	0.189
560.27	0.189
560.72	0.188
561.18	0.189
561.63	0.188
562.08	0.187
562.53	0.186
562.99	0.188
563.44	0.187
563.89	0.184
564.34	0.187
564.79	0.184
565.25	0.186
565.70	0.187
566.15	0.185
566.60	0.183
567.05	0.185
567.50	0.184
567.96	0.185
568.41	0.185
568.86	0.186
569.31	0.185
569.76	0.184
570.21	0.184
570.67	0.183
571.12	0.182
571.57	0.182
572.02	0.182
572.47	0.184
572.92	0.181
573.37	0.182
573.83	0.180
574.28	0.180
574.73	0.178
575.18	0.179
575.63	0.179
576.08	0.178
576.53	0.178
576.98	0.180
577.44	0.178
577.89	0.178
578.34	0.179
578.79	0.177
579.24	0.176
579.69	0.177
580.14	0.179
580.59	0.177
581.04	0.176
581.49	0.176
581.95	0.175
582.40	0.175
582.85	0.177
583.30	0.175
583.75	0.175
584.20	0.176
584.65	0.175
585.10	0.174
585.55	0.175
586.00	0.175
586.45	0.174
586.90	0.174
587.35	0.174
587.80	0.176
588.25	0.172
588.71	0.172
589.16	0.176
589.61	0.173
590.06	0.174
590.51	0.176
590.96	0.172
591.41	0.172
591.86	0.173
592.31	0.173
592.76	0.170
593.21	0.170
593.66	0.173
594.11	0.171
594.56	0.172
595.01	0.172
595.46	0.172
595.91	0.174
596.36	0.172
596.81	0.172
597.26	0.174
597.71	0.173
598.16	0.170
598.61	0.171
599.06	0.174
599.51	0.169
599.96	0.170
600.41	0.170
600.86	0.171
601.31	0.169
601.76	0.170
602.21	0.170
602.65	0.170
603.10	0.170
603.55	0.173
604.00	0.170
604.45	0.169
604.90	0.170
605.35	0.170
605.80	0.168
606.25	0.171
606.70	0.169
607.15	0.169
607.60	0.167
608.05	0.168
608.50	0.168
608.95	0.167
609.39	0.168
609.84	0.167
610.29	0.169
610.74	0.167
611.19	0.167
611.64	0.168
612.09	0.164
612.54	0.167
612.99	0.167
613.44	0.168
613.88	0.168
614.33	0.164
614.78	0.166
615.23	0.166
615.68	0.166
616.13	0.165
616.58	0.166
617.03	0.165
617.47	0.166
617.92	0.164
618.37	0.165
618.82	0.164
619.27	0.164
619.72	0.164
620.17	0.162
620.61	0.163
621.06	0.163
621.51	0.163
621.96	0.162
622.41	0.163
622.86	0.162
623.30	0.165
623.75	0.163
624.20	0.162
624.65	0.163
625.10	0.160
625.54	0.160
625.99	0.160
626.44	0.163
626.89	0.161
627.34	0.162
627.78	0.160
628.23	0.160
628.68	0.161
629.13	0.161
629.58	0.159
630.02	0.160
630.47	0.161
630.92	0.159
631.37	0.162
631.81	0.159
632.26	0.161
632.71	0.158
633.16	0.161
633.61	0.159
634.05	0.161
634.50	0.157
634.95	0.160
635.40	0.159
635.84	0.160
636.29	0.159
636.74	0.160
637.18	0.158
637.63	0.158
638.08	0.159
638.53	0.161
638.97	0.158
639.42	0.160
639.87	0.157
640.32	0.158
640.76	0.159
641.21	0.158
641.66	0.157
642.10	0.158
642.55	0.159
643.00	0.159
643.44	0.157
643.89	0.159
644.34	0.157
644.79	0.159
645.23	0.155
645.68	0.160
646.13	0.160
646.57	0.158
647.02	0.157
647.47	0.159
647.91	0.159
648.36	0.159
648.81	0.159
649.25	0.159
649.70	0.158
650.15	0.157
650.59	0.157
651.04	0.157
651.48	0.157
651.93	0.158
652.38	0.160
652.82	0.159
653.27	0.157
653.72	0.159
654.16	0.159
654.61	0.159
655.06	0.160
655.50	0.155
655.95	0.155
656.39	0.157
656.84	0.157
657.29	0.158
657.73	0.156
658.18	0.157
658.62	0.157
659.07	0.157
659.52	0.156
659.96	0.158
660.41	0.158
660.85	0.155
661.30	0.155
661.74	0.158
662.19	0.157
662.64	0.158
663.08	0.156
663.53	0.159
663.97	0.157
664.42	0.157
664.86	0.156
665.31	0.157
665.75	0.155
666.20	0.156
666.65	0.155
667.09	0.153
667.54	0.153
667.98	0.154
668.43	0.154
668.87	0.154
669.32	0.153
669.76	0.154
670.21	0.151
670.65	0.154
671.10	0.151
671.54	0.151
671.99	0.151
672.43	0.151
672.88	0.149
673.32	0.149
673.77	0.150
674.21	0.148
674.66	0.147
675.10	0.147
675.55	0.145
675.99	0.147
676.44	0.146
676.88	0.144
677.33	0.145
677.77	0.143
678.22	0.144
678.66	0.142
679.11	0.142
679.55	0.141
679.99	0.142
680.44	0.142
680.88	0.142
681.33	0.137
681.77	0.138
682.22	0.137
682.66	0.139
683.11	0.135
683.55	0.135
683.99	0.135
684.44	0.138
684.88	0.135
685.33	0.133
685.77	0.135
686.21	0.133
686.66	0.131
687.10	0.130
687.55	0.130
687.99	0.132
688.44	0.132
688.88	0.131
689.32	0.128
689.77	0.131
690.21	0.131
690.65	0.131
691.10	0.129
691.54	0.129
691.99	0.127
692.43	0.127
692.87	0.127
693.32	0.125
693.76	0.124
694.20	0.127
694.65	0.126
695.09	0.127
695.53	0.128
695.98	0.124
696.42	0.126
696.86	0.123
697.31	0.124
697.75	0.125
698.19	0.125
698.64	0.125
699.08	0.125
699.52	0.123
699.97	0.122
700.41	0.124
700.85	0.121
701.30	0.123
701.74	0.124
702.18	0.122
702.63	0.123
703.07	0.119
703.51	0.124
703.96	0.122
704.40	0.123
704.84	0.122
705.28	0.123
705.73	0.122
706.17	0.121
706.61	0.121
707.06	0.121
707.50	0.121
707.94	0.119
708.38	0.118
708.83	0.121
709.27	0.119
709.71	0.120
710.15	0.121
710.60	0.118
711.04	0.119
711.48	0.121
711.92	0.119
712.37	0.120
712.81	0.120
713.25	0.120
713.69	0.120
714.13	0.119
714.58	0.119
715.02	0.122
715.46	0.117
715.90	0.120
716.35	0.119
716.79	0.119
717.23	0.120
717.67	0.120
718.11	0.118
718.56	0.117
719.00	0.118
719.44	0.118
719.88	0.119
720.32	0.118
720.76	0.120
721.21	0.117
721.65	0.116
722.09	0.119
722.53	0.118
722.97	0.121
723.41	0.119
723.86	0.120
724.30	0.118
724.74	0.118
725.18	0.118
725.62	0.117
726.06	0.117
726.50	0.119
726.95	0.120
727.39	0.118
727.83	0.119
728.27	0.116
728.71	0.116
729.15	0.119
729.59	0.119
730.03	0.118
730.48	0.118
730.92	0.117
731.36	0.118
731.80	0.118
732.24	0.116
732.68	0.117
733.12	0.120
733.56	0.118
734.00	0.121
734.44	0.119
734.89	0.118
735.33	0.116
735.77	0.119
736.21	0.120
736.65	0.118
737.09	0.118
737.53	0.118
737.97	0.121
738.41	0.119
738.85	0.121
739.29	0.120
739.73	0.121
740.17	0.121
740.61	0.120
741.05	0.119
741.49	0.119
741.93	0.118
742.37	0.120
742.81	0.117
743.26	0.118
743.70	0.118
744.14	0.115
744.58	0.116
745.02	0.115
745.46	0.116
745.90	0.116
746.34	0.118
746.78	0.117
747.22	0.117
747.66	0.116
748.10	0.116
748.54	0.118
748.98	0.116
749.42	0.118
749.86	0.117
750.29	0.117
750.73	0.113
751.17	0.114
751.61	0.117
752.05	0.116
752.49	0.118
752.93	0.109
753.37	0.116
753.81	0.115
754.25	0.115
754.69	0.118
755.13	0.115
755.57	0.116
756.01	0.112
756.45	0.112
756.89	0.113
757.33	0.118
757.77	0.114
758.21	0.113
758.64	0.116
759.08	0.111
759.52	0.113
759.96	0.114
760.40	0.114
760.84	0.113
761.28	0.112
761.72	0.114
762.16	0.114
762.60	0.114
763.03	0.114
763.47	0.110
763.91	0.112
764.35	0.110
764.79	0.110
765.23	0.117
765.67	0.109
766.11	0.113
766.54	0.115
766.98	0.113
767.42	0.109
767.86	0.114
768.30	0.113
768.74	0.112
769.17	0.110
769.61	0.112
770.05	0.113
770.49	0.112
770.93	0.112
771.37	0.109
771.80	0.110
772.24	0.110
772.68	0.112
773.12	0.117
773.56	0.112
774.00	0.112
774.43	0.109
774.87	0.111
775.31	0.110
775.75	0.109
776.19	0.110
776.62	0.112
777.06	0.111
777.50	0.109
777.94	0.110
778.37	0.110
778.81	0.109
779.25	0.109
779.69	0.105
780.13	0.113
780.56	0.112
781.00	0.111
781.44	0.109
781.88	0.110
782.31	0.110
782.75	0.108
783.19	0.106
783.63	0.103
784.06	0.110
784.50	0.104
784.94	0.111
785.37	0.106
785.81	0.108
786.25	0.103
786.69	0.107
787.12	0.107
787.56	0.109
788.00	0.107
788.43	0.107
788.87	0.108
789.31	0.105
789.75	0.110
790.18	0.107
790.62	0.106
791.06	0.103
791.49	0.106
791.93	0.107
792.37	0.108
792.80	0.104
793.24	0.100
793.68	0.107
794.11	0.106
794.55	0.104
794.99	0.102
795.42	0.105
795.86	0.100
796.30	0.103
796.73	0.104
797.17	0.107
797.61	0.102
798.04	0.104
798.48	0.100
798.91	0.104
799.35	0.104
799.79	0.100
800.22	0.101
800.66	0.103
801.10	0.105
801.53	0.104
801.97	0.108
802.40	0.104
802.84	0.106
803.28	0.106
803.71	0.104
804.15	0.102
804.58	0.102
805.02	0.101
805.46	0.106
805.89	0.102
806.33	0.105
806.76	0.100
807.20	0.105
807.63	0.108
808.07	0.101
808.51	0.101
808.94	0.104
809.38	0.103
809.81	0.106
810.25	0.105
810.68	0.105
811.12	0.101
811.55	0.102
811.99	0.105
812.42	0.101
812.86	0.103
813.29	0.103
813.73	0.098
814.17	0.104
814.60	0.103
815.04	0.101
815.47	0.098
815.91	0.104
816.34	0.100
816.78	0.097
817.21	0.099
