SpectraSuite Data File
++++++++++++++++++++++++++++++++++++
Date: Mon Jul 10 14:21:17 CEST 2017
User: IPCE
Dark Spectrum Present: Yes
Reference Spectrum Present: Yes
Number of Sampled Component Spectra: 1
Spectrometers: HR+C0708
Integration Time (usec): 1000 (HR+C0708)
Spectra Averaged: 10 (HR+C0708)
Boxcar Smoothing: 0 (HR+C0708)
Correct for Electrical Dark: No (HR+C0708)
Strobe/Lamp Enabled: No (HR+C0708)
Correct for Detector Non-linearity: No (HR+C0708)
Correct for Stray Light: No (HR+C0708)
Number of Pixels in Processed Spectrum: 2048
>>>>>Begin Processed Spectral Data<<<<<
188.76	1.243
189.23	1.585
189.70	-0.000
190.17	1.298
190.64	-0.000
191.12	-0.000
191.59	-0.000
192.06	-0.000
192.53	-0.000
193.01	-0.000
193.48	-0.000
193.95	1.021
194.42	-0.000
194.90	2.124
195.37	-0.000
195.84	-0.000
196.31	-0.000
196.78	-0.000
197.26	0.667
197.73	0.802
198.20	-0.000
198.67	0.666
199.14	0.329
199.62	-0.000
200.09	2.342
200.56	0.756
201.03	1.089
201.50	0.906
201.97	0.617
202.45	0.884
202.92	-0.000
203.39	1.400
203.86	0.483
204.33	0.557
204.80	0.890
205.28	1.033
205.75	-0.000
206.22	0.749
206.69	0.668
207.16	0.582
207.63	0.495
208.11	0.797
208.58	0.677
209.05	0.491
209.52	0.547
209.99	-0.000
210.46	0.502
210.93	0.656
211.41	0.686
211.88	0.605
212.35	0.437
212.82	0.681
213.29	0.806
213.76	0.955
214.23	1.154
214.70	0.761
215.18	-0.000
215.65	0.772
216.12	0.680
216.59	0.765
217.06	0.802
217.53	0.656
218.00	0.692
218.47	0.575
218.94	1.161
219.41	0.631
219.89	0.943
220.36	0.504
220.83	0.488
221.30	0.857
221.77	0.771
222.24	0.836
222.71	1.085
223.18	0.748
223.65	0.814
224.12	0.797
224.59	0.899
225.06	0.958
225.54	1.048
226.01	1.301
226.48	1.128
226.95	-0.000
227.42	1.044
227.89	1.417
228.36	-0.000
228.83	1.492
229.30	1.266
229.77	1.291
230.24	1.664
230.71	1.742
231.18	1.561
231.65	1.936
232.12	1.841
232.59	1.671
233.06	1.572
233.53	1.714
234.00	2.124
234.47	1.740
234.94	1.731
235.41	1.824
235.88	2.064
236.35	1.834
236.82	1.965
237.29	2.602
237.76	2.216
238.23	2.388
238.70	2.476
239.17	2.131
239.64	2.133
240.11	2.417
240.58	2.359
241.05	2.321
241.52	2.244
241.99	2.410
242.46	2.523
242.93	2.503
243.40	2.531
243.87	2.978
244.34	3.149
244.81	2.502
245.28	2.757
245.75	2.462
246.22	2.667
246.69	2.620
247.16	2.908
247.63	2.940
248.10	2.894
248.57	2.874
249.04	2.683
249.51	2.959
249.98	2.539
250.45	3.129
250.92	2.744
251.39	2.909
251.85	2.541
252.32	2.672
252.79	-0.000
253.26	2.439
253.73	2.730
254.20	2.456
254.67	2.360
255.14	2.541
255.61	2.873
256.08	2.797
256.55	2.774
257.02	2.831
257.49	3.252
257.95	3.074
258.42	2.631
258.89	2.853
259.36	3.273
259.83	2.705
260.30	2.764
260.77	2.781
261.24	2.902
261.71	2.818
262.17	2.764
262.64	2.931
263.11	2.759
263.58	2.911
264.05	2.834
264.52	2.722
264.99	2.721
265.46	2.647
265.92	3.039
266.39	2.888
266.86	3.075
267.33	3.149
267.80	2.706
268.27	2.689
268.74	2.738
269.20	2.791
269.67	2.839
270.14	2.780
270.61	2.628
271.08	2.867
271.55	2.899
272.01	2.624
272.48	2.645
272.95	2.612
273.42	2.894
273.89	2.546
274.36	2.743
274.82	2.708
275.29	2.726
275.76	2.737
276.23	2.718
276.70	2.510
277.16	2.676
277.63	2.760
278.10	2.681
278.57	2.801
279.04	2.761
279.50	2.494
279.97	2.599
280.44	2.428
280.91	2.606
281.38	2.639
281.84	2.600
282.31	2.518
282.78	2.493
283.25	2.437
283.72	2.511
284.18	2.531
284.65	2.702
285.12	2.451
285.59	2.518
286.05	2.416
286.52	2.599
286.99	2.432
287.46	2.391
287.92	2.520
288.39	2.358
288.86	2.450
289.33	2.533
289.79	2.498
290.26	2.394
290.73	2.335
291.20	2.368
291.66	2.392
292.13	2.419
292.60	2.340
293.07	2.422
293.53	2.307
294.00	2.287
294.47	2.298
294.93	2.294
295.40	2.345
295.87	2.291
296.34	2.387
296.80	2.287
297.27	2.262
297.74	2.289
298.20	2.344
298.67	2.271
299.14	2.269
299.60	2.301
300.07	2.274
300.54	2.274
301.01	2.224
301.47	2.231
301.94	2.177
302.41	2.236
302.87	2.183
303.34	2.246
303.81	2.105
304.27	2.148
304.74	2.191
305.21	2.082
305.67	2.122
306.14	2.135
306.61	2.096
307.07	2.140
307.54	2.078
308.01	2.171
308.47	2.148
308.94	2.114
309.40	2.103
309.87	2.116
310.34	2.044
310.80	2.089
311.27	2.083
311.74	2.075
312.20	2.088
312.67	2.105
313.13	2.101
313.60	2.060
314.07	2.048
314.53	2.020
315.00	2.092
315.47	2.054
315.93	2.066
316.40	2.010
316.86	2.044
317.33	2.027
317.80	2.012
318.26	2.050
318.73	2.040
319.19	2.012
319.66	1.964
320.13	2.023
320.59	1.965
321.06	1.955
321.52	1.980
321.99	1.942
322.45	1.976
322.92	1.981
323.39	1.921
323.85	1.953
324.32	1.967
324.78	1.909
325.25	1.922
325.71	1.900
326.18	1.874
326.64	1.913
327.11	1.884
327.58	1.925
328.04	1.854
328.51	1.829
328.97	1.870
329.44	1.834
329.90	1.794
330.37	1.834
330.83	1.788
331.30	1.821
331.76	1.808
332.23	1.734
332.69	1.754
333.16	1.723
333.62	1.746
334.09	1.737
334.56	1.681
335.02	1.665
335.49	1.654
335.95	1.594
336.42	1.567
336.88	1.556
337.35	1.532
337.81	1.487
338.28	1.462
338.74	1.455
339.20	1.434
339.67	1.403
340.13	1.380
340.60	1.359
341.06	1.323
341.53	1.290
341.99	1.252
342.46	1.222
342.92	1.191
343.39	1.173
343.85	1.140
344.32	1.117
344.78	1.086
345.25	1.068
345.71	1.043
346.17	1.011
346.64	0.983
347.10	0.952
347.57	0.925
348.03	0.900
348.50	0.876
348.96	0.858
349.43	0.830
349.89	0.809
350.35	0.799
350.82	0.780
351.28	0.768
351.75	0.738
352.21	0.732
352.67	0.710
353.14	0.692
353.60	0.671
354.07	0.667
354.53	0.649
355.00	0.639
355.46	0.622
355.92	0.619
356.39	0.607
356.85	0.595
357.31	0.584
357.78	0.573
358.24	0.569
358.71	0.562
359.17	0.550
359.63	0.550
360.10	0.542
360.56	0.539
361.03	0.532
361.49	0.527
361.95	0.524
362.42	0.521
362.88	0.519
363.34	0.514
363.81	0.510
364.27	0.511
364.73	0.504
365.20	0.503
365.66	0.501
366.12	0.498
366.59	0.491
367.05	0.490
367.51	0.492
367.98	0.488
368.44	0.487
368.90	0.484
369.37	0.483
369.83	0.478
370.29	0.479
370.76	0.478
371.22	0.475
371.68	0.469
372.15	0.468
372.61	0.467
373.07	0.469
373.54	0.465
374.00	0.463
374.46	0.463
374.92	0.458
375.39	0.457
375.85	0.456
376.31	0.456
376.78	0.451
377.24	0.450
377.70	0.448
378.16	0.447
378.63	0.447
379.09	0.445
379.55	0.445
380.01	0.443
380.48	0.440
380.94	0.438
381.40	0.435
381.87	0.434
382.33	0.440
382.79	0.437
383.25	0.431
383.72	0.432
384.18	0.427
384.64	0.429
385.10	0.427
385.56	0.422
386.03	0.425
386.49	0.423
386.95	0.420
387.41	0.420
387.88	0.422
388.34	0.419
388.80	0.417
389.26	0.414
389.72	0.415
390.19	0.413
390.65	0.411
391.11	0.411
391.57	0.405
392.04	0.408
392.50	0.408
392.96	0.406
393.42	0.401
393.88	0.402
394.34	0.407
394.81	0.402
395.27	0.400
395.73	0.396
396.19	0.395
396.65	0.396
397.12	0.394
397.58	0.391
398.04	0.396
398.50	0.393
398.96	0.390
399.42	0.390
399.89	0.391
400.35	0.388
400.81	0.388
401.27	0.386
401.73	0.382
402.19	0.381
402.65	0.380
403.12	0.379
403.58	0.380
404.04	0.379
404.50	0.380
404.96	0.375
405.42	0.375
405.88	0.373
406.34	0.371
406.81	0.372
407.27	0.372
407.73	0.369
408.19	0.369
408.65	0.365
409.11	0.365
409.57	0.363
410.03	0.361
410.49	0.361
410.96	0.365
411.42	0.361
411.88	0.361
412.34	0.359
412.80	0.359
413.26	0.359
413.72	0.357
414.18	0.355
414.64	0.357
415.10	0.352
415.56	0.357
416.02	0.352
416.48	0.351
416.95	0.347
417.41	0.350
417.87	0.348
418.33	0.348
418.79	0.346
419.25	0.345
419.71	0.345
420.17	0.346
420.63	0.344
421.09	0.344
421.55	0.342
422.01	0.341
422.47	0.342
422.93	0.342
423.39	0.338
423.85	0.337
424.31	0.335
424.77	0.336
425.23	0.334
425.69	0.332
426.15	0.334
426.61	0.331
427.07	0.334
427.53	0.333
427.99	0.329
428.45	0.328
428.91	0.327
429.37	0.327
429.83	0.328
430.29	0.327
430.75	0.328
431.21	0.327
431.67	0.325
432.13	0.322
432.59	0.318
433.05	0.319
433.51	0.319
433.97	0.317
434.43	0.317
434.89	0.316
435.35	0.314
435.81	0.313
436.27	0.313
436.73	0.310
437.19	0.312
437.65	0.312
438.11	0.311
438.57	0.312
439.03	0.308
439.48	0.310
439.94	0.308
440.40	0.308
440.86	0.305
441.32	0.306
441.78	0.304
442.24	0.302
442.70	0.299
443.16	0.302
443.62	0.301
444.08	0.301
444.54	0.300
444.99	0.301
445.45	0.300
445.91	0.297
446.37	0.299
446.83	0.295
447.29	0.292
447.75	0.292
448.21	0.294
448.67	0.292
449.12	0.289
449.58	0.292
450.04	0.291
450.50	0.288
450.96	0.288
451.42	0.287
451.88	0.287
452.34	0.287
452.79	0.286
453.25	0.287
453.71	0.284
454.17	0.285
454.63	0.281
455.09	0.281
455.55	0.283
456.00	0.280
456.46	0.279
456.92	0.278
457.38	0.277
457.84	0.275
458.30	0.276
458.75	0.279
459.21	0.276
459.67	0.279
460.13	0.274
460.59	0.272
461.04	0.275
461.50	0.275
461.96	0.272
462.42	0.272
462.88	0.272
463.33	0.267
463.79	0.271
464.25	0.270
464.71	0.270
465.17	0.270
465.62	0.265
466.08	0.269
466.54	0.267
467.00	0.269
467.46	0.266
467.91	0.265
468.37	0.264
468.83	0.264
469.29	0.264
469.74	0.261
470.20	0.262
470.66	0.262
471.12	0.264
471.57	0.263
472.03	0.259
472.49	0.262
472.95	0.261
473.40	0.254
473.86	0.258
474.32	0.259
474.78	0.255
475.23	0.254
475.69	0.256
476.15	0.255
476.60	0.255
477.06	0.251
477.52	0.255
477.98	0.251
478.43	0.252
478.89	0.251
479.35	0.250
479.80	0.250
480.26	0.253
480.72	0.250
481.18	0.247
481.63	0.249
482.09	0.244
482.55	0.247
483.00	0.247
483.46	0.245
483.92	0.246
484.37	0.246
484.83	0.244
485.29	0.246
485.74	0.242
486.20	0.244
486.66	0.245
487.11	0.244
487.57	0.240
488.03	0.243
488.48	0.240
488.94	0.241
489.40	0.241
489.85	0.242
490.31	0.242
490.77	0.238
491.22	0.238
491.68	0.237
492.13	0.237
492.59	0.238
493.05	0.237
493.50	0.235
493.96	0.234
494.42	0.234
494.87	0.236
495.33	0.236
495.78	0.236
496.24	0.233
496.70	0.232
497.15	0.235
497.61	0.233
498.06	0.232
498.52	0.228
498.98	0.233
499.43	0.232
499.89	0.232
500.34	0.230
500.80	0.232
501.25	0.229
501.71	0.227
502.17	0.228
502.62	0.227
503.08	0.227
503.53	0.227
503.99	0.225
504.44	0.226
504.90	0.224
505.36	0.224
505.81	0.225
506.27	0.226
506.72	0.224
507.18	0.224
507.63	0.222
508.09	0.225
508.54	0.221
509.00	0.222
509.45	0.222
509.91	0.220
510.36	0.221
510.82	0.219
511.27	0.220
511.73	0.220
512.19	0.220
512.64	0.219
513.10	0.218
513.55	0.217
514.01	0.217
514.46	0.217
514.92	0.219
515.37	0.214
515.83	0.215
516.28	0.215
516.73	0.214
517.19	0.211
517.64	0.215
518.10	0.214
518.55	0.214
519.01	0.211
519.46	0.210
519.92	0.211
520.37	0.210
520.83	0.213
521.28	0.211
521.74	0.210
522.19	0.206
522.65	0.211
523.10	0.210
523.55	0.210
524.01	0.208
524.46	0.208
524.92	0.209
525.37	0.208
525.83	0.207
526.28	0.204
526.73	0.207
527.19	0.206
527.64	0.205
528.10	0.204
528.55	0.205
529.01	0.205
529.46	0.205
529.91	0.203
530.37	0.205
530.82	0.202
531.28	0.201
531.73	0.201
532.18	0.201
532.64	0.202
533.09	0.201
533.54	0.202
534.00	0.200
534.45	0.200
534.91	0.200
535.36	0.199
535.81	0.200
536.27	0.200
536.72	0.200
537.17	0.199
537.63	0.200
538.08	0.200
538.54	0.197
538.99	0.197
539.44	0.197
539.90	0.197
540.35	0.198
540.80	0.198
541.26	0.194
541.71	0.191
542.16	0.195
542.62	0.197
543.07	0.194
543.52	0.193
543.98	0.194
544.43	0.194
544.88	0.196
545.34	0.192
545.79	0.192
546.24	0.194
546.69	0.191
547.15	0.192
547.60	0.191
548.05	0.194
548.51	0.190
548.96	0.191
549.41	0.190
549.86	0.190
550.32	0.193
550.77	0.188
551.22	0.190
551.68	0.190
552.13	0.188
552.58	0.189
553.03	0.189
553.49	0.188
553.94	0.190
554.39	0.188
554.84	0.186
555.30	0.187
555.75	0.184
556.20	0.188
556.65	0.187
557.11	0.186
557.56	0.184
558.01	0.186
558.46	0.185
558.92	0.186
559.37	0.186
559.82	0.184
560.27	0.185
560.72	0.185
561.18	0.184
561.63	0.184
562.08	0.183
562.53	0.182
562.99	0.183
563.44	0.183
563.89	0.181
564.34	0.182
564.79	0.181
565.25	0.180
565.70	0.183
566.15	0.180
566.60	0.177
567.05	0.182
567.50	0.183
567.96	0.182
568.41	0.179
568.86	0.180
569.31	0.180
569.76	0.182
570.21	0.180
570.67	0.177
571.12	0.180
571.57	0.179
572.02	0.177
572.47	0.177
572.92	0.177
573.37	0.178
573.83	0.176
574.28	0.177
574.73	0.176
575.18	0.176
575.63	0.174
576.08	0.177
576.53	0.175
576.98	0.176
577.44	0.174
577.89	0.175
578.34	0.178
578.79	0.174
579.24	0.175
579.69	0.174
580.14	0.175
580.59	0.173
581.04	0.173
581.49	0.174
581.95	0.172
582.40	0.172
582.85	0.174
583.30	0.174
583.75	0.173
584.20	0.175
584.65	0.172
585.10	0.171
585.55	0.175
586.00	0.171
586.45	0.172
586.90	0.173
587.35	0.172
587.80	0.172
588.25	0.172
588.71	0.172
589.16	0.173
589.61	0.172
590.06	0.172
590.51	0.175
590.96	0.170
591.41	0.171
591.86	0.173
592.31	0.173
592.76	0.170
593.21	0.171
593.66	0.172
594.11	0.172
594.56	0.172
595.01	0.171
595.46	0.171
595.91	0.172
596.36	0.169
596.81	0.170
597.26	0.171
597.71	0.171
598.16	0.170
598.61	0.172
599.06	0.171
599.51	0.170
599.96	0.170
600.41	0.171
600.86	0.171
601.31	0.171
601.76	0.172
602.21	0.171
602.65	0.169
603.10	0.169
603.55	0.171
604.00	0.170
604.45	0.170
604.90	0.170
605.35	0.171
605.80	0.169
606.25	0.171
606.70	0.169
607.15	0.170
607.60	0.169
608.05	0.171
608.50	0.169
608.95	0.169
609.39	0.169
609.84	0.170
610.29	0.169
610.74	0.169
611.19	0.168
611.64	0.169
612.09	0.164
612.54	0.167
612.99	0.169
613.44	0.168
613.88	0.167
614.33	0.167
614.78	0.166
615.23	0.167
615.68	0.168
616.13	0.168
616.58	0.168
617.03	0.166
617.47	0.168
617.92	0.166
618.37	0.166
618.82	0.166
619.27	0.165
619.72	0.166
620.17	0.164
620.61	0.164
621.06	0.164
621.51	0.167
621.96	0.164
622.41	0.166
622.86	0.164
623.30	0.165
623.75	0.166
624.20	0.166
624.65	0.166
625.10	0.164
625.54	0.163
625.99	0.163
626.44	0.166
626.89	0.164
627.34	0.164
627.78	0.163
628.23	0.163
628.68	0.163
629.13	0.162
629.58	0.162
630.02	0.163
630.47	0.163
630.92	0.165
631.37	0.164
631.81	0.164
632.26	0.164
632.71	0.162
633.16	0.164
633.61	0.163
634.05	0.163
634.50	0.163
634.95	0.164
635.40	0.164
635.84	0.165
636.29	0.164
636.74	0.165
637.18	0.164
637.63	0.163
638.08	0.164
638.53	0.164
638.97	0.163
639.42	0.166
639.87	0.164
640.32	0.164
640.76	0.163
641.21	0.165
641.66	0.164
642.10	0.165
642.55	0.164
643.00	0.165
643.44	0.164
643.89	0.164
644.34	0.164
644.79	0.164
645.23	0.163
645.68	0.167
646.13	0.167
646.57	0.165
647.02	0.166
647.47	0.166
647.91	0.167
648.36	0.165
648.81	0.167
649.25	0.166
649.70	0.165
650.15	0.166
650.59	0.166
651.04	0.165
651.48	0.166
651.93	0.166
652.38	0.168
652.82	0.167
653.27	0.165
653.72	0.167
654.16	0.168
654.61	0.166
655.06	0.167
655.50	0.164
655.95	0.163
656.39	0.167
656.84	0.168
657.29	0.167
657.73	0.166
658.18	0.168
658.62	0.165
659.07	0.167
659.52	0.167
659.96	0.168
660.41	0.168
660.85	0.166
661.30	0.166
661.74	0.165
662.19	0.168
662.64	0.170
663.08	0.168
663.53	0.169
663.97	0.165
664.42	0.165
664.86	0.166
665.31	0.167
665.75	0.165
666.20	0.167
666.65	0.168
667.09	0.165
667.54	0.164
667.98	0.164
668.43	0.163
668.87	0.163
669.32	0.160
669.76	0.161
670.21	0.161
670.65	0.163
671.10	0.162
671.54	0.161
671.99	0.160
672.43	0.159
672.88	0.156
673.32	0.156
673.77	0.159
674.21	0.157
674.66	0.156
675.10	0.155
675.55	0.152
675.99	0.153
676.44	0.154
676.88	0.152
677.33	0.151
677.77	0.149
678.22	0.147
678.66	0.147
679.11	0.146
679.55	0.146
679.99	0.146
680.44	0.144
680.88	0.143
681.33	0.143
681.77	0.142
682.22	0.140
682.66	0.140
683.11	0.138
683.55	0.139
683.99	0.139
684.44	0.139
684.88	0.136
685.33	0.137
685.77	0.135
686.21	0.135
686.66	0.134
687.10	0.133
687.55	0.133
687.99	0.133
688.44	0.131
688.88	0.131
689.32	0.128
689.77	0.129
690.21	0.131
690.65	0.127
691.10	0.126
691.54	0.128
691.99	0.127
692.43	0.125
692.87	0.127
693.32	0.126
693.76	0.124
694.20	0.125
694.65	0.126
695.09	0.124
695.53	0.124
695.98	0.124
696.42	0.122
696.86	0.119
697.31	0.122
697.75	0.124
698.19	0.123
698.64	0.121
699.08	0.122
699.52	0.121
699.97	0.119
700.41	0.120
700.85	0.122
701.30	0.120
701.74	0.118
702.18	0.121
702.63	0.120
703.07	0.120
703.51	0.121
703.96	0.118
704.40	0.121
704.84	0.118
705.28	0.117
705.73	0.119
706.17	0.117
706.61	0.117
707.06	0.118
707.50	0.117
707.94	0.116
708.38	0.116
708.83	0.118
709.27	0.116
709.71	0.114
710.15	0.118
710.60	0.116
711.04	0.115
711.48	0.116
711.92	0.113
712.37	0.117
712.81	0.117
713.25	0.117
713.69	0.117
714.13	0.117
714.58	0.115
715.02	0.119
715.46	0.113
715.90	0.114
716.35	0.115
716.79	0.114
717.23	0.114
717.67	0.114
718.11	0.117
718.56	0.113
719.00	0.114
719.44	0.115
719.88	0.117
720.32	0.115
720.76	0.113
721.21	0.112
721.65	0.113
722.09	0.114
722.53	0.114
722.97	0.115
723.41	0.114
723.86	0.115
724.30	0.116
724.74	0.115
725.18	0.116
725.62	0.115
726.06	0.112
726.50	0.115
726.95	0.117
727.39	0.114
727.83	0.117
728.27	0.114
728.71	0.114
729.15	0.113
729.59	0.116
730.03	0.113
730.48	0.116
730.92	0.112
731.36	0.116
731.80	0.114
732.24	0.112
732.68	0.115
733.12	0.118
733.56	0.115
734.00	0.116
734.44	0.116
734.89	0.113
735.33	0.114
735.77	0.115
736.21	0.116
736.65	0.115
737.09	0.115
737.53	0.116
737.97	0.114
738.41	0.116
738.85	0.116
739.29	0.115
739.73	0.115
740.17	0.117
740.61	0.117
741.05	0.115
741.49	0.115
741.93	0.113
742.37	0.117
742.81	0.113
743.26	0.116
743.70	0.114
744.14	0.113
744.58	0.116
745.02	0.112
745.46	0.113
745.90	0.115
746.34	0.116
746.78	0.112
747.22	0.112
747.66	0.115
748.10	0.114
748.54	0.114
748.98	0.112
749.42	0.115
749.86	0.114
750.29	0.113
750.73	0.110
751.17	0.113
751.61	0.112
752.05	0.114
752.49	0.112
752.93	0.108
753.37	0.113
753.81	0.114
754.25	0.109
754.69	0.111
755.13	0.110
755.57	0.111
756.01	0.110
756.45	0.110
756.89	0.109
757.33	0.115
757.77	0.111
758.21	0.108
758.64	0.112
759.08	0.107
759.52	0.110
759.96	0.106
760.40	0.109
760.84	0.110
761.28	0.110
761.72	0.111
762.16	0.110
762.60	0.110
763.03	0.109
763.47	0.108
763.91	0.108
764.35	0.105
764.79	0.106
765.23	0.110
765.67	0.109
766.11	0.106
766.54	0.111
766.98	0.111
767.42	0.109
767.86	0.110
768.30	0.109
768.74	0.107
769.17	0.108
769.61	0.106
770.05	0.109
770.49	0.108
770.93	0.105
771.37	0.105
771.80	0.108
772.24	0.104
772.68	0.108
773.12	0.108
773.56	0.105
774.00	0.106
774.43	0.106
774.87	0.106
775.31	0.106
775.75	0.106
776.19	0.105
776.62	0.107
777.06	0.104
777.50	0.105
777.94	0.105
778.37	0.108
778.81	0.104
779.25	0.107
779.69	0.103
780.13	0.109
780.56	0.105
781.00	0.109
781.44	0.106
781.88	0.104
782.31	0.106
782.75	0.105
783.19	0.104
783.63	0.104
784.06	0.104
784.50	0.102
784.94	0.108
785.37	0.101
785.81	0.105
786.25	0.102
786.69	0.106
787.12	0.104
787.56	0.103
788.00	0.103
788.43	0.100
788.87	0.106
789.31	0.103
789.75	0.102
790.18	0.102
790.62	0.102
791.06	0.102
791.49	0.103
791.93	0.101
792.37	0.106
792.80	0.103
793.24	0.100
793.68	0.102
794.11	0.102
794.55	0.102
794.99	0.100
795.42	0.099
795.86	0.098
796.30	0.099
796.73	0.099
797.17	0.105
797.61	0.098
798.04	0.099
798.48	0.101
798.91	0.098
799.35	0.101
799.79	0.099
800.22	0.102
800.66	0.098
801.10	0.099
801.53	0.100
801.97	0.098
802.40	0.098
802.84	0.102
803.28	0.102
803.71	0.101
804.15	0.097
804.58	0.100
805.02	0.100
805.46	0.097
805.89	0.101
806.33	0.098
806.76	0.099
807.20	0.098
807.63	0.102
808.07	0.097
808.51	0.097
808.94	0.102
809.38	0.097
809.81	0.099
810.25	0.099
810.68	0.097
811.12	0.103
811.55	0.101
811.99	0.103
812.42	0.098
812.86	0.099
813.29	0.102
813.73	0.097
814.17	0.098
814.60	0.100
815.04	0.098
815.47	0.097
815.91	0.101
816.34	0.096
816.78	0.097
817.21	0.095
817.65	0.099
