SpectraSuite Data File
++++++++++++++++++++++++++++++++++++
Date: Mon Jul 10 14:16:17 CEST 2017
User: IPCE
Dark Spectrum Present: Yes
Reference Spectrum Present: Yes
Number of Sampled Component Spectra: 1
Spectrometers: HR+C0708
Integration Time (usec): 1000 (HR+C0708)
Spectra Averaged: 10 (HR+C0708)
Boxcar Smoothing: 0 (HR+C0708)
Correct for Electrical Dark: No (HR+C0708)
Strobe/Lamp Enabled: No (HR+C0708)
Correct for Detector Non-linearity: No (HR+C0708)
Correct for Stray Light: No (HR+C0708)
Number of Pixels in Processed Spectrum: 2048
>>>>>Begin Processed Spectral Data<<<<<
188.76	1.000
189.23	0.525
189.70	-0.000
190.17	0.568
190.64	-0.000
191.12	-0.000
191.59	-0.000
192.06	1.325
192.53	0.374
193.01	-0.000
193.48	0.467
193.95	-0.000
194.42	-0.000
194.90	1.082
195.37	-0.000
195.84	-0.000
196.31	-0.000
196.78	0.390
197.26	0.088
197.73	1.346
198.20	-0.000
198.67	0.602
199.14	-0.000
199.62	-0.000
200.09	0.751
200.56	1.960
201.03	1.296
201.50	1.118
201.97	0.521
202.45	1.042
202.92	0.833
203.39	1.086
203.86	0.608
204.33	0.634
204.80	0.801
205.28	0.592
205.75	0.903
206.22	0.971
206.69	0.727
207.16	0.732
207.63	0.943
208.11	0.391
208.58	0.398
209.05	0.362
209.52	0.806
209.99	1.296
210.46	0.651
210.93	0.849
211.41	0.763
211.88	0.710
212.35	0.434
212.82	0.757
213.29	0.630
213.76	0.735
214.23	1.247
214.70	0.645
215.18	1.998
215.65	1.222
216.12	0.600
216.59	0.727
217.06	0.731
217.53	1.183
218.00	0.679
218.47	0.618
218.94	0.926
219.41	0.651
219.89	0.522
220.36	0.705
220.83	0.594
221.30	0.845
221.77	1.004
222.24	0.966
222.71	0.909
223.18	0.802
223.65	0.913
224.12	0.866
224.59	0.820
225.06	0.996
225.54	1.414
226.01	1.178
226.48	1.810
226.95	-0.000
227.42	1.195
227.89	1.228
228.36	1.663
228.83	1.375
229.30	1.397
229.77	1.502
230.24	1.814
230.71	1.981
231.18	2.148
231.65	1.407
232.12	1.856
232.59	1.634
233.06	1.623
233.53	1.771
234.00	1.827
234.47	1.700
234.94	2.103
235.41	2.098
235.88	2.008
236.35	1.936
236.82	2.081
237.29	-0.000
237.76	2.420
238.23	2.319
238.70	2.889
239.17	2.497
239.64	2.326
240.11	2.326
240.58	2.254
241.05	2.267
241.52	2.278
241.99	2.402
242.46	2.691
242.93	2.702
243.40	2.767
243.87	3.141
244.34	3.131
244.81	2.431
245.28	3.792
245.75	2.472
246.22	2.588
246.69	2.578
247.16	3.336
247.63	2.843
248.10	2.734
248.57	2.544
249.04	2.923
249.51	2.762
249.98	2.811
250.45	2.774
250.92	2.901
251.39	2.974
251.85	2.720
252.32	2.681
252.79	3.515
253.26	2.751
253.73	2.581
254.20	2.466
254.67	2.687
255.14	2.924
255.61	2.624
256.08	2.624
256.55	2.808
257.02	2.922
257.49	2.890
257.95	3.184
258.42	2.669
258.89	2.578
259.36	3.542
259.83	2.854
260.30	2.856
260.77	2.925
261.24	2.814
261.71	2.825
262.17	3.006
262.64	2.797
263.11	3.201
263.58	3.509
264.05	2.920
264.52	2.892
264.99	2.945
265.46	2.737
265.92	2.921
266.39	2.854
266.86	2.903
267.33	2.910
267.80	2.834
268.27	2.777
268.74	2.750
269.20	2.730
269.67	2.996
270.14	2.723
270.61	2.672
271.08	2.728
271.55	2.864
272.01	3.080
272.48	2.939
272.95	2.797
273.42	2.752
273.89	2.652
274.36	2.905
274.82	2.924
275.29	2.687
275.76	2.757
276.23	2.804
276.70	2.614
277.16	2.588
277.63	2.704
278.10	2.766
278.57	2.884
279.04	2.618
279.50	2.498
279.97	2.547
280.44	2.653
280.91	2.629
281.38	2.904
281.84	2.705
282.31	2.510
282.78	2.618
283.25	2.578
283.72	2.526
284.18	2.629
284.65	2.561
285.12	2.460
285.59	2.583
286.05	2.480
286.52	2.571
286.99	2.463
287.46	2.462
287.92	2.591
288.39	2.519
288.86	2.443
289.33	2.618
289.79	2.468
290.26	2.474
290.73	2.375
291.20	2.524
291.66	2.394
292.13	2.453
292.60	2.368
293.07	2.484
293.53	2.426
294.00	2.384
294.47	2.507
294.93	2.432
295.40	2.447
295.87	2.362
296.34	2.312
296.80	2.397
297.27	2.415
297.74	2.419
298.20	2.444
298.67	2.351
299.14	2.312
299.60	2.269
300.07	2.306
300.54	2.325
301.01	2.277
301.47	2.250
301.94	2.249
302.41	2.289
302.87	2.267
303.34	2.271
303.81	2.153
304.27	2.176
304.74	2.229
305.21	2.162
305.67	2.198
306.14	2.149
306.61	2.151
307.07	2.171
307.54	2.166
308.01	2.155
308.47	2.212
308.94	2.127
309.40	2.152
309.87	2.039
310.34	2.076
310.80	2.120
311.27	2.119
311.74	2.136
312.20	2.110
312.67	2.130
313.13	2.120
313.60	2.105
314.07	2.111
314.53	2.060
315.00	2.128
315.47	2.052
315.93	2.089
316.40	2.094
316.86	2.084
317.33	2.086
317.80	2.044
318.26	2.057
318.73	2.089
319.19	2.052
319.66	2.007
320.13	2.057
320.59	2.019
321.06	2.010
321.52	2.052
321.99	2.000
322.45	2.011
322.92	2.020
323.39	1.977
323.85	2.027
324.32	2.006
324.78	1.988
325.25	2.050
325.71	1.962
326.18	1.892
326.64	1.963
327.11	1.944
327.58	1.987
328.04	1.916
328.51	1.880
328.97	1.920
329.44	1.865
329.90	1.854
330.37	1.932
330.83	1.828
331.30	1.869
331.76	1.868
332.23	1.834
332.69	1.800
333.16	1.766
333.62	1.794
334.09	1.803
334.56	1.724
335.02	1.695
335.49	1.696
335.95	1.663
336.42	1.614
336.88	1.606
337.35	1.558
337.81	1.554
338.28	1.511
338.74	1.492
339.20	1.477
339.67	1.445
340.13	1.405
340.60	1.387
341.06	1.340
341.53	1.315
341.99	1.271
342.46	1.238
342.92	1.215
343.39	1.179
343.85	1.152
344.32	1.124
344.78	1.097
345.25	1.068
345.71	1.041
346.17	1.016
346.64	0.981
347.10	0.950
347.57	0.914
348.03	0.893
348.50	0.868
348.96	0.838
349.43	0.819
349.89	0.789
350.35	0.766
350.82	0.754
351.28	0.729
351.75	0.709
352.21	0.695
352.67	0.676
353.14	0.660
353.60	0.645
354.07	0.625
354.53	0.615
355.00	0.598
355.46	0.584
355.92	0.577
356.39	0.559
356.85	0.552
357.31	0.545
357.78	0.533
358.24	0.525
358.71	0.520
359.17	0.508
359.63	0.507
360.10	0.499
360.56	0.496
361.03	0.490
361.49	0.484
361.95	0.480
362.42	0.479
362.88	0.475
363.34	0.472
363.81	0.467
364.27	0.469
364.73	0.461
365.20	0.458
365.66	0.455
366.12	0.451
366.59	0.452
367.05	0.448
367.51	0.448
367.98	0.443
368.44	0.441
368.90	0.440
369.37	0.438
369.83	0.431
370.29	0.434
370.76	0.432
371.22	0.434
371.68	0.428
372.15	0.429
372.61	0.427
373.07	0.422
373.54	0.420
374.00	0.424
374.46	0.420
374.92	0.418
375.39	0.420
375.85	0.413
376.31	0.415
376.78	0.413
377.24	0.410
377.70	0.409
378.16	0.407
378.63	0.409
379.09	0.407
379.55	0.405
380.01	0.401
380.48	0.399
380.94	0.401
381.40	0.399
381.87	0.400
382.33	0.401
382.79	0.398
383.25	0.396
383.72	0.392
384.18	0.390
384.64	0.394
385.10	0.389
385.56	0.388
386.03	0.387
386.49	0.390
386.95	0.383
387.41	0.385
387.88	0.382
388.34	0.380
388.80	0.378
389.26	0.377
389.72	0.376
390.19	0.379
390.65	0.376
391.11	0.375
391.57	0.370
392.04	0.370
392.50	0.372
392.96	0.375
393.42	0.366
393.88	0.369
394.34	0.366
394.81	0.366
395.27	0.365
395.73	0.359
396.19	0.360
396.65	0.364
397.12	0.360
397.58	0.359
398.04	0.359
398.50	0.359
398.96	0.357
399.42	0.354
399.89	0.354
400.35	0.352
400.81	0.353
401.27	0.353
401.73	0.350
402.19	0.348
402.65	0.351
403.12	0.345
403.58	0.347
404.04	0.344
404.50	0.346
404.96	0.343
405.42	0.342
405.88	0.341
406.34	0.341
406.81	0.338
407.27	0.334
407.73	0.336
408.19	0.332
408.65	0.336
409.11	0.336
409.57	0.331
410.03	0.331
410.49	0.329
410.96	0.335
411.42	0.329
411.88	0.327
412.34	0.329
412.80	0.328
413.26	0.326
413.72	0.325
414.18	0.324
414.64	0.321
415.10	0.323
415.56	0.322
416.02	0.321
416.48	0.325
416.95	0.317
417.41	0.314
417.87	0.314
418.33	0.317
418.79	0.316
419.25	0.312
419.71	0.316
420.17	0.312
420.63	0.312
421.09	0.312
421.55	0.313
422.01	0.312
422.47	0.312
422.93	0.309
423.39	0.311
423.85	0.306
424.31	0.309
424.77	0.307
425.23	0.309
425.69	0.303
426.15	0.303
426.61	0.303
427.07	0.303
427.53	0.300
427.99	0.299
428.45	0.300
428.91	0.299
429.37	0.299
429.83	0.298
430.29	0.298
430.75	0.298
431.21	0.295
431.67	0.294
432.13	0.294
432.59	0.290
433.05	0.292
433.51	0.291
433.97	0.288
434.43	0.292
434.89	0.287
435.35	0.288
435.81	0.287
436.27	0.287
436.73	0.285
437.19	0.286
437.65	0.286
438.11	0.284
438.57	0.282
439.03	0.282
439.48	0.282
439.94	0.281
440.40	0.281
440.86	0.278
441.32	0.278
441.78	0.276
442.24	0.278
442.70	0.276
443.16	0.276
443.62	0.276
444.08	0.272
444.54	0.272
444.99	0.274
445.45	0.274
445.91	0.271
446.37	0.269
446.83	0.267
447.29	0.265
447.75	0.267
448.21	0.267
448.67	0.268
449.12	0.264
449.58	0.265
450.04	0.267
450.50	0.265
450.96	0.262
451.42	0.260
451.88	0.263
452.34	0.257
452.79	0.263
453.25	0.262
453.71	0.262
454.17	0.261
454.63	0.261
455.09	0.257
455.55	0.258
456.00	0.254
456.46	0.257
456.92	0.256
457.38	0.253
457.84	0.255
458.30	0.254
458.75	0.250
459.21	0.248
459.67	0.254
460.13	0.248
460.59	0.248
461.04	0.251
461.50	0.253
461.96	0.247
462.42	0.251
462.88	0.249
463.33	0.246
463.79	0.246
464.25	0.246
464.71	0.247
465.17	0.246
465.62	0.245
466.08	0.247
466.54	0.245
467.00	0.247
467.46	0.246
467.91	0.247
468.37	0.243
468.83	0.243
469.29	0.244
469.74	0.243
470.20	0.239
470.66	0.239
471.12	0.239
471.57	0.239
472.03	0.237
472.49	0.237
472.95	0.239
473.40	0.235
473.86	0.237
474.32	0.237
474.78	0.235
475.23	0.236
475.69	0.237
476.15	0.234
476.60	0.234
477.06	0.231
477.52	0.232
477.98	0.232
478.43	0.232
478.89	0.229
479.35	0.230
479.80	0.231
480.26	0.230
480.72	0.228
481.18	0.227
481.63	0.229
482.09	0.226
482.55	0.229
483.00	0.227
483.46	0.228
483.92	0.226
484.37	0.227
484.83	0.225
485.29	0.225
485.74	0.226
486.20	0.228
486.66	0.226
487.11	0.226
487.57	0.224
488.03	0.223
488.48	0.222
488.94	0.225
489.40	0.222
489.85	0.223
490.31	0.221
490.77	0.220
491.22	0.219
491.68	0.220
492.13	0.219
492.59	0.219
493.05	0.218
493.50	0.218
493.96	0.219
494.42	0.216
494.87	0.216
495.33	0.217
495.78	0.218
496.24	0.217
496.70	0.215
497.15	0.217
497.61	0.215
498.06	0.216
498.52	0.213
498.98	0.214
499.43	0.213
499.89	0.212
500.34	0.213
500.80	0.214
501.25	0.212
501.71	0.211
502.17	0.210
502.62	0.211
503.08	0.211
503.53	0.211
503.99	0.209
504.44	0.209
504.90	0.207
505.36	0.208
505.81	0.207
506.27	0.207
506.72	0.208
507.18	0.208
507.63	0.206
508.09	0.206
508.54	0.204
509.00	0.205
509.45	0.206
509.91	0.204
510.36	0.202
510.82	0.205
511.27	0.207
511.73	0.205
512.19	0.202
512.64	0.204
513.10	0.202
513.55	0.200
514.01	0.201
514.46	0.201
514.92	0.200
515.37	0.197
515.83	0.202
516.28	0.200
516.73	0.197
517.19	0.195
517.64	0.198
518.10	0.199
518.55	0.198
519.01	0.197
519.46	0.197
519.92	0.198
520.37	0.197
520.83	0.197
521.28	0.195
521.74	0.198
522.19	0.194
522.65	0.195
523.10	0.192
523.55	0.194
524.01	0.196
524.46	0.195
524.92	0.191
525.37	0.193
525.83	0.194
526.28	0.190
526.73	0.194
527.19	0.193
527.64	0.190
528.10	0.190
528.55	0.190
529.01	0.192
529.46	0.192
529.91	0.190
530.37	0.190
530.82	0.189
531.28	0.188
531.73	0.189
532.18	0.191
532.64	0.187
533.09	0.191
533.54	0.187
534.00	0.187
534.45	0.188
534.91	0.189
535.36	0.188
535.81	0.185
536.27	0.188
536.72	0.188
537.17	0.187
537.63	0.188
538.08	0.185
538.54	0.184
538.99	0.186
539.44	0.185
539.90	0.185
540.35	0.184
540.80	0.186
541.26	0.185
541.71	0.181
542.16	0.183
542.62	0.184
543.07	0.183
543.52	0.182
543.98	0.184
544.43	0.181
544.88	0.184
545.34	0.184
545.79	0.183
546.24	0.182
546.69	0.181
547.15	0.182
547.60	0.182
548.05	0.182
548.51	0.182
548.96	0.183
549.41	0.182
549.86	0.181
550.32	0.183
550.77	0.181
551.22	0.183
551.68	0.182
552.13	0.182
552.58	0.180
553.03	0.181
553.49	0.181
553.94	0.182
554.39	0.180
554.84	0.182
555.30	0.180
555.75	0.179
556.20	0.178
556.65	0.180
557.11	0.179
557.56	0.181
558.01	0.180
558.46	0.180
558.92	0.182
559.37	0.179
559.82	0.179
560.27	0.180
560.72	0.180
561.18	0.180
561.63	0.181
562.08	0.181
562.53	0.180
562.99	0.180
563.44	0.181
563.89	0.177
564.34	0.179
564.79	0.179
565.25	0.182
565.70	0.180
566.15	0.180
566.60	0.178
567.05	0.182
567.50	0.180
567.96	0.181
568.41	0.180
568.86	0.180
569.31	0.179
569.76	0.180
570.21	0.178
570.67	0.180
571.12	0.182
571.57	0.180
572.02	0.180
572.47	0.179
572.92	0.178
573.37	0.180
573.83	0.179
574.28	0.178
574.73	0.180
575.18	0.179
575.63	0.179
576.08	0.181
576.53	0.179
576.98	0.181
577.44	0.180
577.89	0.181
578.34	0.181
578.79	0.180
579.24	0.179
579.69	0.182
580.14	0.183
580.59	0.181
581.04	0.182
581.49	0.183
581.95	0.182
582.40	0.184
582.85	0.182
583.30	0.184
583.75	0.183
584.20	0.185
584.65	0.183
585.10	0.183
585.55	0.185
586.00	0.187
586.45	0.186
586.90	0.188
587.35	0.187
587.80	0.186
588.25	0.187
588.71	0.186
589.16	0.190
589.61	0.189
590.06	0.189
590.51	0.191
590.96	0.187
591.41	0.190
591.86	0.190
592.31	0.192
592.76	0.190
593.21	0.190
593.66	0.193
594.11	0.193
594.56	0.193
595.01	0.194
595.46	0.195
595.91	0.197
596.36	0.195
596.81	0.196
597.26	0.196
597.71	0.197
598.16	0.197
598.61	0.199
599.06	0.200
599.51	0.200
599.96	0.199
600.41	0.199
600.86	0.201
601.31	0.201
601.76	0.202
602.21	0.203
602.65	0.202
603.10	0.204
603.55	0.205
604.00	0.205
604.45	0.206
604.90	0.206
605.35	0.206
605.80	0.207
606.25	0.209
606.70	0.208
607.15	0.206
607.60	0.206
608.05	0.209
608.50	0.208
608.95	0.210
609.39	0.210
609.84	0.210
610.29	0.210
610.74	0.209
611.19	0.212
611.64	0.210
612.09	0.210
612.54	0.209
612.99	0.210
613.44	0.212
613.88	0.212
614.33	0.211
614.78	0.212
615.23	0.211
615.68	0.212
616.13	0.212
616.58	0.213
617.03	0.211
617.47	0.212
617.92	0.212
618.37	0.212
618.82	0.212
619.27	0.212
619.72	0.212
620.17	0.211
620.61	0.213
621.06	0.210
621.51	0.212
621.96	0.212
622.41	0.212
622.86	0.212
623.30	0.214
623.75	0.214
624.20	0.213
624.65	0.213
625.10	0.211
625.54	0.211
625.99	0.213
626.44	0.216
626.89	0.214
627.34	0.214
627.78	0.214
628.23	0.216
628.68	0.213
629.13	0.217
629.58	0.212
630.02	0.216
630.47	0.218
630.92	0.217
631.37	0.219
631.81	0.215
632.26	0.218
632.71	0.218
633.16	0.219
633.61	0.220
634.05	0.220
634.50	0.219
634.95	0.222
635.40	0.223
635.84	0.223
636.29	0.225
636.74	0.224
637.18	0.224
637.63	0.225
638.08	0.227
638.53	0.228
638.97	0.229
639.42	0.229
639.87	0.230
640.32	0.231
640.76	0.232
641.21	0.233
641.66	0.233
642.10	0.233
642.55	0.236
643.00	0.238
643.44	0.237
643.89	0.239
644.34	0.238
644.79	0.241
645.23	0.239
645.68	0.243
646.13	0.245
646.57	0.245
647.02	0.245
647.47	0.248
647.91	0.249
648.36	0.249
648.81	0.251
649.25	0.251
649.70	0.252
650.15	0.252
650.59	0.254
651.04	0.254
651.48	0.257
651.93	0.258
652.38	0.258
652.82	0.256
653.27	0.259
653.72	0.260
654.16	0.263
654.61	0.264
655.06	0.262
655.50	0.260
655.95	0.262
656.39	0.263
656.84	0.266
657.29	0.266
657.73	0.266
658.18	0.268
658.62	0.270
659.07	0.268
659.52	0.267
659.96	0.272
660.41	0.271
660.85	0.269
661.30	0.269
661.74	0.270
662.19	0.270
662.64	0.270
663.08	0.273
663.53	0.274
663.97	0.273
664.42	0.271
664.86	0.271
665.31	0.272
665.75	0.269
666.20	0.270
666.65	0.269
667.09	0.268
667.54	0.268
667.98	0.269
668.43	0.265
668.87	0.266
669.32	0.265
669.76	0.261
670.21	0.261
670.65	0.261
671.10	0.259
671.54	0.259
671.99	0.257
672.43	0.255
672.88	0.250
673.32	0.247
673.77	0.247
674.21	0.244
674.66	0.240
675.10	0.240
675.55	0.235
675.99	0.233
676.44	0.232
676.88	0.228
677.33	0.224
677.77	0.220
678.22	0.216
678.66	0.215
679.11	0.211
679.55	0.210
679.99	0.205
680.44	0.204
680.88	0.201
681.33	0.196
681.77	0.193
682.22	0.189
682.66	0.188
683.11	0.182
683.55	0.180
683.99	0.180
684.44	0.178
684.88	0.172
685.33	0.172
685.77	0.168
686.21	0.167
686.66	0.163
687.10	0.157
687.55	0.158
687.99	0.158
688.44	0.155
688.88	0.152
689.32	0.149
689.77	0.148
690.21	0.147
690.65	0.141
691.10	0.142
691.54	0.142
691.99	0.139
692.43	0.138
692.87	0.136
693.32	0.134
693.76	0.131
694.20	0.133
694.65	0.131
695.09	0.132
695.53	0.130
695.98	0.127
696.42	0.126
696.86	0.122
697.31	0.125
697.75	0.123
698.19	0.120
698.64	0.123
699.08	0.122
699.52	0.120
699.97	0.120
700.41	0.120
700.85	0.116
701.30	0.116
701.74	0.118
702.18	0.116
702.63	0.116
703.07	0.114
703.51	0.117
703.96	0.114
704.40	0.113
704.84	0.115
705.28	0.114
705.73	0.114
706.17	0.114
706.61	0.112
707.06	0.112
707.50	0.111
707.94	0.107
708.38	0.108
708.83	0.112
709.27	0.108
709.71	0.110
710.15	0.110
710.60	0.109
711.04	0.108
711.48	0.107
711.92	0.104
712.37	0.107
712.81	0.109
713.25	0.106
713.69	0.108
714.13	0.108
714.58	0.106
715.02	0.108
715.46	0.105
715.90	0.107
716.35	0.107
716.79	0.105
717.23	0.107
717.67	0.105
718.11	0.109
718.56	0.104
719.00	0.105
719.44	0.105
719.88	0.107
720.32	0.105
720.76	0.107
721.21	0.106
721.65	0.104
722.09	0.106
722.53	0.106
722.97	0.106
723.41	0.103
723.86	0.107
724.30	0.106
724.74	0.103
725.18	0.105
725.62	0.104
726.06	0.104
726.50	0.105
726.95	0.106
727.39	0.105
727.83	0.107
728.27	0.105
728.71	0.102
729.15	0.105
729.59	0.106
730.03	0.106
730.48	0.105
730.92	0.105
731.36	0.106
731.80	0.104
732.24	0.104
732.68	0.105
733.12	0.105
733.56	0.106
734.00	0.107
734.44	0.105
734.89	0.107
735.33	0.105
735.77	0.106
736.21	0.108
736.65	0.105
737.09	0.106
737.53	0.106
737.97	0.105
738.41	0.105
738.85	0.108
739.29	0.105
739.73	0.107
740.17	0.107
740.61	0.108
741.05	0.104
741.49	0.103
741.93	0.102
742.37	0.107
742.81	0.104
743.26	0.104
743.70	0.104
744.14	0.102
744.58	0.105
745.02	0.104
745.46	0.105
745.90	0.107
746.34	0.105
746.78	0.104
747.22	0.105
747.66	0.105
748.10	0.105
748.54	0.105
748.98	0.104
749.42	0.104
749.86	0.105
750.29	0.102
750.73	0.101
751.17	0.103
751.61	0.104
752.05	0.106
752.49	0.104
752.93	0.100
753.37	0.103
753.81	0.104
754.25	0.102
754.69	0.104
755.13	0.100
755.57	0.100
756.01	0.100
756.45	0.103
756.89	0.099
757.33	0.107
757.77	0.101
758.21	0.102
758.64	0.104
759.08	0.098
759.52	0.098
759.96	0.099
760.40	0.099
760.84	0.102
761.28	0.098
761.72	0.099
762.16	0.101
762.60	0.102
763.03	0.100
763.47	0.100
763.91	0.098
764.35	0.097
764.79	0.098
765.23	0.101
765.67	0.100
766.11	0.099
766.54	0.102
766.98	0.099
767.42	0.098
767.86	0.101
768.30	0.100
768.74	0.096
769.17	0.100
769.61	0.098
770.05	0.103
770.49	0.101
770.93	0.098
771.37	0.099
771.80	0.098
772.24	0.097
772.68	0.099
773.12	0.099
773.56	0.099
774.00	0.098
774.43	0.095
774.87	0.096
775.31	0.095
775.75	0.099
776.19	0.097
776.62	0.097
777.06	0.097
777.50	0.094
777.94	0.097
778.37	0.096
778.81	0.099
779.25	0.099
779.69	0.094
780.13	0.097
780.56	0.097
781.00	0.097
781.44	0.098
781.88	0.095
782.31	0.099
782.75	0.097
783.19	0.095
783.63	0.095
784.06	0.093
784.50	0.096
784.94	0.098
785.37	0.095
785.81	0.096
786.25	0.091
786.69	0.097
787.12	0.096
787.56	0.094
788.00	0.097
788.43	0.095
788.87	0.095
789.31	0.092
789.75	0.097
790.18	0.094
790.62	0.095
791.06	0.096
791.49	0.094
791.93	0.098
792.37	0.095
792.80	0.095
793.24	0.091
793.68	0.094
794.11	0.096
794.55	0.095
794.99	0.095
795.42	0.094
795.86	0.093
796.30	0.094
796.73	0.094
797.17	0.097
797.61	0.093
798.04	0.093
798.48	0.093
798.91	0.093
799.35	0.097
799.79	0.093
800.22	0.096
800.66	0.093
801.10	0.095
801.53	0.093
801.97	0.094
802.40	0.092
802.84	0.094
803.28	0.095
803.71	0.095
804.15	0.092
804.58	0.094
805.02	0.090
805.46	0.094
805.89	0.092
806.33	0.091
806.76	0.096
807.20	0.092
807.63	0.096
808.07	0.090
808.51	0.087
808.94	0.092
809.38	0.089
809.81	0.092
810.25	0.095
810.68	0.089
811.12	0.093
811.55	0.092
811.99	0.094
812.42	0.091
812.86	0.090
813.29	0.093
813.73	0.091
814.17	0.093
814.60	0.088
815.04	0.090
815.47	0.088
815.91	0.096
816.34	0.091
816.78	0.086
817.21	0.091
817.65	0.092
