SpectraSuite Data File
++++++++++++++++++++++++++++++++++++
Date: Mon Jul 10 13:53:47 CEST 2017
User: IPCE
Dark Spectrum Present: Yes
Reference Spectrum Present: Yes
Number of Sampled Component Spectra: 1
Spectrometers: HR+C0708
Integration Time (usec): 1000 (HR+C0708)
Spectra Averaged: 10 (HR+C0708)
Boxcar Smoothing: 0 (HR+C0708)
Correct for Electrical Dark: No (HR+C0708)
Strobe/Lamp Enabled: No (HR+C0708)
Correct for Detector Non-linearity: No (HR+C0708)
Correct for Stray Light: No (HR+C0708)
Number of Pixels in Processed Spectrum: 2048
>>>>>Begin Processed Spectral Data<<<<<
188.76	0.523
189.23	-0.000
189.70	-0.000
190.17	0.293
190.64	0.222
191.12	-0.000
191.59	-0.000
192.06	0.557
192.53	1.193
193.01	-0.000
193.48	0.519
193.95	-0.000
194.42	-0.000
194.90	0.443
195.37	0.623
195.84	-0.000
196.31	-0.000
196.78	-0.000
197.26	0.377
197.73	0.325
198.20	0.878
198.67	1.041
199.14	0.586
199.62	-0.000
200.09	0.740
200.56	1.261
201.03	0.547
201.50	0.595
201.97	0.613
202.45	0.576
202.92	0.615
203.39	0.949
203.86	0.483
204.33	0.634
204.80	1.292
205.28	1.650
205.75	0.934
206.22	0.569
206.69	0.694
207.16	0.710
207.63	0.792
208.11	0.357
208.58	0.439
209.05	0.620
209.52	0.499
209.99	0.671
210.46	0.614
210.93	0.735
211.41	0.574
211.88	0.491
212.35	0.497
212.82	0.511
213.29	0.605
213.76	1.004
214.23	0.882
214.70	0.599
215.18	0.807
215.65	0.483
216.12	0.646
216.59	0.639
217.06	0.589
217.53	0.728
218.00	0.733
218.47	0.520
218.94	1.269
219.41	0.548
219.89	0.996
220.36	0.566
220.83	0.501
221.30	0.705
221.77	0.756
222.24	0.648
222.71	0.743
223.18	0.916
223.65	0.578
224.12	0.927
224.59	0.872
225.06	0.829
225.54	0.928
226.01	1.100
226.48	1.509
226.95	1.177
227.42	1.014
227.89	1.074
228.36	1.734
228.83	1.226
229.30	1.676
229.77	1.204
230.24	1.475
230.71	1.555
231.18	1.556
231.65	1.667
232.12	1.487
232.59	1.725
233.06	1.578
233.53	1.861
234.00	1.823
234.47	1.632
234.94	1.947
235.41	1.666
235.88	2.054
236.35	1.923
236.82	2.036
237.29	2.658
237.76	2.226
238.23	2.355
238.70	2.368
239.17	2.106
239.64	2.396
240.11	2.244
240.58	2.187
241.05	2.625
241.52	2.224
241.99	2.242
242.46	2.394
242.93	2.949
243.40	2.508
243.87	3.107
244.34	3.098
244.81	2.289
245.28	2.597
245.75	2.322
246.22	2.583
246.69	2.480
247.16	2.598
247.63	3.223
248.10	2.834
248.57	2.473
249.04	2.543
249.51	2.662
249.98	2.433
250.45	2.791
250.92	2.788
251.39	3.031
251.85	2.571
252.32	2.760
252.79	3.170
253.26	2.375
253.73	2.585
254.20	2.458
254.67	2.567
255.14	2.917
255.61	2.602
256.08	2.737
256.55	2.701
257.02	2.698
257.49	2.671
257.95	2.825
258.42	2.605
258.89	2.708
259.36	2.891
259.83	2.751
260.30	2.711
260.77	3.099
261.24	2.645
261.71	3.014
262.17	2.879
262.64	2.777
263.11	3.054
263.58	2.979
264.05	2.739
264.52	2.860
264.99	2.741
265.46	3.030
265.92	3.062
266.39	2.750
266.86	2.895
267.33	2.841
267.80	2.791
268.27	2.905
268.74	2.906
269.20	2.768
269.67	2.778
270.14	2.857
270.61	2.867
271.08	2.824
271.55	2.881
272.01	2.981
272.48	2.683
272.95	2.600
273.42	3.024
273.89	2.604
274.36	2.868
274.82	2.685
275.29	2.863
275.76	2.848
276.23	2.730
276.70	2.491
277.16	2.806
277.63	2.750
278.10	2.535
278.57	3.017
279.04	2.820
279.50	2.502
279.97	2.545
280.44	2.559
280.91	2.861
281.38	2.675
281.84	2.632
282.31	2.648
282.78	2.620
283.25	2.521
283.72	2.748
284.18	2.633
284.65	2.801
285.12	2.553
285.59	2.671
286.05	2.683
286.52	2.699
286.99	2.692
287.46	2.678
287.92	2.901
288.39	2.532
288.86	2.667
289.33	2.750
289.79	2.769
290.26	2.680
290.73	2.561
291.20	2.589
291.66	2.528
292.13	2.546
292.60	2.591
293.07	2.731
293.53	2.483
294.00	2.557
294.47	2.598
294.93	2.428
295.40	2.609
295.87	2.488
296.34	2.567
296.80	2.551
297.27	2.500
297.74	2.534
298.20	2.564
298.67	2.398
299.14	2.628
299.60	2.561
300.07	2.416
300.54	2.807
301.01	2.433
301.47	2.566
301.94	2.447
302.41	2.494
302.87	2.426
303.34	2.504
303.81	2.210
304.27	2.349
304.74	2.397
305.21	2.320
305.67	2.448
306.14	2.352
306.61	2.268
307.07	2.423
307.54	2.267
308.01	2.358
308.47	2.295
308.94	2.280
309.40	2.339
309.87	2.334
310.34	2.118
310.80	2.275
311.27	2.263
311.74	2.225
312.20	2.244
312.67	2.325
313.13	2.334
313.60	2.290
314.07	2.347
314.53	2.358
315.00	2.266
315.47	2.229
315.93	2.322
316.40	2.292
316.86	2.259
317.33	2.330
317.80	2.234
318.26	2.276
318.73	2.353
319.19	2.281
319.66	2.277
320.13	2.369
320.59	2.199
321.06	2.274
321.52	2.295
321.99	2.192
322.45	2.273
322.92	2.238
323.39	2.236
323.85	2.262
324.32	2.197
324.78	2.230
325.25	2.267
325.71	2.109
326.18	2.086
326.64	2.179
327.11	2.152
327.58	2.234
328.04	2.089
328.51	2.060
328.97	2.062
329.44	2.065
329.90	2.025
330.37	2.042
330.83	1.982
331.30	2.002
331.76	1.984
332.23	1.948
332.69	1.955
333.16	1.884
333.62	1.893
334.09	1.894
334.56	1.791
335.02	1.746
335.49	1.710
335.95	1.631
336.42	1.611
336.88	1.591
337.35	1.551
337.81	1.526
338.28	1.470
338.74	1.433
339.20	1.415
339.67	1.366
340.13	1.310
340.60	1.267
341.06	1.217
341.53	1.180
341.99	1.129
342.46	1.085
342.92	1.048
343.39	1.000
343.85	0.978
344.32	0.939
344.78	0.905
345.25	0.874
345.71	0.839
346.17	0.806
346.64	0.774
347.10	0.732
347.57	0.691
348.03	0.670
348.50	0.635
348.96	0.606
349.43	0.584
349.89	0.561
350.35	0.541
350.82	0.518
351.28	0.491
351.75	0.477
352.21	0.457
352.67	0.436
353.14	0.425
353.60	0.402
354.07	0.391
354.53	0.379
355.00	0.364
355.46	0.355
355.92	0.348
356.39	0.336
356.85	0.324
357.31	0.322
357.78	0.310
358.24	0.307
358.71	0.300
359.17	0.290
359.63	0.292
360.10	0.285
360.56	0.283
361.03	0.278
361.49	0.271
361.95	0.274
362.42	0.271
362.88	0.266
363.34	0.268
363.81	0.262
364.27	0.262
364.73	0.257
365.20	0.257
365.66	0.252
366.12	0.254
366.59	0.252
367.05	0.246
367.51	0.250
367.98	0.246
368.44	0.245
368.90	0.242
369.37	0.239
369.83	0.240
370.29	0.238
370.76	0.237
371.22	0.239
371.68	0.233
372.15	0.239
372.61	0.233
373.07	0.232
373.54	0.231
374.00	0.233
374.46	0.230
374.92	0.229
375.39	0.230
375.85	0.226
376.31	0.226
376.78	0.225
377.24	0.225
377.70	0.219
378.16	0.225
378.63	0.224
379.09	0.224
379.55	0.220
380.01	0.218
380.48	0.214
380.94	0.217
381.40	0.218
381.87	0.218
382.33	0.220
382.79	0.215
383.25	0.212
383.72	0.214
384.18	0.213
384.64	0.216
385.10	0.214
385.56	0.208
386.03	0.209
386.49	0.209
386.95	0.207
387.41	0.209
387.88	0.206
388.34	0.208
388.80	0.207
389.26	0.204
389.72	0.204
390.19	0.207
390.65	0.203
391.11	0.201
391.57	0.200
392.04	0.201
392.50	0.203
392.96	0.201
393.42	0.198
393.88	0.199
394.34	0.199
394.81	0.199
395.27	0.197
395.73	0.195
396.19	0.196
396.65	0.198
397.12	0.193
397.58	0.197
398.04	0.194
398.50	0.193
398.96	0.193
399.42	0.194
399.89	0.193
400.35	0.191
400.81	0.193
401.27	0.189
401.73	0.190
402.19	0.188
402.65	0.186
403.12	0.184
403.58	0.184
404.04	0.186
404.50	0.183
404.96	0.182
405.42	0.182
405.88	0.182
406.34	0.181
406.81	0.182
407.27	0.179
407.73	0.181
408.19	0.178
408.65	0.178
409.11	0.179
409.57	0.176
410.03	0.177
410.49	0.175
410.96	0.176
411.42	0.173
411.88	0.173
412.34	0.174
412.80	0.172
413.26	0.171
413.72	0.171
414.18	0.170
414.64	0.169
415.10	0.170
415.56	0.171
416.02	0.169
416.48	0.173
416.95	0.167
417.41	0.165
417.87	0.166
418.33	0.167
418.79	0.167
419.25	0.163
419.71	0.167
420.17	0.163
420.63	0.162
421.09	0.165
421.55	0.166
422.01	0.164
422.47	0.165
422.93	0.164
423.39	0.164
423.85	0.161
424.31	0.162
424.77	0.160
425.23	0.164
425.69	0.162
426.15	0.165
426.61	0.160
427.07	0.160
427.53	0.158
427.99	0.155
428.45	0.159
428.91	0.157
429.37	0.158
429.83	0.158
430.29	0.159
430.75	0.159
431.21	0.155
431.67	0.156
432.13	0.154
432.59	0.151
433.05	0.152
433.51	0.153
433.97	0.152
434.43	0.153
434.89	0.151
435.35	0.152
435.81	0.149
436.27	0.149
436.73	0.148
437.19	0.150
437.65	0.151
438.11	0.149
438.57	0.151
439.03	0.146
439.48	0.150
439.94	0.151
440.40	0.149
440.86	0.145
441.32	0.145
441.78	0.142
442.24	0.145
442.70	0.142
443.16	0.146
443.62	0.146
444.08	0.145
444.54	0.144
444.99	0.144
445.45	0.144
445.91	0.145
446.37	0.143
446.83	0.142
447.29	0.140
447.75	0.143
448.21	0.141
448.67	0.143
449.12	0.137
449.58	0.138
450.04	0.144
450.50	0.138
450.96	0.139
451.42	0.140
451.88	0.138
452.34	0.138
452.79	0.139
453.25	0.139
453.71	0.138
454.17	0.139
454.63	0.136
455.09	0.138
455.55	0.136
456.00	0.136
456.46	0.133
456.92	0.134
457.38	0.134
457.84	0.136
458.30	0.135
458.75	0.136
459.21	0.130
459.67	0.138
460.13	0.131
460.59	0.134
461.04	0.136
461.50	0.135
461.96	0.134
462.42	0.136
462.88	0.135
463.33	0.132
463.79	0.132
464.25	0.132
464.71	0.133
465.17	0.132
465.62	0.132
466.08	0.136
466.54	0.133
467.00	0.134
467.46	0.131
467.91	0.131
468.37	0.131
468.83	0.133
469.29	0.135
469.74	0.132
470.20	0.132
470.66	0.132
471.12	0.133
471.57	0.133
472.03	0.130
472.49	0.133
472.95	0.131
473.40	0.129
473.86	0.130
474.32	0.131
474.78	0.130
475.23	0.130
475.69	0.132
476.15	0.128
476.60	0.129
477.06	0.130
477.52	0.130
477.98	0.128
478.43	0.128
478.89	0.130
479.35	0.129
479.80	0.129
480.26	0.130
480.72	0.130
481.18	0.127
481.63	0.129
482.09	0.124
482.55	0.128
483.00	0.128
483.46	0.128
483.92	0.126
484.37	0.128
484.83	0.125
485.29	0.128
485.74	0.126
486.20	0.127
486.66	0.127
487.11	0.127
487.57	0.125
488.03	0.128
488.48	0.123
488.94	0.126
489.40	0.125
489.85	0.126
490.31	0.124
490.77	0.125
491.22	0.123
491.68	0.125
492.13	0.125
492.59	0.125
493.05	0.125
493.50	0.122
493.96	0.124
494.42	0.124
494.87	0.122
495.33	0.124
495.78	0.125
496.24	0.124
496.70	0.123
497.15	0.122
497.61	0.121
498.06	0.123
498.52	0.122
498.98	0.124
499.43	0.123
499.89	0.121
500.34	0.122
500.80	0.122
501.25	0.121
501.71	0.120
502.17	0.120
502.62	0.122
503.08	0.119
503.53	0.122
503.99	0.118
504.44	0.120
504.90	0.119
505.36	0.122
505.81	0.118
506.27	0.119
506.72	0.119
507.18	0.119
507.63	0.118
508.09	0.118
508.54	0.117
509.00	0.117
509.45	0.117
509.91	0.119
510.36	0.117
510.82	0.119
511.27	0.117
511.73	0.117
512.19	0.118
512.64	0.116
513.10	0.117
513.55	0.117
514.01	0.116
514.46	0.116
514.92	0.113
515.37	0.113
515.83	0.116
516.28	0.115
516.73	0.115
517.19	0.114
517.64	0.119
518.10	0.117
518.55	0.114
519.01	0.116
519.46	0.114
519.92	0.114
520.37	0.115
520.83	0.114
521.28	0.115
521.74	0.114
522.19	0.113
522.65	0.112
523.10	0.113
523.55	0.114
524.01	0.113
524.46	0.113
524.92	0.112
525.37	0.113
525.83	0.114
526.28	0.111
526.73	0.113
527.19	0.112
527.64	0.112
528.10	0.112
528.55	0.113
529.01	0.114
529.46	0.114
529.91	0.114
530.37	0.112
530.82	0.112
531.28	0.111
531.73	0.114
532.18	0.113
532.64	0.113
533.09	0.112
533.54	0.112
534.00	0.110
534.45	0.114
534.91	0.113
535.36	0.112
535.81	0.114
536.27	0.114
536.72	0.114
537.17	0.113
537.63	0.115
538.08	0.115
538.54	0.112
538.99	0.114
539.44	0.116
539.90	0.114
540.35	0.113
540.80	0.115
541.26	0.116
541.71	0.114
542.16	0.114
542.62	0.116
543.07	0.114
543.52	0.115
543.98	0.116
544.43	0.116
544.88	0.118
545.34	0.115
545.79	0.115
546.24	0.118
546.69	0.118
547.15	0.118
547.60	0.119
548.05	0.121
548.51	0.119
548.96	0.118
549.41	0.121
549.86	0.120
550.32	0.121
550.77	0.123
551.22	0.123
551.68	0.122
552.13	0.121
552.58	0.122
553.03	0.123
553.49	0.125
553.94	0.125
554.39	0.125
554.84	0.125
555.30	0.125
555.75	0.126
556.20	0.125
556.65	0.129
557.11	0.127
557.56	0.128
558.01	0.129
558.46	0.129
558.92	0.132
559.37	0.131
559.82	0.132
560.27	0.129
560.72	0.131
561.18	0.134
561.63	0.132
562.08	0.134
562.53	0.134
562.99	0.137
563.44	0.135
563.89	0.136
564.34	0.138
564.79	0.136
565.25	0.138
565.70	0.139
566.15	0.140
566.60	0.138
567.05	0.143
567.50	0.141
567.96	0.142
568.41	0.142
568.86	0.145
569.31	0.145
569.76	0.146
570.21	0.144
570.67	0.146
571.12	0.147
571.57	0.148
572.02	0.149
572.47	0.149
572.92	0.148
573.37	0.150
573.83	0.150
574.28	0.151
574.73	0.153
575.18	0.154
575.63	0.154
576.08	0.158
576.53	0.156
576.98	0.159
577.44	0.158
577.89	0.162
578.34	0.162
578.79	0.162
579.24	0.163
579.69	0.165
580.14	0.166
580.59	0.165
581.04	0.168
581.49	0.170
581.95	0.170
582.40	0.171
582.85	0.175
583.30	0.175
583.75	0.177
584.20	0.181
584.65	0.178
585.10	0.179
585.55	0.183
586.00	0.185
586.45	0.185
586.90	0.188
587.35	0.188
587.80	0.192
588.25	0.192
588.71	0.195
589.16	0.196
589.61	0.200
590.06	0.201
590.51	0.205
590.96	0.202
591.41	0.205
591.86	0.209
592.31	0.210
592.76	0.211
593.21	0.211
593.66	0.213
594.11	0.217
594.56	0.220
595.01	0.222
595.46	0.224
595.91	0.226
596.36	0.227
596.81	0.229
597.26	0.234
597.71	0.233
598.16	0.237
598.61	0.238
599.06	0.242
599.51	0.245
599.96	0.246
600.41	0.247
600.86	0.250
601.31	0.253
601.76	0.254
602.21	0.256
602.65	0.257
603.10	0.261
603.55	0.264
604.00	0.266
604.45	0.267
604.90	0.269
605.35	0.272
605.80	0.273
606.25	0.278
606.70	0.278
607.15	0.277
607.60	0.279
608.05	0.280
608.50	0.283
608.95	0.284
609.39	0.285
609.84	0.287
610.29	0.289
610.74	0.291
611.19	0.290
611.64	0.293
612.09	0.295
612.54	0.293
612.99	0.296
613.44	0.297
613.88	0.296
614.33	0.299
614.78	0.298
615.23	0.299
615.68	0.301
616.13	0.301
616.58	0.302
617.03	0.302
617.47	0.306
617.92	0.302
618.37	0.304
618.82	0.305
619.27	0.307
619.72	0.306
620.17	0.307
620.61	0.307
621.06	0.307
621.51	0.309
621.96	0.306
622.41	0.310
622.86	0.310
623.30	0.313
623.75	0.314
624.20	0.313
624.65	0.314
625.10	0.313
625.54	0.313
625.99	0.315
626.44	0.317
626.89	0.317
627.34	0.319
627.78	0.318
628.23	0.320
628.68	0.323
629.13	0.321
629.58	0.322
630.02	0.327
630.47	0.328
630.92	0.329
631.37	0.332
631.81	0.333
632.26	0.334
632.71	0.336
633.16	0.337
633.61	0.341
634.05	0.340
634.50	0.345
634.95	0.348
635.40	0.350
635.84	0.351
636.29	0.355
636.74	0.359
637.18	0.358
637.63	0.361
638.08	0.367
638.53	0.371
638.97	0.371
639.42	0.375
639.87	0.377
640.32	0.378
640.76	0.383
641.21	0.386
641.66	0.389
642.10	0.392
642.55	0.395
643.00	0.400
643.44	0.403
643.89	0.407
644.34	0.409
644.79	0.416
645.23	0.416
645.68	0.422
646.13	0.426
646.57	0.428
647.02	0.433
647.47	0.439
647.91	0.441
648.36	0.445
648.81	0.449
649.25	0.452
649.70	0.455
650.15	0.460
650.59	0.465
651.04	0.466
651.48	0.470
651.93	0.473
652.38	0.477
652.82	0.479
653.27	0.482
653.72	0.488
654.16	0.491
654.61	0.494
655.06	0.498
655.50	0.500
655.95	0.502
656.39	0.505
656.84	0.509
657.29	0.512
657.73	0.511
658.18	0.517
658.62	0.521
659.07	0.521
659.52	0.521
659.96	0.529
660.41	0.528
660.85	0.531
661.30	0.533
661.74	0.532
662.19	0.536
662.64	0.537
663.08	0.537
663.53	0.540
663.97	0.541
664.42	0.537
664.86	0.543
665.31	0.539
665.75	0.540
666.20	0.541
666.65	0.541
667.09	0.537
667.54	0.533
667.98	0.533
668.43	0.532
668.87	0.528
669.32	0.527
669.76	0.526
670.21	0.519
670.65	0.518
671.10	0.515
671.54	0.508
671.99	0.504
672.43	0.496
672.88	0.489
673.32	0.483
673.77	0.480
674.21	0.472
674.66	0.463
675.10	0.455
675.55	0.448
675.99	0.439
676.44	0.430
676.88	0.422
677.33	0.414
677.77	0.403
678.22	0.394
678.66	0.384
679.11	0.377
679.55	0.369
679.99	0.356
680.44	0.349
680.88	0.340
681.33	0.327
681.77	0.321
682.22	0.310
682.66	0.302
683.11	0.292
683.55	0.283
683.99	0.274
684.44	0.270
684.88	0.259
685.33	0.252
685.77	0.244
686.21	0.234
686.66	0.227
687.10	0.217
687.55	0.212
687.99	0.207
688.44	0.199
688.88	0.191
689.32	0.186
689.77	0.180
690.21	0.176
690.65	0.169
691.10	0.165
691.54	0.160
691.99	0.153
692.43	0.147
692.87	0.143
693.32	0.139
693.76	0.134
694.20	0.135
694.65	0.126
695.09	0.126
695.53	0.122
695.98	0.119
696.42	0.114
696.86	0.110
697.31	0.110
697.75	0.106
698.19	0.103
698.64	0.103
699.08	0.101
699.52	0.096
699.97	0.093
700.41	0.095
700.85	0.092
701.30	0.090
701.74	0.087
702.18	0.086
702.63	0.085
703.07	0.082
703.51	0.083
703.96	0.079
704.40	0.078
704.84	0.079
705.28	0.077
705.73	0.078
706.17	0.073
706.61	0.074
707.06	0.074
707.50	0.072
707.94	0.070
708.38	0.067
708.83	0.070
709.27	0.067
709.71	0.068
710.15	0.068
710.60	0.067
711.04	0.066
711.48	0.065
711.92	0.062
712.37	0.066
712.81	0.061
713.25	0.065
713.69	0.066
714.13	0.065
714.58	0.064
715.02	0.064
715.46	0.061
715.90	0.061
716.35	0.061
716.79	0.060
717.23	0.062
717.67	0.060
718.11	0.062
718.56	0.061
719.00	0.056
719.44	0.059
719.88	0.062
720.32	0.057
720.76	0.061
721.21	0.059
721.65	0.056
722.09	0.060
722.53	0.059
722.97	0.060
723.41	0.058
723.86	0.061
724.30	0.059
724.74	0.058
725.18	0.059
725.62	0.058
726.06	0.056
726.50	0.062
726.95	0.059
727.39	0.058
727.83	0.060
728.27	0.058
728.71	0.058
729.15	0.058
729.59	0.062
730.03	0.060
730.48	0.061
730.92	0.059
731.36	0.060
731.80	0.059
732.24	0.059
732.68	0.059
733.12	0.061
733.56	0.058
734.00	0.064
734.44	0.059
734.89	0.060
735.33	0.060
735.77	0.061
736.21	0.062
736.65	0.060
737.09	0.060
737.53	0.061
737.97	0.062
738.41	0.060
738.85	0.063
739.29	0.058
739.73	0.063
740.17	0.063
740.61	0.060
741.05	0.062
741.49	0.059
741.93	0.061
742.37	0.062
742.81	0.061
743.26	0.061
743.70	0.058
744.14	0.060
744.58	0.060
745.02	0.057
745.46	0.058
745.90	0.062
746.34	0.063
746.78	0.060
747.22	0.059
747.66	0.062
748.10	0.060
748.54	0.063
748.98	0.060
749.42	0.059
749.86	0.062
750.29	0.058
750.73	0.059
751.17	0.059
751.61	0.060
752.05	0.060
752.49	0.061
752.93	0.055
753.37	0.059
753.81	0.058
754.25	0.059
754.69	0.060
755.13	0.057
755.57	0.060
756.01	0.060
756.45	0.058
756.89	0.057
757.33	0.062
757.77	0.058
758.21	0.057
758.64	0.060
759.08	0.055
759.52	0.058
759.96	0.056
760.40	0.057
760.84	0.058
761.28	0.061
761.72	0.060
762.16	0.059
762.60	0.059
763.03	0.056
763.47	0.057
763.91	0.057
764.35	0.056
764.79	0.055
765.23	0.062
765.67	0.056
766.11	0.059
766.54	0.057
766.98	0.058
767.42	0.056
767.86	0.057
768.30	0.060
768.74	0.057
769.17	0.055
769.61	0.055
770.05	0.059
770.49	0.060
770.93	0.054
771.37	0.055
771.80	0.055
772.24	0.055
772.68	0.056
773.12	0.057
773.56	0.056
774.00	0.057
774.43	0.053
774.87	0.054
775.31	0.055
775.75	0.057
776.19	0.053
776.62	0.057
777.06	0.056
777.50	0.054
777.94	0.056
778.37	0.059
778.81	0.055
779.25	0.056
779.69	0.054
780.13	0.059
780.56	0.057
781.00	0.057
781.44	0.057
781.88	0.057
782.31	0.054
782.75	0.053
783.19	0.052
783.63	0.053
784.06	0.058
784.50	0.054
784.94	0.057
785.37	0.054
785.81	0.057
786.25	0.052
786.69	0.054
787.12	0.055
787.56	0.055
788.00	0.054
788.43	0.054
788.87	0.056
789.31	0.054
789.75	0.054
790.18	0.055
790.62	0.054
791.06	0.054
791.49	0.054
791.93	0.055
792.37	0.054
792.80	0.053
793.24	0.050
793.68	0.055
794.11	0.053
794.55	0.055
794.99	0.053
795.42	0.054
795.86	0.050
796.30	0.052
796.73	0.053
797.17	0.059
797.61	0.053
798.04	0.053
798.48	0.054
798.91	0.051
799.35	0.058
799.79	0.052
800.22	0.055
800.66	0.052
801.10	0.055
801.53	0.056
801.97	0.058
802.40	0.054
802.84	0.055
803.28	0.056
803.71	0.054
804.15	0.055
804.58	0.054
805.02	0.052
805.46	0.054
805.89	0.057
806.33	0.056
806.76	0.054
807.20	0.054
807.63	0.052
808.07	0.053
808.51	0.049
808.94	0.052
809.38	0.051
809.81	0.053
810.25	0.054
810.68	0.053
811.12	0.054
811.55	0.048
811.99	0.054
812.42	0.054
812.86	0.056
813.29	0.053
813.73	0.055
814.17	0.056
814.60	0.054
815.04	0.055
815.47	0.052
815.91	0.058
816.34	0.052
816.78	0.056
817.21	0.052
817.65	0.053
