SpectraSuite Data File
++++++++++++++++++++++++++++++++++++
Date: Mon Jul 10 14:31:47 CEST 2017
User: IPCE
Dark Spectrum Present: Yes
Reference Spectrum Present: Yes
Number of Sampled Component Spectra: 1
Spectrometers: HR+C0708
Integration Time (usec): 1000 (HR+C0708)
Spectra Averaged: 10 (HR+C0708)
Boxcar Smoothing: 0 (HR+C0708)
Correct for Electrical Dark: No (HR+C0708)
Strobe/Lamp Enabled: No (HR+C0708)
Correct for Detector Non-linearity: No (HR+C0708)
Correct for Stray Light: No (HR+C0708)
Number of Pixels in Processed Spectrum: 2048
>>>>>Begin Processed Spectral Data<<<<<
188.76	0.655
189.23	-0.000
189.70	-0.000
190.17	1.160
190.64	-0.000
191.12	-0.000
191.59	-0.000
192.06	-0.000
192.53	0.512
193.01	-0.000
193.48	1.643
193.95	-0.000
194.42	-0.000
194.90	0.692
195.37	-0.000
195.84	-0.000
196.31	-0.000
196.78	-0.000
197.26	-0.000
197.73	-0.000
198.20	-0.000
198.67	1.944
199.14	-0.000
199.62	-0.000
200.09	-0.000
200.56	1.164
201.03	0.706
201.50	-0.000
201.97	0.725
202.45	1.240
202.92	0.999
203.39	1.589
203.86	0.954
204.33	0.877
204.80	1.082
205.28	-0.000
205.75	-0.000
206.22	-0.000
206.69	1.398
207.16	1.176
207.63	-0.000
208.11	0.658
208.58	0.734
209.05	0.789
209.52	0.732
209.99	-0.000
210.46	0.707
210.93	1.116
211.41	0.600
211.88	0.645
212.35	0.681
212.82	0.645
213.29	0.853
213.76	1.165
214.23	0.992
214.70	0.888
215.18	-0.000
215.65	0.875
216.12	0.795
216.59	0.900
217.06	0.687
217.53	0.931
218.00	0.753
218.47	0.746
218.94	-0.000
219.41	1.015
219.89	1.228
220.36	1.070
220.83	0.721
221.30	1.002
221.77	0.691
222.24	0.744
222.71	1.571
223.18	0.984
223.65	0.760
224.12	0.967
224.59	1.055
225.06	0.883
225.54	1.361
226.01	0.946
226.48	1.133
226.95	-0.000
227.42	1.076
227.89	1.394
228.36	-0.000
228.83	1.381
229.30	1.628
229.77	1.596
230.24	1.697
230.71	2.096
231.18	1.647
231.65	2.041
232.12	1.740
232.59	1.650
233.06	1.867
233.53	1.718
234.00	1.978
234.47	1.897
234.94	2.103
235.41	1.785
235.88	1.959
236.35	1.983
236.82	1.992
237.29	-0.000
237.76	2.713
238.23	2.893
238.70	-0.000
239.17	2.392
239.64	2.570
240.11	2.531
240.58	2.258
241.05	3.103
241.52	2.531
241.99	2.346
242.46	2.957
242.93	-0.000
243.40	2.837
243.87	-0.000
244.34	3.228
244.81	2.483
245.28	2.764
245.75	2.465
246.22	3.040
246.69	2.570
247.16	2.666
247.63	2.843
248.10	3.024
248.57	2.882
249.04	2.702
249.51	3.202
249.98	2.607
250.45	3.104
250.92	2.794
251.39	3.322
251.85	2.673
252.32	2.782
252.79	-0.000
253.26	2.730
253.73	2.688
254.20	2.673
254.67	2.704
255.14	2.815
255.61	2.779
256.08	2.691
256.55	3.178
257.02	3.196
257.49	2.896
257.95	2.869
258.42	2.924
258.89	2.933
259.36	3.241
259.83	3.024
260.30	2.757
260.77	3.293
261.24	2.711
261.71	2.896
262.17	2.940
262.64	2.684
263.11	2.857
263.58	3.301
264.05	2.915
264.52	2.800
264.99	2.792
265.46	2.841
265.92	2.921
266.39	2.826
266.86	2.656
267.33	3.164
267.80	2.688
268.27	2.809
268.74	3.117
269.20	2.675
269.67	2.788
270.14	2.842
270.61	2.757
271.08	2.795
271.55	2.802
272.01	3.034
272.48	2.753
272.95	2.523
273.42	2.640
273.89	2.688
274.36	2.945
274.82	2.746
275.29	2.746
275.76	2.646
276.23	2.714
276.70	2.436
277.16	2.507
277.63	2.567
278.10	2.533
278.57	2.673
279.04	2.648
279.50	2.454
279.97	2.472
280.44	2.454
280.91	2.687
281.38	2.663
281.84	2.524
282.31	2.457
282.78	2.507
283.25	2.403
283.72	2.458
284.18	2.504
284.65	2.551
285.12	2.347
285.59	2.485
286.05	2.393
286.52	2.458
286.99	2.384
287.46	2.403
287.92	2.425
288.39	2.352
288.86	2.350
289.33	2.442
289.79	2.460
290.26	2.394
290.73	2.307
291.20	2.316
291.66	2.337
292.13	2.274
292.60	2.263
293.07	2.398
293.53	2.279
294.00	2.238
294.47	2.364
294.93	2.223
295.40	2.269
295.87	2.203
296.34	2.296
296.80	2.287
297.27	2.292
297.74	2.308
298.20	2.322
298.67	2.209
299.14	2.237
299.60	2.248
300.07	2.156
300.54	2.184
301.01	2.206
301.47	2.234
301.94	2.190
302.41	2.174
302.87	2.172
303.34	2.199
303.81	2.039
304.27	2.133
304.74	2.152
305.21	2.081
305.67	2.126
306.14	2.076
306.61	2.070
307.07	2.104
307.54	2.055
308.01	2.076
308.47	2.090
308.94	2.067
309.40	2.053
309.87	2.069
310.34	2.023
310.80	2.079
311.27	2.006
311.74	2.045
312.20	2.016
312.67	2.009
313.13	2.027
313.60	2.048
314.07	1.982
314.53	2.005
315.00	2.039
315.47	1.985
315.93	2.019
316.40	1.962
316.86	1.975
317.33	1.989
317.80	1.941
318.26	1.973
318.73	1.940
319.19	1.933
319.66	1.928
320.13	1.976
320.59	1.883
321.06	1.907
321.52	1.912
321.99	1.903
322.45	1.899
322.92	1.864
323.39	1.878
323.85	1.850
324.32	1.848
324.78	1.846
325.25	1.896
325.71	1.799
326.18	1.824
326.64	1.841
327.11	1.815
327.58	1.794
328.04	1.777
328.51	1.741
328.97	1.772
329.44	1.744
329.90	1.721
330.37	1.749
330.83	1.690
331.30	1.727
331.76	1.720
332.23	1.665
332.69	1.659
333.16	1.634
333.62	1.658
334.09	1.633
334.56	1.588
335.02	1.576
335.49	1.561
335.95	1.520
336.42	1.491
336.88	1.487
337.35	1.458
337.81	1.431
338.28	1.415
338.74	1.386
339.20	1.375
339.67	1.356
340.13	1.328
340.60	1.317
341.06	1.265
341.53	1.242
341.99	1.216
342.46	1.193
342.92	1.173
343.39	1.140
343.85	1.122
344.32	1.094
344.78	1.082
345.25	1.058
345.71	1.033
346.17	1.013
346.64	0.983
347.10	0.972
347.57	0.941
348.03	0.925
348.50	0.902
348.96	0.885
349.43	0.866
349.89	0.847
350.35	0.840
350.82	0.813
351.28	0.805
351.75	0.792
352.21	0.776
352.67	0.758
353.14	0.748
353.60	0.733
354.07	0.726
354.53	0.706
355.00	0.702
355.46	0.689
355.92	0.677
356.39	0.666
356.85	0.662
357.31	0.655
357.78	0.638
358.24	0.637
358.71	0.627
359.17	0.616
359.63	0.621
360.10	0.608
360.56	0.605
361.03	0.600
361.49	0.590
361.95	0.589
362.42	0.592
362.88	0.582
363.34	0.585
363.81	0.580
364.27	0.578
364.73	0.569
365.20	0.568
365.66	0.568
366.12	0.562
366.59	0.559
367.05	0.559
367.51	0.558
367.98	0.552
368.44	0.548
368.90	0.551
369.37	0.546
369.83	0.545
370.29	0.543
370.76	0.539
371.22	0.538
371.68	0.539
372.15	0.537
372.61	0.531
373.07	0.531
373.54	0.529
374.00	0.528
374.46	0.525
374.92	0.524
375.39	0.522
375.85	0.520
376.31	0.519
376.78	0.518
377.24	0.517
377.70	0.512
378.16	0.512
378.63	0.509
379.09	0.510
379.55	0.507
380.01	0.506
380.48	0.501
380.94	0.502
381.40	0.500
381.87	0.501
382.33	0.500
382.79	0.499
383.25	0.491
383.72	0.492
384.18	0.486
384.64	0.492
385.10	0.487
385.56	0.488
386.03	0.485
386.49	0.481
386.95	0.482
387.41	0.483
387.88	0.481
388.34	0.481
388.80	0.479
389.26	0.473
389.72	0.476
390.19	0.474
390.65	0.473
391.11	0.466
391.57	0.466
392.04	0.462
392.50	0.467
392.96	0.467
393.42	0.464
393.88	0.462
394.34	0.463
394.81	0.458
395.27	0.458
395.73	0.456
396.19	0.455
396.65	0.455
397.12	0.452
397.58	0.452
398.04	0.451
398.50	0.450
398.96	0.451
399.42	0.447
399.89	0.447
400.35	0.445
400.81	0.445
401.27	0.442
401.73	0.443
402.19	0.436
402.65	0.439
403.12	0.436
403.58	0.434
404.04	0.434
404.50	0.433
404.96	0.427
405.42	0.430
405.88	0.428
406.34	0.427
406.81	0.427
407.27	0.426
407.73	0.423
408.19	0.422
408.65	0.421
409.11	0.422
409.57	0.420
410.03	0.420
410.49	0.418
410.96	0.419
411.42	0.414
411.88	0.412
412.34	0.411
412.80	0.413
413.26	0.413
413.72	0.409
414.18	0.409
414.64	0.406
415.10	0.407
415.56	0.406
416.02	0.406
416.48	0.404
416.95	0.398
417.41	0.402
417.87	0.404
418.33	0.397
418.79	0.401
419.25	0.394
419.71	0.393
420.17	0.395
420.63	0.394
421.09	0.396
421.55	0.393
422.01	0.392
422.47	0.392
422.93	0.387
423.39	0.389
423.85	0.387
424.31	0.389
424.77	0.386
425.23	0.387
425.69	0.384
426.15	0.384
426.61	0.380
427.07	0.382
427.53	0.382
427.99	0.377
428.45	0.377
428.91	0.378
429.37	0.376
429.83	0.377
430.29	0.375
430.75	0.377
431.21	0.373
431.67	0.373
432.13	0.370
432.59	0.367
433.05	0.369
433.51	0.368
433.97	0.368
434.43	0.369
434.89	0.364
435.35	0.364
435.81	0.360
436.27	0.359
436.73	0.360
437.19	0.358
437.65	0.358
438.11	0.358
438.57	0.356
439.03	0.350
439.48	0.357
439.94	0.356
440.40	0.354
440.86	0.352
441.32	0.351
441.78	0.344
442.24	0.353
442.70	0.347
443.16	0.348
443.62	0.346
444.08	0.344
444.54	0.347
444.99	0.345
445.45	0.344
445.91	0.344
446.37	0.340
446.83	0.337
447.29	0.338
447.75	0.336
448.21	0.335
448.67	0.335
449.12	0.334
449.58	0.337
450.04	0.331
450.50	0.332
450.96	0.332
451.42	0.330
451.88	0.331
452.34	0.330
452.79	0.330
453.25	0.332
453.71	0.329
454.17	0.323
454.63	0.324
455.09	0.323
455.55	0.322
456.00	0.320
456.46	0.321
456.92	0.319
457.38	0.317
457.84	0.320
458.30	0.315
458.75	0.318
459.21	0.314
459.67	0.318
460.13	0.312
460.59	0.315
461.04	0.315
461.50	0.315
461.96	0.313
462.42	0.313
462.88	0.312
463.33	0.310
463.79	0.310
464.25	0.312
464.71	0.309
465.17	0.308
465.62	0.307
466.08	0.310
466.54	0.308
467.00	0.308
467.46	0.307
467.91	0.304
468.37	0.302
468.83	0.305
469.29	0.304
469.74	0.304
470.20	0.302
470.66	0.303
471.12	0.305
471.57	0.301
472.03	0.298
472.49	0.300
472.95	0.296
473.40	0.294
473.86	0.295
474.32	0.298
474.78	0.295
475.23	0.294
475.69	0.293
476.15	0.295
476.60	0.291
477.06	0.288
477.52	0.291
477.98	0.293
478.43	0.291
478.89	0.286
479.35	0.287
479.80	0.289
480.26	0.287
480.72	0.286
481.18	0.286
481.63	0.287
482.09	0.283
482.55	0.286
483.00	0.283
483.46	0.283
483.92	0.282
484.37	0.283
484.83	0.279
485.29	0.282
485.74	0.279
486.20	0.280
486.66	0.279
487.11	0.279
487.57	0.277
488.03	0.278
488.48	0.276
488.94	0.275
489.40	0.277
489.85	0.275
490.31	0.275
490.77	0.274
491.22	0.271
491.68	0.275
492.13	0.270
492.59	0.272
493.05	0.270
493.50	0.270
493.96	0.271
494.42	0.270
494.87	0.268
495.33	0.269
495.78	0.271
496.24	0.266
496.70	0.267
497.15	0.267
497.61	0.266
498.06	0.268
498.52	0.262
498.98	0.264
499.43	0.268
499.89	0.264
500.34	0.264
500.80	0.265
501.25	0.263
501.71	0.260
502.17	0.262
502.62	0.262
503.08	0.259
503.53	0.261
503.99	0.261
504.44	0.261
504.90	0.258
505.36	0.259
505.81	0.257
506.27	0.259
506.72	0.257
507.18	0.258
507.63	0.255
508.09	0.257
508.54	0.255
509.00	0.255
509.45	0.254
509.91	0.254
510.36	0.254
510.82	0.254
511.27	0.255
511.73	0.252
512.19	0.251
512.64	0.249
513.10	0.252
513.55	0.249
514.01	0.250
514.46	0.248
514.92	0.248
515.37	0.247
515.83	0.247
516.28	0.244
516.73	0.243
517.19	0.245
517.64	0.245
518.10	0.246
518.55	0.243
519.01	0.243
519.46	0.244
519.92	0.242
520.37	0.242
520.83	0.244
521.28	0.240
521.74	0.241
522.19	0.241
522.65	0.239
523.10	0.239
523.55	0.240
524.01	0.238
524.46	0.239
524.92	0.240
525.37	0.240
525.83	0.238
526.28	0.237
526.73	0.237
527.19	0.237
527.64	0.235
528.10	0.236
528.55	0.233
529.01	0.237
529.46	0.234
529.91	0.235
530.37	0.234
530.82	0.232
531.28	0.230
531.73	0.235
532.18	0.234
532.64	0.232
533.09	0.232
533.54	0.232
534.00	0.231
534.45	0.231
534.91	0.230
535.36	0.229
535.81	0.226
536.27	0.229
536.72	0.230
537.17	0.225
537.63	0.226
538.08	0.229
538.54	0.227
538.99	0.225
539.44	0.226
539.90	0.225
540.35	0.226
540.80	0.226
541.26	0.223
541.71	0.223
542.16	0.223
542.62	0.222
543.07	0.222
543.52	0.221
543.98	0.221
544.43	0.221
544.88	0.223
545.34	0.223
545.79	0.223
546.24	0.219
546.69	0.222
547.15	0.220
547.60	0.220
548.05	0.220
548.51	0.220
548.96	0.216
549.41	0.219
549.86	0.218
550.32	0.218
550.77	0.218
551.22	0.217
551.68	0.215
552.13	0.215
552.58	0.216
553.03	0.216
553.49	0.215
553.94	0.216
554.39	0.217
554.84	0.214
555.30	0.213
555.75	0.212
556.20	0.212
556.65	0.212
557.11	0.212
557.56	0.214
558.01	0.212
558.46	0.213
558.92	0.213
559.37	0.212
559.82	0.211
560.27	0.211
560.72	0.210
561.18	0.211
561.63	0.209
562.08	0.208
562.53	0.208
562.99	0.210
563.44	0.209
563.89	0.205
564.34	0.207
564.79	0.208
565.25	0.208
565.70	0.209
566.15	0.206
566.60	0.203
567.05	0.208
567.50	0.207
567.96	0.206
568.41	0.206
568.86	0.207
569.31	0.206
569.76	0.206
570.21	0.205
570.67	0.204
571.12	0.202
571.57	0.204
572.02	0.202
572.47	0.202
572.92	0.203
573.37	0.202
573.83	0.200
574.28	0.199
574.73	0.199
575.18	0.200
575.63	0.201
576.08	0.200
576.53	0.198
576.98	0.198
577.44	0.200
577.89	0.199
578.34	0.199
578.79	0.199
579.24	0.197
579.69	0.196
580.14	0.199
580.59	0.196
581.04	0.197
581.49	0.199
581.95	0.195
582.40	0.195
582.85	0.196
583.30	0.195
583.75	0.197
584.20	0.197
584.65	0.196
585.10	0.195
585.55	0.195
586.00	0.196
586.45	0.195
586.90	0.195
587.35	0.195
587.80	0.194
588.25	0.192
588.71	0.194
589.16	0.195
589.61	0.194
590.06	0.194
590.51	0.194
590.96	0.191
591.41	0.193
591.86	0.192
592.31	0.193
592.76	0.190
593.21	0.190
593.66	0.192
594.11	0.190
594.56	0.193
595.01	0.191
595.46	0.193
595.91	0.193
596.36	0.191
596.81	0.191
597.26	0.192
597.71	0.191
598.16	0.189
598.61	0.192
599.06	0.191
599.51	0.191
599.96	0.189
600.41	0.190
600.86	0.190
601.31	0.189
601.76	0.188
602.21	0.190
602.65	0.189
603.10	0.188
603.55	0.191
604.00	0.190
604.45	0.189
604.90	0.188
605.35	0.188
605.80	0.187
606.25	0.189
606.70	0.189
607.15	0.190
607.60	0.185
608.05	0.188
608.50	0.187
608.95	0.187
609.39	0.187
609.84	0.186
610.29	0.186
610.74	0.184
611.19	0.186
611.64	0.184
612.09	0.184
612.54	0.184
612.99	0.186
613.44	0.184
613.88	0.185
614.33	0.184
614.78	0.184
615.23	0.182
615.68	0.183
616.13	0.183
616.58	0.185
617.03	0.182
617.47	0.183
617.92	0.181
618.37	0.182
618.82	0.180
619.27	0.182
619.72	0.180
620.17	0.181
620.61	0.182
621.06	0.180
621.51	0.181
621.96	0.181
622.41	0.180
622.86	0.179
623.30	0.181
623.75	0.181
624.20	0.181
624.65	0.181
625.10	0.179
625.54	0.178
625.99	0.178
626.44	0.180
626.89	0.178
627.34	0.177
627.78	0.178
628.23	0.180
628.68	0.176
629.13	0.178
629.58	0.175
630.02	0.177
630.47	0.177
630.92	0.180
631.37	0.178
631.81	0.177
632.26	0.178
632.71	0.175
633.16	0.178
633.61	0.177
634.05	0.177
634.50	0.176
634.95	0.177
635.40	0.177
635.84	0.176
636.29	0.177
636.74	0.178
637.18	0.176
637.63	0.176
638.08	0.177
638.53	0.177
638.97	0.176
639.42	0.179
639.87	0.176
640.32	0.177
640.76	0.175
641.21	0.177
641.66	0.173
642.10	0.175
642.55	0.176
643.00	0.175
643.44	0.176
643.89	0.177
644.34	0.174
644.79	0.176
645.23	0.176
645.68	0.176
646.13	0.176
646.57	0.173
647.02	0.175
647.47	0.177
647.91	0.175
648.36	0.175
648.81	0.178
649.25	0.174
649.70	0.174
650.15	0.174
650.59	0.175
651.04	0.175
651.48	0.176
651.93	0.177
652.38	0.174
652.82	0.176
653.27	0.174
653.72	0.174
654.16	0.175
654.61	0.174
655.06	0.174
655.50	0.172
655.95	0.173
656.39	0.175
656.84	0.173
657.29	0.172
657.73	0.174
658.18	0.175
658.62	0.176
659.07	0.175
659.52	0.172
659.96	0.175
660.41	0.173
660.85	0.173
661.30	0.172
661.74	0.173
662.19	0.173
662.64	0.172
663.08	0.174
663.53	0.172
663.97	0.174
664.42	0.172
664.86	0.175
665.31	0.171
665.75	0.171
666.20	0.172
666.65	0.172
667.09	0.172
667.54	0.170
667.98	0.170
668.43	0.169
668.87	0.169
669.32	0.168
669.76	0.168
670.21	0.169
670.65	0.169
671.10	0.168
671.54	0.169
671.99	0.167
672.43	0.167
672.88	0.164
673.32	0.164
673.77	0.163
674.21	0.164
674.66	0.164
675.10	0.163
675.55	0.161
675.99	0.161
676.44	0.161
676.88	0.161
677.33	0.162
677.77	0.157
678.22	0.157
678.66	0.157
679.11	0.157
679.55	0.157
679.99	0.156
680.44	0.158
680.88	0.155
681.33	0.154
681.77	0.154
682.22	0.152
682.66	0.152
683.11	0.147
683.55	0.151
683.99	0.150
684.44	0.153
684.88	0.149
685.33	0.148
685.77	0.149
686.21	0.148
686.66	0.146
687.10	0.146
687.55	0.145
687.99	0.145
688.44	0.147
688.88	0.146
689.32	0.143
689.77	0.145
690.21	0.144
690.65	0.143
691.10	0.142
691.54	0.144
691.99	0.142
692.43	0.140
692.87	0.142
693.32	0.141
693.76	0.140
694.20	0.141
694.65	0.140
695.09	0.139
695.53	0.140
695.98	0.140
696.42	0.139
696.86	0.138
697.31	0.140
697.75	0.140
698.19	0.138
698.64	0.138
699.08	0.138
699.52	0.138
699.97	0.136
700.41	0.136
700.85	0.135
701.30	0.138
701.74	0.137
702.18	0.136
702.63	0.137
703.07	0.137
703.51	0.140
703.96	0.134
704.40	0.136
704.84	0.136
705.28	0.136
705.73	0.136
706.17	0.135
706.61	0.135
707.06	0.132
707.50	0.136
707.94	0.133
708.38	0.133
708.83	0.134
709.27	0.135
709.71	0.134
710.15	0.134
710.60	0.131
711.04	0.134
711.48	0.134
711.92	0.130
712.37	0.133
712.81	0.132
713.25	0.134
713.69	0.135
714.13	0.134
714.58	0.135
715.02	0.133
715.46	0.130
715.90	0.131
716.35	0.131
716.79	0.134
717.23	0.133
717.67	0.135
718.11	0.132
718.56	0.130
719.00	0.133
719.44	0.131
719.88	0.134
720.32	0.130
720.76	0.131
721.21	0.131
721.65	0.129
722.09	0.130
722.53	0.131
722.97	0.133
723.41	0.131
723.86	0.133
724.30	0.132
724.74	0.131
725.18	0.129
725.62	0.131
726.06	0.129
726.50	0.130
726.95	0.131
727.39	0.131
727.83	0.134
728.27	0.128
728.71	0.128
729.15	0.131
729.59	0.132
730.03	0.131
730.48	0.130
730.92	0.129
731.36	0.128
731.80	0.131
732.24	0.129
732.68	0.130
733.12	0.132
733.56	0.130
734.00	0.132
734.44	0.133
734.89	0.131
735.33	0.129
735.77	0.130
736.21	0.132
736.65	0.130
737.09	0.129
737.53	0.130
737.97	0.129
738.41	0.129
738.85	0.134
739.29	0.128
739.73	0.132
740.17	0.132
740.61	0.131
741.05	0.130
741.49	0.130
741.93	0.131
742.37	0.130
742.81	0.130
743.26	0.129
743.70	0.130
744.14	0.130
744.58	0.129
745.02	0.127
745.46	0.129
745.90	0.129
746.34	0.129
746.78	0.129
747.22	0.130
747.66	0.128
748.10	0.128
748.54	0.129
748.98	0.129
749.42	0.130
749.86	0.129
750.29	0.128
750.73	0.126
751.17	0.128
751.61	0.129
752.05	0.127
752.49	0.129
752.93	0.126
753.37	0.127
753.81	0.127
754.25	0.126
754.69	0.130
755.13	0.126
755.57	0.127
756.01	0.126
756.45	0.124
756.89	0.124
757.33	0.130
757.77	0.124
758.21	0.125
758.64	0.127
759.08	0.125
759.52	0.125
759.96	0.125
760.40	0.123
760.84	0.124
761.28	0.124
761.72	0.124
762.16	0.128
762.60	0.126
763.03	0.120
763.47	0.122
763.91	0.124
764.35	0.122
764.79	0.123
765.23	0.127
765.67	0.122
766.11	0.123
766.54	0.125
766.98	0.125
767.42	0.122
767.86	0.125
768.30	0.123
768.74	0.122
769.17	0.124
769.61	0.120
770.05	0.125
770.49	0.125
770.93	0.121
771.37	0.120
771.80	0.124
772.24	0.123
772.68	0.123
773.12	0.126
773.56	0.124
774.00	0.120
774.43	0.119
774.87	0.120
775.31	0.124
775.75	0.121
776.19	0.123
776.62	0.122
777.06	0.121
777.50	0.118
777.94	0.119
778.37	0.123
778.81	0.120
779.25	0.122
779.69	0.119
780.13	0.121
780.56	0.119
781.00	0.123
781.44	0.119
781.88	0.119
782.31	0.121
782.75	0.119
783.19	0.114
783.63	0.116
784.06	0.120
784.50	0.117
784.94	0.121
785.37	0.116
785.81	0.122
786.25	0.113
786.69	0.118
787.12	0.115
787.56	0.115
788.00	0.116
788.43	0.117
788.87	0.120
789.31	0.117
789.75	0.119
790.18	0.117
790.62	0.117
791.06	0.116
791.49	0.115
791.93	0.116
792.37	0.116
792.80	0.114
793.24	0.111
793.68	0.118
794.11	0.119
794.55	0.115
794.99	0.115
795.42	0.113
795.86	0.113
796.30	0.111
796.73	0.113
797.17	0.119
797.61	0.111
798.04	0.111
798.48	0.114
798.91	0.114
799.35	0.118
799.79	0.111
800.22	0.114
800.66	0.113
801.10	0.113
801.53	0.116
801.97	0.116
802.40	0.110
802.84	0.111
803.28	0.112
803.71	0.114
804.15	0.111
804.58	0.117
805.02	0.113
805.46	0.114
805.89	0.113
806.33	0.110
806.76	0.114
807.20	0.111
807.63	0.114
808.07	0.111
808.51	0.110
808.94	0.114
809.38	0.112
809.81	0.107
810.25	0.113
810.68	0.107
811.12	0.112
811.55	0.115
811.99	0.111
812.42	0.109
812.86	0.114
813.29	0.110
813.73	0.110
814.17	0.112
814.60	0.110
815.04	0.111
815.47	0.109
815.91	0.115
816.34	0.107
816.78	0.107
817.21	0.111
