SpectraSuite Data File
++++++++++++++++++++++++++++++++++++
Date: Mon Jul 10 14:35:47 CEST 2017
User: IPCE
Dark Spectrum Present: Yes
Reference Spectrum Present: Yes
Number of Sampled Component Spectra: 1
Spectrometers: HR+C0708
Integration Time (usec): 1000 (HR+C0708)
Spectra Averaged: 10 (HR+C0708)
Boxcar Smoothing: 0 (HR+C0708)
Correct for Electrical Dark: No (HR+C0708)
Strobe/Lamp Enabled: No (HR+C0708)
Correct for Detector Non-linearity: No (HR+C0708)
Correct for Stray Light: No (HR+C0708)
Number of Pixels in Processed Spectrum: 2048
>>>>>Begin Processed Spectral Data<<<<<
188.76	0.655
189.23	-0.000
189.70	-0.000
190.17	0.395
190.64	-0.000
191.12	-0.000
191.59	-0.000
192.06	-0.000
192.53	-0.000
193.01	-0.000
193.48	1.217
193.95	-0.000
194.42	-0.000
194.90	-0.000
195.37	-0.000
195.84	-0.000
196.31	-0.000
196.78	-0.000
197.26	0.713
197.73	0.511
198.20	-0.000
198.67	-0.000
199.14	0.678
199.62	-0.000
200.09	-0.000
200.56	0.994
201.03	0.908
201.50	-0.000
201.97	0.775
202.45	1.193
202.92	1.201
203.39	-0.000
203.86	0.990
204.33	0.799
204.80	0.801
205.28	-0.000
205.75	1.166
206.22	1.252
206.69	1.561
207.16	0.663
207.63	0.729
208.11	0.567
208.58	0.759
209.05	0.525
209.52	0.919
209.99	1.852
210.46	0.997
210.93	0.914
211.41	-0.000
211.88	1.442
212.35	0.634
212.82	1.745
213.29	0.922
213.76	1.782
214.23	1.469
214.70	1.080
215.18	1.486
215.65	-0.000
216.12	0.863
216.59	1.120
217.06	0.746
217.53	0.715
218.00	1.064
218.47	0.590
218.94	1.286
219.41	0.836
219.89	0.969
220.36	1.321
220.83	0.823
221.30	0.796
221.77	1.067
222.24	0.873
222.71	0.999
223.18	1.621
223.65	0.919
224.12	1.207
224.59	0.946
225.06	0.849
225.54	-0.000
226.01	2.060
226.48	1.243
226.95	-0.000
227.42	1.080
227.89	1.104
228.36	3.181
228.83	1.584
229.30	1.397
229.77	1.291
230.24	1.536
230.71	1.967
231.18	1.802
231.65	2.198
232.12	2.284
232.59	1.972
233.06	1.651
233.53	1.861
234.00	1.806
234.47	1.770
234.94	2.324
235.41	1.867
235.88	2.686
236.35	2.237
236.82	2.462
237.29	-0.000
237.76	2.616
238.23	2.165
238.70	-0.000
239.17	2.468
239.64	2.161
240.11	2.575
240.58	2.290
241.05	2.934
241.52	2.304
241.99	2.467
242.46	2.781
242.93	3.018
243.40	2.570
243.87	-0.000
244.34	-0.000
244.81	2.428
245.28	-0.000
245.75	2.827
246.22	2.721
246.69	2.634
247.16	2.770
247.63	-0.000
248.10	3.058
248.57	2.729
249.04	4.346
249.51	2.843
249.98	2.507
250.45	2.721
250.92	-0.000
251.39	3.002
251.85	2.784
252.32	2.864
252.79	-0.000
253.26	2.725
253.73	2.800
254.20	2.669
254.67	2.823
255.14	2.686
255.61	2.845
256.08	2.964
256.55	2.782
257.02	2.963
257.49	3.405
257.95	3.293
258.42	2.956
258.89	2.857
259.36	-0.000
259.83	2.888
260.30	2.638
260.77	3.114
261.24	3.270
261.71	2.705
262.17	2.836
262.64	2.722
263.11	2.935
263.58	3.153
264.05	2.879
264.52	2.763
264.99	2.897
265.46	2.692
265.92	2.880
266.39	2.947
266.86	2.968
267.33	2.902
267.80	2.767
268.27	2.858
268.74	2.633
269.20	2.765
269.67	2.866
270.14	2.726
270.61	2.662
271.08	3.121
271.55	3.149
272.01	2.692
272.48	2.577
272.95	2.679
273.42	2.714
273.89	2.652
274.36	2.691
274.82	2.736
275.29	2.729
275.76	2.560
276.23	2.656
276.70	2.522
277.16	2.531
277.63	2.657
278.10	2.693
278.57	2.687
279.04	2.575
279.50	2.424
279.97	2.497
280.44	2.445
280.91	2.553
281.38	2.647
281.84	2.491
282.31	2.527
282.78	2.573
283.25	2.396
283.72	2.440
284.18	2.528
284.65	2.491
285.12	2.427
285.59	2.513
286.05	2.372
286.52	2.435
286.99	2.411
287.46	2.363
287.92	2.496
288.39	2.459
288.86	2.417
289.33	2.420
289.79	2.359
290.26	2.317
290.73	2.255
291.20	2.266
291.66	2.343
292.13	2.294
292.60	2.215
293.07	2.409
293.53	2.304
294.00	2.282
294.47	2.260
294.93	2.301
295.40	2.326
295.87	2.170
296.34	2.221
296.80	2.290
297.27	2.267
297.74	2.206
298.20	2.262
298.67	2.287
299.14	2.226
299.60	2.180
300.07	2.129
300.54	2.214
301.01	2.174
301.47	2.180
301.94	2.219
302.41	2.161
302.87	2.121
303.34	2.194
303.81	2.047
304.27	2.048
304.74	2.125
305.21	2.061
305.67	2.116
306.14	2.073
306.61	2.018
307.07	2.097
307.54	2.006
308.01	2.072
308.47	2.080
308.94	2.068
309.40	2.028
309.87	2.005
310.34	1.992
310.80	2.015
311.27	1.986
311.74	2.000
312.20	1.974
312.67	2.010
313.13	2.000
313.60	2.028
314.07	2.000
314.53	1.939
315.00	2.002
315.47	1.972
315.93	1.961
316.40	1.985
316.86	1.979
317.33	1.977
317.80	1.927
318.26	1.967
318.73	1.969
319.19	1.935
319.66	1.917
320.13	1.960
320.59	1.893
321.06	1.879
321.52	1.871
321.99	1.864
322.45	1.873
322.92	1.864
323.39	1.841
323.85	1.880
324.32	1.864
324.78	1.796
325.25	1.868
325.71	1.782
326.18	1.796
326.64	1.795
327.11	1.763
327.58	1.806
328.04	1.736
328.51	1.738
328.97	1.799
329.44	1.705
329.90	1.679
330.37	1.755
330.83	1.667
331.30	1.700
331.76	1.676
332.23	1.657
332.69	1.651
333.16	1.617
333.62	1.633
334.09	1.619
334.56	1.569
335.02	1.543
335.49	1.549
335.95	1.527
336.42	1.492
336.88	1.490
337.35	1.456
337.81	1.438
338.28	1.399
338.74	1.377
339.20	1.393
339.67	1.360
340.13	1.320
340.60	1.302
341.06	1.277
341.53	1.246
341.99	1.234
342.46	1.187
342.92	1.179
343.39	1.149
343.85	1.133
344.32	1.106
344.78	1.099
345.25	1.074
345.71	1.061
346.17	1.032
346.64	0.996
347.10	0.982
347.57	0.949
348.03	0.944
348.50	0.919
348.96	0.896
349.43	0.893
349.89	0.867
350.35	0.863
350.82	0.849
351.28	0.831
351.75	0.812
352.21	0.803
352.67	0.790
353.14	0.781
353.60	0.748
354.07	0.739
354.53	0.734
355.00	0.719
355.46	0.709
355.92	0.712
356.39	0.691
356.85	0.683
357.31	0.679
357.78	0.665
358.24	0.656
358.71	0.653
359.17	0.643
359.63	0.641
360.10	0.631
360.56	0.629
361.03	0.623
361.49	0.617
361.95	0.609
362.42	0.609
362.88	0.604
363.34	0.603
363.81	0.599
364.27	0.601
364.73	0.592
365.20	0.584
365.66	0.585
366.12	0.589
366.59	0.580
367.05	0.576
367.51	0.581
367.98	0.575
368.44	0.571
368.90	0.567
369.37	0.566
369.83	0.567
370.29	0.568
370.76	0.554
371.22	0.560
371.68	0.554
372.15	0.557
372.61	0.551
373.07	0.552
373.54	0.547
374.00	0.550
374.46	0.548
374.92	0.548
375.39	0.540
375.85	0.538
376.31	0.541
376.78	0.535
377.24	0.533
377.70	0.529
378.16	0.529
378.63	0.529
379.09	0.531
379.55	0.529
380.01	0.526
380.48	0.522
380.94	0.523
381.40	0.522
381.87	0.517
382.33	0.520
382.79	0.520
383.25	0.511
383.72	0.515
384.18	0.510
384.64	0.509
385.10	0.507
385.56	0.506
386.03	0.507
386.49	0.504
386.95	0.500
387.41	0.502
387.88	0.497
388.34	0.497
388.80	0.496
389.26	0.493
389.72	0.493
390.19	0.489
390.65	0.486
391.11	0.492
391.57	0.487
392.04	0.487
392.50	0.487
392.96	0.485
393.42	0.480
393.88	0.480
394.34	0.479
394.81	0.479
395.27	0.477
395.73	0.473
396.19	0.475
396.65	0.473
397.12	0.474
397.58	0.469
398.04	0.469
398.50	0.466
398.96	0.469
399.42	0.465
399.89	0.468
400.35	0.463
400.81	0.464
401.27	0.464
401.73	0.460
402.19	0.455
402.65	0.458
403.12	0.455
403.58	0.452
404.04	0.450
404.50	0.450
404.96	0.447
405.42	0.450
405.88	0.449
406.34	0.444
406.81	0.442
407.27	0.443
407.73	0.441
408.19	0.439
408.65	0.435
409.11	0.436
409.57	0.437
410.03	0.434
410.49	0.429
410.96	0.431
411.42	0.430
411.88	0.428
412.34	0.431
412.80	0.431
413.26	0.429
413.72	0.428
414.18	0.428
414.64	0.424
415.10	0.421
415.56	0.420
416.02	0.423
416.48	0.424
416.95	0.420
417.41	0.419
417.87	0.419
418.33	0.413
418.79	0.411
419.25	0.414
419.71	0.417
420.17	0.412
420.63	0.407
421.09	0.412
421.55	0.411
422.01	0.403
422.47	0.407
422.93	0.408
423.39	0.404
423.85	0.401
424.31	0.406
424.77	0.402
425.23	0.402
425.69	0.399
426.15	0.402
426.61	0.399
427.07	0.393
427.53	0.394
427.99	0.393
428.45	0.392
428.91	0.390
429.37	0.391
429.83	0.392
430.29	0.391
430.75	0.391
431.21	0.392
431.67	0.388
432.13	0.383
432.59	0.383
433.05	0.383
433.51	0.383
433.97	0.382
434.43	0.384
434.89	0.380
435.35	0.375
435.81	0.374
436.27	0.376
436.73	0.372
437.19	0.372
437.65	0.376
438.11	0.374
438.57	0.370
439.03	0.365
439.48	0.373
439.94	0.368
440.40	0.370
440.86	0.365
441.32	0.368
441.78	0.366
442.24	0.365
442.70	0.359
443.16	0.363
443.62	0.356
444.08	0.358
444.54	0.359
444.99	0.362
445.45	0.355
445.91	0.355
446.37	0.352
446.83	0.353
447.29	0.350
447.75	0.349
448.21	0.352
448.67	0.349
449.12	0.350
449.58	0.350
450.04	0.349
450.50	0.346
450.96	0.345
451.42	0.348
451.88	0.344
452.34	0.343
452.79	0.346
453.25	0.345
453.71	0.340
454.17	0.341
454.63	0.340
455.09	0.338
455.55	0.338
456.00	0.336
456.46	0.337
456.92	0.331
457.38	0.329
457.84	0.332
458.30	0.334
458.75	0.329
459.21	0.330
459.67	0.329
460.13	0.326
460.59	0.330
461.04	0.329
461.50	0.329
461.96	0.323
462.42	0.326
462.88	0.326
463.33	0.325
463.79	0.322
464.25	0.323
464.71	0.325
465.17	0.320
465.62	0.321
466.08	0.323
466.54	0.320
467.00	0.320
467.46	0.322
467.91	0.319
468.37	0.316
468.83	0.316
469.29	0.318
469.74	0.315
470.20	0.313
470.66	0.313
471.12	0.316
471.57	0.314
472.03	0.311
472.49	0.312
472.95	0.310
473.40	0.308
473.86	0.311
474.32	0.310
474.78	0.310
475.23	0.305
475.69	0.308
476.15	0.305
476.60	0.309
477.06	0.302
477.52	0.306
477.98	0.305
478.43	0.303
478.89	0.302
479.35	0.301
479.80	0.299
480.26	0.300
480.72	0.301
481.18	0.296
481.63	0.299
482.09	0.292
482.55	0.299
483.00	0.298
483.46	0.295
483.92	0.294
484.37	0.295
484.83	0.293
485.29	0.291
485.74	0.291
486.20	0.295
486.66	0.294
487.11	0.291
487.57	0.291
488.03	0.288
488.48	0.289
488.94	0.289
489.40	0.289
489.85	0.288
490.31	0.288
490.77	0.287
491.22	0.283
491.68	0.283
492.13	0.283
492.59	0.286
493.05	0.283
493.50	0.280
493.96	0.282
494.42	0.282
494.87	0.281
495.33	0.281
495.78	0.283
496.24	0.278
496.70	0.277
497.15	0.277
497.61	0.280
498.06	0.277
498.52	0.276
498.98	0.276
499.43	0.277
499.89	0.274
500.34	0.273
500.80	0.276
501.25	0.275
501.71	0.273
502.17	0.272
502.62	0.273
503.08	0.274
503.53	0.272
503.99	0.270
504.44	0.270
504.90	0.269
505.36	0.268
505.81	0.270
506.27	0.269
506.72	0.268
507.18	0.269
507.63	0.270
508.09	0.268
508.54	0.267
509.00	0.266
509.45	0.266
509.91	0.262
510.36	0.263
510.82	0.264
511.27	0.265
511.73	0.262
512.19	0.259
512.64	0.262
513.10	0.262
513.55	0.260
514.01	0.259
514.46	0.261
514.92	0.257
515.37	0.258
515.83	0.259
516.28	0.257
516.73	0.257
517.19	0.254
517.64	0.257
518.10	0.256
518.55	0.252
519.01	0.253
519.46	0.251
519.92	0.252
520.37	0.252
520.83	0.254
521.28	0.252
521.74	0.252
522.19	0.249
522.65	0.250
523.10	0.249
523.55	0.250
524.01	0.249
524.46	0.250
524.92	0.248
525.37	0.250
525.83	0.248
526.28	0.246
526.73	0.247
527.19	0.247
527.64	0.248
528.10	0.245
528.55	0.244
529.01	0.247
529.46	0.245
529.91	0.242
530.37	0.245
530.82	0.244
531.28	0.241
531.73	0.242
532.18	0.244
532.64	0.241
533.09	0.241
533.54	0.239
534.00	0.240
534.45	0.240
534.91	0.240
535.36	0.237
535.81	0.238
536.27	0.239
536.72	0.237
537.17	0.238
537.63	0.240
538.08	0.236
538.54	0.236
538.99	0.235
539.44	0.234
539.90	0.234
540.35	0.236
540.80	0.236
541.26	0.234
541.71	0.231
542.16	0.234
542.62	0.231
543.07	0.230
543.52	0.229
543.98	0.231
544.43	0.233
544.88	0.232
545.34	0.231
545.79	0.227
546.24	0.231
546.69	0.230
547.15	0.231
547.60	0.227
548.05	0.228
548.51	0.227
548.96	0.226
549.41	0.227
549.86	0.226
550.32	0.231
550.77	0.228
551.22	0.227
551.68	0.226
552.13	0.228
552.58	0.226
553.03	0.227
553.49	0.228
553.94	0.226
554.39	0.226
554.84	0.222
555.30	0.223
555.75	0.221
556.20	0.221
556.65	0.223
557.11	0.222
557.56	0.223
558.01	0.221
558.46	0.222
558.92	0.222
559.37	0.222
559.82	0.220
560.27	0.219
560.72	0.221
561.18	0.219
561.63	0.221
562.08	0.220
562.53	0.218
562.99	0.217
563.44	0.220
563.89	0.214
564.34	0.218
564.79	0.217
565.25	0.218
565.70	0.218
566.15	0.217
566.60	0.214
567.05	0.215
567.50	0.216
567.96	0.213
568.41	0.215
568.86	0.215
569.31	0.214
569.76	0.212
570.21	0.212
570.67	0.212
571.12	0.211
571.57	0.212
572.02	0.214
572.47	0.210
572.92	0.211
573.37	0.210
573.83	0.210
574.28	0.209
574.73	0.211
575.18	0.210
575.63	0.207
576.08	0.211
576.53	0.207
576.98	0.208
577.44	0.207
577.89	0.208
578.34	0.207
578.79	0.207
579.24	0.207
579.69	0.207
580.14	0.208
580.59	0.206
581.04	0.205
581.49	0.205
581.95	0.204
582.40	0.205
582.85	0.206
583.30	0.206
583.75	0.205
584.20	0.208
584.65	0.204
585.10	0.205
585.55	0.205
586.00	0.204
586.45	0.202
586.90	0.203
587.35	0.202
587.80	0.202
588.25	0.204
588.71	0.203
589.16	0.205
589.61	0.204
590.06	0.203
590.51	0.202
590.96	0.200
591.41	0.202
591.86	0.202
592.31	0.204
592.76	0.199
593.21	0.199
593.66	0.201
594.11	0.201
594.56	0.199
595.01	0.201
595.46	0.200
595.91	0.203
596.36	0.198
596.81	0.201
597.26	0.200
597.71	0.201
598.16	0.200
598.61	0.201
599.06	0.201
599.51	0.198
599.96	0.201
600.41	0.197
600.86	0.202
601.31	0.198
601.76	0.198
602.21	0.199
602.65	0.197
603.10	0.199
603.55	0.199
604.00	0.197
604.45	0.199
604.90	0.198
605.35	0.198
605.80	0.197
606.25	0.198
606.70	0.197
607.15	0.195
607.60	0.194
608.05	0.197
608.50	0.196
608.95	0.196
609.39	0.198
609.84	0.196
610.29	0.197
610.74	0.195
611.19	0.195
611.64	0.193
612.09	0.193
612.54	0.194
612.99	0.193
613.44	0.194
613.88	0.193
614.33	0.192
614.78	0.193
615.23	0.192
615.68	0.192
616.13	0.192
616.58	0.194
617.03	0.193
617.47	0.193
617.92	0.191
618.37	0.192
618.82	0.191
619.27	0.192
619.72	0.190
620.17	0.190
620.61	0.190
621.06	0.189
621.51	0.191
621.96	0.189
622.41	0.189
622.86	0.189
623.30	0.190
623.75	0.187
624.20	0.191
624.65	0.190
625.10	0.189
625.54	0.187
625.99	0.187
626.44	0.188
626.89	0.188
627.34	0.188
627.78	0.186
628.23	0.188
628.68	0.188
629.13	0.185
629.58	0.186
630.02	0.186
630.47	0.188
630.92	0.187
631.37	0.184
631.81	0.186
632.26	0.186
632.71	0.185
633.16	0.186
633.61	0.184
634.05	0.187
634.50	0.185
634.95	0.185
635.40	0.186
635.84	0.186
636.29	0.186
636.74	0.186
637.18	0.185
637.63	0.183
638.08	0.185
638.53	0.186
638.97	0.185
639.42	0.188
639.87	0.185
640.32	0.184
640.76	0.184
641.21	0.185
641.66	0.182
642.10	0.186
642.55	0.185
643.00	0.185
643.44	0.186
643.89	0.184
644.34	0.184
644.79	0.184
645.23	0.183
645.68	0.186
646.13	0.187
646.57	0.184
647.02	0.186
647.47	0.184
647.91	0.186
648.36	0.186
648.81	0.186
649.25	0.185
649.70	0.184
650.15	0.183
650.59	0.184
651.04	0.184
651.48	0.185
651.93	0.185
652.38	0.183
652.82	0.183
653.27	0.183
653.72	0.185
654.16	0.184
654.61	0.187
655.06	0.187
655.50	0.182
655.95	0.180
656.39	0.184
656.84	0.185
657.29	0.184
657.73	0.184
658.18	0.185
658.62	0.182
659.07	0.184
659.52	0.181
659.96	0.184
660.41	0.183
660.85	0.181
661.30	0.181
661.74	0.184
662.19	0.181
662.64	0.183
663.08	0.184
663.53	0.184
663.97	0.182
664.42	0.180
664.86	0.181
665.31	0.180
665.75	0.179
666.20	0.182
666.65	0.182
667.09	0.179
667.54	0.178
667.98	0.179
668.43	0.176
668.87	0.177
669.32	0.178
669.76	0.177
670.21	0.176
670.65	0.177
671.10	0.178
671.54	0.177
671.99	0.175
672.43	0.174
672.88	0.174
673.32	0.174
673.77	0.173
674.21	0.172
674.66	0.172
675.10	0.170
675.55	0.170
675.99	0.170
676.44	0.168
676.88	0.170
677.33	0.168
677.77	0.166
678.22	0.166
678.66	0.166
679.11	0.165
679.55	0.163
679.99	0.164
680.44	0.165
680.88	0.164
681.33	0.161
681.77	0.160
682.22	0.161
682.66	0.159
683.11	0.156
683.55	0.157
683.99	0.154
684.44	0.159
684.88	0.155
685.33	0.156
685.77	0.154
686.21	0.155
686.66	0.152
687.10	0.152
687.55	0.151
687.99	0.154
688.44	0.152
688.88	0.152
689.32	0.150
689.77	0.151
690.21	0.152
690.65	0.147
691.10	0.149
691.54	0.149
691.99	0.146
692.43	0.147
692.87	0.150
693.32	0.147
693.76	0.145
694.20	0.147
694.65	0.146
695.09	0.148
695.53	0.146
695.98	0.145
696.42	0.145
696.86	0.144
697.31	0.145
697.75	0.145
698.19	0.146
698.64	0.144
699.08	0.143
699.52	0.142
699.97	0.144
700.41	0.143
700.85	0.141
701.30	0.144
701.74	0.142
702.18	0.142
702.63	0.141
703.07	0.142
703.51	0.145
703.96	0.141
704.40	0.142
704.84	0.142
705.28	0.140
705.73	0.140
706.17	0.141
706.61	0.140
707.06	0.138
707.50	0.142
707.94	0.139
708.38	0.138
708.83	0.141
709.27	0.139
709.71	0.139
710.15	0.140
710.60	0.136
711.04	0.139
711.48	0.138
711.92	0.139
712.37	0.140
712.81	0.139
713.25	0.139
713.69	0.139
714.13	0.140
714.58	0.138
715.02	0.140
715.46	0.136
715.90	0.136
716.35	0.138
716.79	0.138
717.23	0.139
717.67	0.140
718.11	0.137
718.56	0.137
719.00	0.135
719.44	0.138
719.88	0.136
720.32	0.137
720.76	0.134
721.21	0.136
721.65	0.135
722.09	0.136
722.53	0.137
722.97	0.137
723.41	0.137
723.86	0.137
724.30	0.134
724.74	0.134
725.18	0.137
725.62	0.137
726.06	0.135
726.50	0.138
726.95	0.136
727.39	0.136
727.83	0.137
728.27	0.136
728.71	0.135
729.15	0.137
729.59	0.136
730.03	0.137
730.48	0.138
730.92	0.135
731.36	0.138
731.80	0.135
732.24	0.134
732.68	0.135
733.12	0.139
733.56	0.136
734.00	0.139
734.44	0.135
734.89	0.136
735.33	0.137
735.77	0.136
736.21	0.137
736.65	0.136
737.09	0.138
737.53	0.137
737.97	0.137
738.41	0.134
738.85	0.136
739.29	0.135
739.73	0.138
740.17	0.137
740.61	0.137
741.05	0.136
741.49	0.135
741.93	0.135
742.37	0.135
742.81	0.134
743.26	0.135
743.70	0.134
744.14	0.133
744.58	0.136
745.02	0.134
745.46	0.133
745.90	0.136
746.34	0.136
746.78	0.135
747.22	0.134
747.66	0.133
748.10	0.133
748.54	0.133
748.98	0.132
749.42	0.135
749.86	0.134
750.29	0.130
750.73	0.132
751.17	0.133
751.61	0.133
752.05	0.132
752.49	0.133
752.93	0.129
753.37	0.133
753.81	0.132
754.25	0.129
754.69	0.136
755.13	0.129
755.57	0.132
756.01	0.130
756.45	0.130
756.89	0.129
757.33	0.133
757.77	0.129
758.21	0.127
758.64	0.135
759.08	0.129
759.52	0.129
759.96	0.129
760.40	0.129
760.84	0.130
761.28	0.129
761.72	0.127
762.16	0.130
762.60	0.131
763.03	0.125
763.47	0.129
763.91	0.129
764.35	0.126
764.79	0.125
765.23	0.130
765.67	0.129
766.11	0.126
766.54	0.130
766.98	0.132
767.42	0.127
767.86	0.129
768.30	0.126
768.74	0.129
769.17	0.127
769.61	0.127
770.05	0.130
770.49	0.130
770.93	0.127
771.37	0.123
771.80	0.129
772.24	0.126
772.68	0.126
773.12	0.130
773.56	0.126
774.00	0.125
774.43	0.126
774.87	0.127
775.31	0.123
775.75	0.121
776.19	0.126
776.62	0.130
777.06	0.123
777.50	0.125
777.94	0.126
778.37	0.127
778.81	0.124
779.25	0.123
779.69	0.121
780.13	0.130
780.56	0.127
781.00	0.126
781.44	0.127
781.88	0.128
782.31	0.126
782.75	0.124
783.19	0.123
783.63	0.121
784.06	0.122
784.50	0.121
784.94	0.123
785.37	0.120
785.81	0.124
786.25	0.120
786.69	0.123
787.12	0.121
787.56	0.119
788.00	0.125
788.43	0.122
788.87	0.122
789.31	0.122
789.75	0.123
790.18	0.121
790.62	0.124
791.06	0.125
791.49	0.122
791.93	0.120
792.37	0.123
792.80	0.121
793.24	0.115
793.68	0.122
794.11	0.119
794.55	0.119
794.99	0.118
795.42	0.119
795.86	0.119
796.30	0.116
796.73	0.119
797.17	0.125
797.61	0.118
798.04	0.119
798.48	0.117
798.91	0.118
799.35	0.117
799.79	0.118
800.22	0.120
800.66	0.115
801.10	0.117
801.53	0.118
801.97	0.121
802.40	0.116
802.84	0.117
803.28	0.118
803.71	0.119
804.15	0.116
804.58	0.116
805.02	0.120
805.46	0.119
805.89	0.121
806.33	0.118
806.76	0.116
807.20	0.116
807.63	0.119
808.07	0.116
808.51	0.116
808.94	0.118
809.38	0.117
809.81	0.116
810.25	0.117
810.68	0.112
811.12	0.114
811.55	0.117
811.99	0.118
812.42	0.116
812.86	0.119
813.29	0.116
813.73	0.115
814.17	0.119
814.60	0.114
815.04	0.115
815.47	0.115
815.91	0.121
816.34	0.116
816.78	0.111
817.21	0.111
