SpectraSuite Data File
++++++++++++++++++++++++++++++++++++
Date: Mon Jul 10 14:01:17 CEST 2017
User: IPCE
Dark Spectrum Present: Yes
Reference Spectrum Present: Yes
Number of Sampled Component Spectra: 1
Spectrometers: HR+C0708
Integration Time (usec): 1000 (HR+C0708)
Spectra Averaged: 10 (HR+C0708)
Boxcar Smoothing: 0 (HR+C0708)
Correct for Electrical Dark: No (HR+C0708)
Strobe/Lamp Enabled: No (HR+C0708)
Correct for Detector Non-linearity: No (HR+C0708)
Correct for Stray Light: No (HR+C0708)
Number of Pixels in Processed Spectrum: 2048
>>>>>Begin Processed Spectral Data<<<<<
188.76	1.146
189.23	-0.000
189.70	-0.000
190.17	0.262
190.64	-0.000
191.12	-0.000
191.59	0.219
192.06	-0.000
192.53	-0.000
193.01	1.062
193.48	1.820
193.95	0.582
194.42	-0.000
194.90	-0.000
195.37	0.574
195.84	-0.000
196.31	-0.000
196.78	0.503
197.26	0.377
197.73	-0.000
198.20	-0.000
198.67	0.944
199.14	0.867
199.62	-0.000
200.09	-0.000
200.56	0.909
201.03	0.898
201.50	1.270
201.97	0.362
202.45	1.087
202.92	0.757
203.39	0.711
203.86	0.861
204.33	0.621
204.80	0.890
205.28	1.592
205.75	0.633
206.22	0.922
206.69	0.668
207.16	0.390
207.63	0.876
208.11	0.500
208.58	0.418
209.05	0.651
209.52	0.712
209.99	0.759
210.46	0.553
210.93	0.728
211.41	0.695
211.88	0.605
212.35	0.564
212.82	-0.000
213.29	0.605
213.76	0.358
214.23	1.127
214.70	0.554
215.18	0.737
215.65	0.796
216.12	0.694
216.59	0.760
217.06	0.593
217.53	0.349
218.00	0.849
218.47	0.594
218.94	0.680
219.41	0.705
219.89	0.846
220.36	0.654
220.83	0.584
221.30	0.490
221.77	0.894
222.24	0.884
222.71	0.902
223.18	0.810
223.65	0.851
224.12	0.660
224.59	1.075
225.06	1.019
225.54	0.864
226.01	1.602
226.48	-0.000
226.95	1.955
227.42	1.003
227.89	1.030
228.36	1.880
228.83	1.523
229.30	1.147
229.77	1.295
230.24	1.657
230.71	1.467
231.18	1.739
231.65	1.582
232.12	1.606
232.59	1.880
233.06	1.548
233.53	1.900
234.00	1.595
234.47	1.627
234.94	2.253
235.41	1.871
235.88	1.778
236.35	1.950
236.82	2.216
237.29	2.615
237.76	2.174
238.23	2.157
238.70	2.727
239.17	2.097
239.64	2.101
240.11	2.649
240.58	2.350
241.05	2.211
241.52	2.224
241.99	2.383
242.46	2.445
242.93	2.732
243.40	2.458
243.87	2.953
244.34	3.052
244.81	2.434
245.28	3.014
245.75	2.557
246.22	2.389
246.69	2.594
247.16	2.532
247.63	2.587
248.10	2.919
248.57	2.660
249.04	-0.000
249.51	2.893
249.98	2.396
250.45	2.944
250.92	2.671
251.39	2.608
251.85	2.509
252.32	2.563
252.79	3.319
253.26	2.617
253.73	2.554
254.20	2.614
254.67	2.481
255.14	2.794
255.61	3.040
256.08	2.753
256.55	2.439
257.02	3.009
257.49	2.901
257.95	2.695
258.42	2.745
258.89	2.857
259.36	3.192
259.83	2.717
260.30	2.648
260.77	2.777
261.24	2.796
261.71	2.680
262.17	2.913
262.64	2.783
263.11	2.662
263.58	3.037
264.05	2.975
264.52	2.849
264.99	2.815
265.46	2.597
265.92	3.068
266.39	2.736
266.86	2.742
267.33	3.566
267.80	2.566
268.27	2.657
268.74	2.802
269.20	2.909
269.67	2.778
270.14	3.007
270.61	2.773
271.08	3.060
271.55	2.683
272.01	2.730
272.48	2.743
272.95	2.671
273.42	2.673
273.89	2.727
274.36	2.972
274.82	2.676
275.29	2.834
275.76	2.610
276.23	2.721
276.70	2.478
277.16	2.798
277.63	2.817
278.10	2.709
278.57	2.559
279.04	2.893
279.50	2.565
279.97	2.570
280.44	2.647
280.91	2.579
281.38	3.085
281.84	2.733
282.31	2.533
282.78	2.728
283.25	2.576
283.72	2.710
284.18	2.767
284.65	2.977
285.12	2.540
285.59	3.065
286.05	2.584
286.52	2.614
286.99	2.545
287.46	2.532
287.92	2.736
288.39	2.543
288.86	2.599
289.33	2.769
289.79	2.712
290.26	2.439
290.73	2.522
291.20	2.646
291.66	2.555
292.13	2.637
292.60	2.457
293.07	2.856
293.53	2.503
294.00	2.367
294.47	2.634
294.93	2.516
295.40	2.427
295.87	2.426
296.34	2.483
296.80	2.650
297.27	2.604
297.74	2.433
298.20	2.520
298.67	2.461
299.14	2.423
299.60	2.507
300.07	2.357
300.54	2.333
301.01	2.485
301.47	2.422
301.94	2.389
302.41	2.484
302.87	2.344
303.34	2.398
303.81	2.191
304.27	2.274
304.74	2.358
305.21	2.267
305.67	2.205
306.14	2.233
306.61	2.259
307.07	2.365
307.54	2.288
308.01	2.314
308.47	2.262
308.94	2.338
309.40	2.242
309.87	2.290
310.34	2.186
310.80	2.175
311.27	2.275
311.74	2.304
312.20	2.160
312.67	2.327
313.13	2.240
313.60	2.241
314.07	2.185
314.53	2.141
315.00	2.291
315.47	2.225
315.93	2.175
316.40	2.235
316.86	2.174
317.33	2.191
317.80	2.249
318.26	2.172
318.73	2.232
319.19	2.196
319.66	2.165
320.13	2.285
320.59	2.128
321.06	2.115
321.52	2.221
321.99	2.197
322.45	2.068
322.92	2.194
323.39	2.105
323.85	2.138
324.32	2.117
324.78	2.079
325.25	2.247
325.71	2.078
326.18	2.028
326.64	2.211
327.11	2.064
327.58	2.071
328.04	2.058
328.51	1.992
328.97	2.051
329.44	1.946
329.90	1.953
330.37	2.051
330.83	1.925
331.30	1.977
331.76	2.012
332.23	1.944
332.69	1.937
333.16	1.908
333.62	1.919
334.09	1.860
334.56	1.802
335.02	1.780
335.49	1.757
335.95	1.677
336.42	1.672
336.88	1.665
337.35	1.577
337.81	1.550
338.28	1.536
338.74	1.504
339.20	1.471
339.67	1.459
340.13	1.401
340.60	1.357
341.06	1.307
341.53	1.275
341.99	1.237
342.46	1.188
342.92	1.151
343.39	1.122
343.85	1.087
344.32	1.049
344.78	1.020
345.25	0.984
345.71	0.961
346.17	0.915
346.64	0.877
347.10	0.847
347.57	0.801
348.03	0.775
348.50	0.750
348.96	0.720
349.43	0.686
349.89	0.667
350.35	0.639
350.82	0.618
351.28	0.590
351.75	0.569
352.21	0.553
352.67	0.529
353.14	0.514
353.60	0.495
354.07	0.481
354.53	0.461
355.00	0.450
355.46	0.434
355.92	0.428
356.39	0.415
356.85	0.406
357.31	0.404
357.78	0.388
358.24	0.384
358.71	0.375
359.17	0.367
359.63	0.366
360.10	0.359
360.56	0.352
361.03	0.347
361.49	0.344
361.95	0.341
362.42	0.341
362.88	0.336
363.34	0.335
363.81	0.334
364.27	0.330
364.73	0.321
365.20	0.323
365.66	0.322
366.12	0.319
366.59	0.314
367.05	0.316
367.51	0.318
367.98	0.310
368.44	0.305
368.90	0.310
369.37	0.307
369.83	0.302
370.29	0.303
370.76	0.304
371.22	0.302
371.68	0.296
372.15	0.297
372.61	0.296
373.07	0.293
373.54	0.291
374.00	0.292
374.46	0.294
374.92	0.291
375.39	0.291
375.85	0.287
376.31	0.287
376.78	0.286
377.24	0.286
377.70	0.286
378.16	0.286
378.63	0.281
379.09	0.284
379.55	0.283
380.01	0.279
380.48	0.277
380.94	0.277
381.40	0.276
381.87	0.276
382.33	0.276
382.79	0.276
383.25	0.271
383.72	0.273
384.18	0.272
384.64	0.272
385.10	0.269
385.56	0.269
386.03	0.265
386.49	0.265
386.95	0.265
387.41	0.269
387.88	0.263
388.34	0.263
388.80	0.263
389.26	0.262
389.72	0.261
390.19	0.263
390.65	0.259
391.11	0.260
391.57	0.257
392.04	0.259
392.50	0.258
392.96	0.255
393.42	0.256
393.88	0.254
394.34	0.254
394.81	0.255
395.27	0.252
395.73	0.252
396.19	0.253
396.65	0.249
397.12	0.249
397.58	0.247
398.04	0.249
398.50	0.250
398.96	0.248
399.42	0.245
399.89	0.244
400.35	0.245
400.81	0.244
401.27	0.243
401.73	0.243
402.19	0.242
402.65	0.243
403.12	0.236
403.58	0.236
404.04	0.237
404.50	0.236
404.96	0.233
405.42	0.237
405.88	0.236
406.34	0.235
406.81	0.230
407.27	0.230
407.73	0.232
408.19	0.228
408.65	0.228
409.11	0.228
409.57	0.229
410.03	0.228
410.49	0.224
410.96	0.230
411.42	0.223
411.88	0.222
412.34	0.225
412.80	0.223
413.26	0.221
413.72	0.221
414.18	0.219
414.64	0.220
415.10	0.219
415.56	0.220
416.02	0.220
416.48	0.221
416.95	0.215
417.41	0.216
417.87	0.215
418.33	0.213
418.79	0.218
419.25	0.213
419.71	0.214
420.17	0.212
420.63	0.212
421.09	0.214
421.55	0.214
422.01	0.211
422.47	0.210
422.93	0.211
423.39	0.209
423.85	0.209
424.31	0.210
424.77	0.206
425.23	0.210
425.69	0.203
426.15	0.206
426.61	0.204
427.07	0.205
427.53	0.206
427.99	0.203
428.45	0.203
428.91	0.201
429.37	0.201
429.83	0.202
430.29	0.204
430.75	0.203
431.21	0.204
431.67	0.201
432.13	0.200
432.59	0.195
433.05	0.199
433.51	0.197
433.97	0.197
434.43	0.198
434.89	0.192
435.35	0.196
435.81	0.195
436.27	0.196
436.73	0.193
437.19	0.194
437.65	0.195
438.11	0.194
438.57	0.190
439.03	0.190
439.48	0.197
439.94	0.190
440.40	0.191
440.86	0.188
441.32	0.189
441.78	0.186
442.24	0.189
442.70	0.187
443.16	0.189
443.62	0.186
444.08	0.187
444.54	0.186
444.99	0.186
445.45	0.187
445.91	0.183
446.37	0.185
446.83	0.183
447.29	0.180
447.75	0.185
448.21	0.181
448.67	0.184
449.12	0.179
449.58	0.183
450.04	0.182
450.50	0.179
450.96	0.181
451.42	0.179
451.88	0.183
452.34	0.178
452.79	0.178
453.25	0.181
453.71	0.178
454.17	0.178
454.63	0.176
455.09	0.176
455.55	0.175
456.00	0.174
456.46	0.172
456.92	0.174
457.38	0.171
457.84	0.175
458.30	0.173
458.75	0.172
459.21	0.172
459.67	0.175
460.13	0.170
460.59	0.171
461.04	0.174
461.50	0.172
461.96	0.173
462.42	0.172
462.88	0.173
463.33	0.168
463.79	0.170
464.25	0.169
464.71	0.169
465.17	0.168
465.62	0.169
466.08	0.171
466.54	0.167
467.00	0.170
467.46	0.168
467.91	0.168
468.37	0.166
468.83	0.168
469.29	0.169
469.74	0.168
470.20	0.167
470.66	0.166
471.12	0.168
471.57	0.166
472.03	0.165
472.49	0.168
472.95	0.165
473.40	0.165
473.86	0.164
474.32	0.168
474.78	0.164
475.23	0.164
475.69	0.165
476.15	0.162
476.60	0.163
477.06	0.163
477.52	0.164
477.98	0.163
478.43	0.163
478.89	0.160
479.35	0.161
479.80	0.160
480.26	0.161
480.72	0.162
481.18	0.159
481.63	0.160
482.09	0.158
482.55	0.162
483.00	0.160
483.46	0.161
483.92	0.161
484.37	0.160
484.83	0.159
485.29	0.158
485.74	0.159
486.20	0.158
486.66	0.158
487.11	0.158
487.57	0.157
488.03	0.158
488.48	0.156
488.94	0.157
489.40	0.159
489.85	0.157
490.31	0.158
490.77	0.157
491.22	0.154
491.68	0.156
492.13	0.155
492.59	0.155
493.05	0.153
493.50	0.153
493.96	0.154
494.42	0.155
494.87	0.154
495.33	0.157
495.78	0.154
496.24	0.153
496.70	0.153
497.15	0.153
497.61	0.152
498.06	0.152
498.52	0.152
498.98	0.153
499.43	0.151
499.89	0.152
500.34	0.152
500.80	0.153
501.25	0.152
501.71	0.149
502.17	0.150
502.62	0.149
503.08	0.149
503.53	0.151
503.99	0.147
504.44	0.149
504.90	0.145
505.36	0.148
505.81	0.148
506.27	0.149
506.72	0.148
507.18	0.147
507.63	0.147
508.09	0.147
508.54	0.146
509.00	0.145
509.45	0.145
509.91	0.147
510.36	0.145
510.82	0.145
511.27	0.145
511.73	0.144
512.19	0.144
512.64	0.146
513.10	0.143
513.55	0.142
514.01	0.144
514.46	0.144
514.92	0.144
515.37	0.140
515.83	0.145
516.28	0.143
516.73	0.142
517.19	0.140
517.64	0.142
518.10	0.140
518.55	0.138
519.01	0.139
519.46	0.140
519.92	0.144
520.37	0.140
520.83	0.143
521.28	0.142
521.74	0.139
522.19	0.139
522.65	0.137
523.10	0.140
523.55	0.142
524.01	0.140
524.46	0.137
524.92	0.140
525.37	0.139
525.83	0.138
526.28	0.139
526.73	0.137
527.19	0.140
527.64	0.137
528.10	0.137
528.55	0.136
529.01	0.138
529.46	0.138
529.91	0.136
530.37	0.140
530.82	0.136
531.28	0.138
531.73	0.139
532.18	0.139
532.64	0.137
533.09	0.137
533.54	0.138
534.00	0.137
534.45	0.137
534.91	0.139
535.36	0.138
535.81	0.135
536.27	0.137
536.72	0.137
537.17	0.136
537.63	0.137
538.08	0.139
538.54	0.136
538.99	0.137
539.44	0.136
539.90	0.139
540.35	0.137
540.80	0.138
541.26	0.139
541.71	0.134
542.16	0.136
542.62	0.136
543.07	0.137
543.52	0.138
543.98	0.136
544.43	0.136
544.88	0.138
545.34	0.139
545.79	0.137
546.24	0.139
546.69	0.137
547.15	0.139
547.60	0.139
548.05	0.139
548.51	0.138
548.96	0.138
549.41	0.139
549.86	0.139
550.32	0.142
550.77	0.140
551.22	0.142
551.68	0.142
552.13	0.141
552.58	0.142
553.03	0.144
553.49	0.142
553.94	0.142
554.39	0.142
554.84	0.141
555.30	0.141
555.75	0.143
556.20	0.141
556.65	0.144
557.11	0.143
557.56	0.144
558.01	0.145
558.46	0.146
558.92	0.148
559.37	0.148
559.82	0.145
560.27	0.145
560.72	0.146
561.18	0.148
561.63	0.147
562.08	0.149
562.53	0.149
562.99	0.151
563.44	0.149
563.89	0.146
564.34	0.150
564.79	0.151
565.25	0.150
565.70	0.153
566.15	0.152
566.60	0.149
567.05	0.155
567.50	0.155
567.96	0.154
568.41	0.157
568.86	0.155
569.31	0.153
569.76	0.157
570.21	0.155
570.67	0.156
571.12	0.157
571.57	0.158
572.02	0.159
572.47	0.156
572.92	0.159
573.37	0.160
573.83	0.159
574.28	0.160
574.73	0.162
575.18	0.162
575.63	0.162
576.08	0.164
576.53	0.163
576.98	0.165
577.44	0.165
577.89	0.166
578.34	0.169
578.79	0.167
579.24	0.167
579.69	0.169
580.14	0.168
580.59	0.169
581.04	0.171
581.49	0.172
581.95	0.173
582.40	0.174
582.85	0.175
583.30	0.175
583.75	0.177
584.20	0.182
584.65	0.177
585.10	0.179
585.55	0.182
586.00	0.184
586.45	0.184
586.90	0.184
587.35	0.186
587.80	0.188
588.25	0.190
588.71	0.190
589.16	0.193
589.61	0.194
590.06	0.194
590.51	0.198
590.96	0.196
591.41	0.199
591.86	0.199
592.31	0.202
592.76	0.203
593.21	0.203
593.66	0.206
594.11	0.206
594.56	0.209
595.01	0.209
595.46	0.209
595.91	0.215
596.36	0.215
596.81	0.216
597.26	0.219
597.71	0.220
598.16	0.219
598.61	0.225
599.06	0.225
599.51	0.225
599.96	0.226
600.41	0.229
600.86	0.231
601.31	0.232
601.76	0.233
602.21	0.236
602.65	0.236
603.10	0.237
603.55	0.240
604.00	0.242
604.45	0.245
604.90	0.245
605.35	0.247
605.80	0.248
606.25	0.250
606.70	0.250
607.15	0.252
607.60	0.252
608.05	0.254
608.50	0.255
608.95	0.256
609.39	0.259
609.84	0.258
610.29	0.261
610.74	0.261
611.19	0.262
611.64	0.263
612.09	0.260
612.54	0.264
612.99	0.266
613.44	0.266
613.88	0.266
614.33	0.266
614.78	0.265
615.23	0.266
615.68	0.268
616.13	0.269
616.58	0.269
617.03	0.268
617.47	0.272
617.92	0.268
618.37	0.271
618.82	0.272
619.27	0.273
619.72	0.272
620.17	0.271
620.61	0.272
621.06	0.272
621.51	0.273
621.96	0.274
622.41	0.273
622.86	0.274
623.30	0.276
623.75	0.275
624.20	0.276
624.65	0.279
625.10	0.276
625.54	0.276
625.99	0.278
626.44	0.281
626.89	0.280
627.34	0.282
627.78	0.280
628.23	0.281
628.68	0.284
629.13	0.284
629.58	0.284
630.02	0.286
630.47	0.290
630.92	0.290
631.37	0.291
631.81	0.290
632.26	0.292
632.71	0.292
633.16	0.296
633.61	0.297
634.05	0.298
634.50	0.299
634.95	0.302
635.40	0.304
635.84	0.304
636.29	0.305
636.74	0.310
637.18	0.311
637.63	0.309
638.08	0.315
638.53	0.315
638.97	0.319
639.42	0.324
639.87	0.323
640.32	0.326
640.76	0.327
641.21	0.331
641.66	0.334
642.10	0.336
642.55	0.338
643.00	0.341
643.44	0.340
643.89	0.344
644.34	0.348
644.79	0.351
645.23	0.352
645.68	0.358
646.13	0.361
646.57	0.361
647.02	0.365
647.47	0.369
647.91	0.371
648.36	0.372
648.81	0.376
649.25	0.378
649.70	0.381
650.15	0.381
650.59	0.387
651.04	0.389
651.48	0.392
651.93	0.395
652.38	0.399
652.82	0.399
653.27	0.402
653.72	0.404
654.16	0.406
654.61	0.411
655.06	0.413
655.50	0.413
655.95	0.416
656.39	0.418
656.84	0.419
657.29	0.417
657.73	0.422
658.18	0.427
658.62	0.427
659.07	0.427
659.52	0.428
659.96	0.433
660.41	0.435
660.85	0.433
661.30	0.433
661.74	0.436
662.19	0.440
662.64	0.439
663.08	0.440
663.53	0.442
663.97	0.442
664.42	0.441
664.86	0.439
665.31	0.441
665.75	0.440
666.20	0.443
666.65	0.442
667.09	0.437
667.54	0.435
667.98	0.436
668.43	0.434
668.87	0.435
669.32	0.430
669.76	0.427
670.21	0.424
670.65	0.423
671.10	0.419
671.54	0.417
671.99	0.412
672.43	0.406
672.88	0.400
673.32	0.397
673.77	0.391
674.21	0.386
674.66	0.382
675.10	0.376
675.55	0.368
675.99	0.362
676.44	0.355
676.88	0.349
677.33	0.344
677.77	0.337
678.22	0.328
678.66	0.322
679.11	0.314
679.55	0.306
679.99	0.301
680.44	0.294
680.88	0.287
681.33	0.278
681.77	0.272
682.22	0.265
682.66	0.258
683.11	0.249
683.55	0.245
683.99	0.237
684.44	0.232
684.88	0.223
685.33	0.219
685.77	0.212
686.21	0.208
686.66	0.202
687.10	0.192
687.55	0.188
687.99	0.186
688.44	0.182
688.88	0.175
689.32	0.169
689.77	0.169
690.21	0.162
690.65	0.157
691.10	0.154
691.54	0.150
691.99	0.147
692.43	0.143
692.87	0.138
693.32	0.136
693.76	0.133
694.20	0.132
694.65	0.126
695.09	0.124
695.53	0.122
695.98	0.121
696.42	0.117
696.86	0.113
697.31	0.114
697.75	0.112
698.19	0.109
698.64	0.108
699.08	0.106
699.52	0.104
699.97	0.101
700.41	0.101
700.85	0.099
701.30	0.099
701.74	0.097
702.18	0.095
702.63	0.094
703.07	0.093
703.51	0.094
703.96	0.089
704.40	0.091
704.84	0.091
705.28	0.089
705.73	0.088
706.17	0.085
706.61	0.085
707.06	0.089
707.50	0.088
707.94	0.084
708.38	0.081
708.83	0.081
709.27	0.082
709.71	0.080
710.15	0.083
710.60	0.079
711.04	0.080
711.48	0.079
711.92	0.079
712.37	0.081
712.81	0.078
713.25	0.081
713.69	0.081
714.13	0.079
714.58	0.076
715.02	0.077
715.46	0.074
715.90	0.075
716.35	0.075
716.79	0.075
717.23	0.076
717.67	0.076
718.11	0.076
718.56	0.073
719.00	0.074
719.44	0.073
719.88	0.076
720.32	0.074
720.76	0.077
721.21	0.075
721.65	0.071
722.09	0.073
722.53	0.073
722.97	0.075
723.41	0.076
723.86	0.076
724.30	0.074
724.74	0.075
725.18	0.075
725.62	0.074
726.06	0.073
726.50	0.078
726.95	0.074
727.39	0.077
727.83	0.077
728.27	0.073
728.71	0.074
729.15	0.074
729.59	0.076
730.03	0.075
730.48	0.075
730.92	0.074
731.36	0.077
731.80	0.076
732.24	0.073
732.68	0.075
733.12	0.077
733.56	0.076
734.00	0.078
734.44	0.075
734.89	0.073
735.33	0.077
735.77	0.075
736.21	0.076
736.65	0.074
737.09	0.075
737.53	0.077
737.97	0.076
738.41	0.076
738.85	0.077
739.29	0.075
739.73	0.077
740.17	0.076
740.61	0.075
741.05	0.077
741.49	0.076
741.93	0.076
742.37	0.077
742.81	0.074
743.26	0.075
743.70	0.074
744.14	0.073
744.58	0.075
745.02	0.071
745.46	0.074
745.90	0.075
746.34	0.073
746.78	0.073
747.22	0.074
747.66	0.075
748.10	0.074
748.54	0.074
748.98	0.074
749.42	0.076
749.86	0.075
750.29	0.072
750.73	0.073
751.17	0.074
751.61	0.073
752.05	0.076
752.49	0.075
752.93	0.070
753.37	0.075
753.81	0.075
754.25	0.070
754.69	0.075
755.13	0.071
755.57	0.072
756.01	0.072
756.45	0.069
756.89	0.071
757.33	0.075
757.77	0.073
758.21	0.074
758.64	0.075
759.08	0.071
759.52	0.072
759.96	0.073
760.40	0.073
760.84	0.073
761.28	0.071
761.72	0.069
762.16	0.073
762.60	0.070
763.03	0.071
763.47	0.071
763.91	0.072
764.35	0.068
764.79	0.069
765.23	0.073
765.67	0.069
766.11	0.068
766.54	0.073
766.98	0.071
767.42	0.071
767.86	0.072
768.30	0.071
768.74	0.070
769.17	0.070
769.61	0.071
770.05	0.073
770.49	0.072
770.93	0.071
771.37	0.072
771.80	0.071
772.24	0.069
772.68	0.071
773.12	0.074
773.56	0.072
774.00	0.072
774.43	0.069
774.87	0.068
775.31	0.071
775.75	0.069
776.19	0.071
776.62	0.070
777.06	0.069
777.50	0.069
777.94	0.065
778.37	0.071
778.81	0.069
779.25	0.070
779.69	0.071
780.13	0.068
780.56	0.071
781.00	0.071
781.44	0.071
781.88	0.070
782.31	0.069
782.75	0.070
783.19	0.067
783.63	0.069
784.06	0.072
784.50	0.069
784.94	0.071
785.37	0.069
785.81	0.073
786.25	0.067
786.69	0.067
787.12	0.066
787.56	0.067
788.00	0.070
788.43	0.069
788.87	0.066
789.31	0.064
789.75	0.066
790.18	0.067
790.62	0.069
791.06	0.071
791.49	0.066
791.93	0.069
792.37	0.069
792.80	0.065
793.24	0.064
793.68	0.068
794.11	0.067
794.55	0.067
794.99	0.066
795.42	0.068
795.86	0.065
796.30	0.066
796.73	0.066
797.17	0.068
797.61	0.067
798.04	0.066
798.48	0.065
798.91	0.066
799.35	0.068
799.79	0.067
800.22	0.071
800.66	0.067
801.10	0.067
801.53	0.069
801.97	0.070
802.40	0.064
802.84	0.068
803.28	0.067
803.71	0.068
804.15	0.066
804.58	0.070
805.02	0.066
805.46	0.068
805.89	0.068
806.33	0.064
806.76	0.066
807.20	0.065
807.63	0.068
808.07	0.070
808.51	0.062
808.94	0.063
809.38	0.069
809.81	0.067
810.25	0.070
810.68	0.063
811.12	0.066
811.55	0.068
811.99	0.065
812.42	0.068
812.86	0.063
813.29	0.065
813.73	0.062
814.17	0.069
814.60	0.065
815.04	0.068
815.47	0.063
815.91	0.069
816.34	0.064
816.78	0.062
817.21	0.064
817.65	0.064
