SpectraSuite Data File
++++++++++++++++++++++++++++++++++++
Date: Mon Jul 10 13:58:47 CEST 2017
User: IPCE
Dark Spectrum Present: Yes
Reference Spectrum Present: Yes
Number of Sampled Component Spectra: 1
Spectrometers: HR+C0708
Integration Time (usec): 1000 (HR+C0708)
Spectra Averaged: 10 (HR+C0708)
Boxcar Smoothing: 0 (HR+C0708)
Correct for Electrical Dark: No (HR+C0708)
Strobe/Lamp Enabled: No (HR+C0708)
Correct for Detector Non-linearity: No (HR+C0708)
Correct for Stray Light: No (HR+C0708)
Number of Pixels in Processed Spectrum: 2048
>>>>>Begin Processed Spectral Data<<<<<
188.76	0.078
189.23	-0.000
189.70	-0.000
190.17	0.338
190.64	0.097
191.12	-0.000
191.59	-0.000
192.06	1.170
192.53	-0.000
193.01	-0.000
193.48	-0.000
193.95	0.609
194.42	0.849
194.90	-0.000
195.37	0.742
195.84	1.301
196.31	-0.000
196.78	-0.000
197.26	0.366
197.73	-0.000
198.20	-0.000
198.67	-0.000
199.14	-0.000
199.62	-0.000
200.09	-0.000
200.56	0.743
201.03	0.522
201.50	0.801
201.97	0.617
202.45	0.691
202.92	1.114
203.39	1.062
203.86	0.624
204.33	0.539
204.80	0.690
205.28	-0.000
205.75	0.643
206.22	0.390
206.69	1.561
207.16	0.603
207.63	0.417
208.11	0.908
208.58	0.722
209.05	0.456
209.52	0.776
209.99	0.835
210.46	0.919
210.93	0.405
211.41	0.563
211.88	2.141
212.35	0.544
212.82	0.456
213.29	0.976
213.76	0.828
214.23	1.012
214.70	0.733
215.18	1.123
215.65	0.796
216.12	0.565
216.59	0.791
217.06	0.755
217.53	0.689
218.00	0.478
218.47	0.680
218.94	0.737
219.41	0.571
219.89	0.969
220.36	0.719
220.83	0.578
221.30	0.692
221.77	0.522
222.24	0.980
222.71	0.915
223.18	0.704
223.65	0.675
224.12	1.024
224.59	0.885
225.06	0.883
225.54	1.066
226.01	1.106
226.48	1.266
226.95	1.222
227.42	1.032
227.89	0.860
228.36	-0.000
228.83	1.676
229.30	1.217
229.77	1.126
230.24	2.083
230.71	1.695
231.18	1.829
231.65	2.383
232.12	1.708
232.59	1.798
233.06	1.655
233.53	1.555
234.00	1.898
234.47	1.724
234.94	1.907
235.41	1.979
235.88	1.979
236.35	1.738
236.82	2.188
237.29	2.673
237.76	2.444
238.23	2.245
238.70	3.001
239.17	2.790
239.64	2.281
240.11	2.078
240.58	2.381
241.05	2.281
241.52	2.048
241.99	2.431
242.46	-0.000
242.93	3.065
243.40	2.389
243.87	2.549
244.34	-0.000
244.81	2.339
245.28	2.626
245.75	2.557
246.22	2.733
246.69	2.490
247.16	2.611
247.63	3.030
248.10	2.712
248.57	2.541
249.04	2.510
249.51	3.130
249.98	2.406
250.45	2.791
250.92	-0.000
251.39	2.751
251.85	2.393
252.32	3.132
252.79	3.962
253.26	2.563
253.73	2.777
254.20	2.429
254.67	2.898
255.14	2.580
255.61	2.608
256.08	2.925
256.55	2.677
257.02	2.575
257.49	3.139
257.95	3.052
258.42	2.639
258.89	2.903
259.36	2.785
259.83	2.884
260.30	2.587
260.77	2.664
261.24	3.007
261.71	2.710
262.17	2.623
262.64	3.904
263.11	3.014
263.58	2.920
264.05	2.852
264.52	2.748
264.99	2.826
265.46	2.624
265.92	2.713
266.39	3.338
266.86	2.795
267.33	2.841
267.80	2.954
268.27	2.774
268.74	2.793
269.20	2.892
269.67	2.881
270.14	2.869
270.61	2.554
271.08	2.675
271.55	3.390
272.01	2.920
272.48	2.724
272.95	2.861
273.42	2.821
273.89	2.631
274.36	3.211
274.82	2.886
275.29	2.752
275.76	2.633
276.23	2.614
276.70	2.642
277.16	2.600
277.63	2.514
278.10	2.875
278.57	2.974
279.04	2.648
279.50	2.492
279.97	2.638
280.44	2.625
280.91	2.705
281.38	2.715
281.84	2.807
282.31	2.643
282.78	2.554
283.25	2.674
283.72	2.707
284.18	2.686
284.65	2.797
285.12	2.608
285.59	2.824
286.05	2.665
286.52	2.649
286.99	2.753
287.46	2.555
287.92	2.575
288.39	2.747
288.86	2.738
289.33	2.615
289.79	2.741
290.26	2.533
290.73	2.533
291.20	2.534
291.66	2.585
292.13	2.807
292.60	2.402
293.07	2.467
293.53	2.586
294.00	2.412
294.47	2.446
294.93	2.500
295.40	2.551
295.87	2.323
296.34	2.465
296.80	2.663
297.27	2.614
297.74	2.385
298.20	2.470
298.67	2.579
299.14	2.559
299.60	2.407
300.07	2.392
300.54	2.531
301.01	2.352
301.47	2.398
301.94	2.399
302.41	2.506
302.87	2.336
303.34	2.365
303.81	2.287
304.27	2.291
304.74	2.241
305.21	2.298
305.67	2.378
306.14	2.274
306.61	2.338
307.07	2.461
307.54	2.333
308.01	2.266
308.47	2.287
308.94	2.342
309.40	2.310
309.87	2.175
310.34	2.193
310.80	2.212
311.27	2.137
311.74	2.284
312.20	2.342
312.67	2.352
313.13	2.234
313.60	2.201
314.07	2.319
314.53	2.162
315.00	2.144
315.47	2.244
315.93	2.236
316.40	2.176
316.86	2.325
317.33	2.227
317.80	2.235
318.26	2.279
318.73	2.217
319.19	2.294
319.66	2.204
320.13	2.263
320.59	2.236
321.06	2.119
321.52	2.186
321.99	2.267
322.45	2.220
322.92	2.200
323.39	2.123
323.85	2.204
324.32	2.225
324.78	2.122
325.25	2.217
325.71	2.172
326.18	2.066
326.64	2.092
327.11	2.113
327.58	2.154
328.04	2.021
328.51	1.968
328.97	2.035
329.44	2.067
329.90	1.981
330.37	2.002
330.83	2.022
331.30	1.979
331.76	1.991
332.23	1.985
332.69	1.961
333.16	1.875
333.62	1.922
334.09	1.880
334.56	1.783
335.02	1.756
335.49	1.754
335.95	1.718
336.42	1.675
336.88	1.621
337.35	1.612
337.81	1.561
338.28	1.513
338.74	1.486
339.20	1.463
339.67	1.418
340.13	1.382
340.60	1.348
341.06	1.304
341.53	1.254
341.99	1.197
342.46	1.161
342.92	1.127
343.39	1.079
343.85	1.050
344.32	1.015
344.78	0.989
345.25	0.958
345.71	0.921
346.17	0.886
346.64	0.849
347.10	0.808
347.57	0.776
348.03	0.744
348.50	0.711
348.96	0.689
349.43	0.654
349.89	0.634
350.35	0.612
350.82	0.584
351.28	0.561
351.75	0.539
352.21	0.516
352.67	0.504
353.14	0.483
353.60	0.463
354.07	0.452
354.53	0.443
355.00	0.424
355.46	0.414
355.92	0.401
356.39	0.386
356.85	0.378
357.31	0.372
357.78	0.362
358.24	0.357
358.71	0.348
359.17	0.342
359.63	0.337
360.10	0.332
360.56	0.332
361.03	0.326
361.49	0.321
361.95	0.318
362.42	0.315
362.88	0.311
363.34	0.310
363.81	0.306
364.27	0.307
364.73	0.300
365.20	0.297
365.66	0.299
366.12	0.298
366.59	0.296
367.05	0.294
367.51	0.293
367.98	0.291
368.44	0.283
368.90	0.283
369.37	0.283
369.83	0.280
370.29	0.282
370.76	0.278
371.22	0.283
371.68	0.278
372.15	0.277
372.61	0.275
373.07	0.275
373.54	0.270
374.00	0.269
374.46	0.272
374.92	0.267
375.39	0.268
375.85	0.269
376.31	0.268
376.78	0.266
377.24	0.262
377.70	0.261
378.16	0.264
378.63	0.264
379.09	0.261
379.55	0.260
380.01	0.258
380.48	0.256
380.94	0.262
381.40	0.255
381.87	0.257
382.33	0.256
382.79	0.256
383.25	0.255
383.72	0.253
384.18	0.249
384.64	0.252
385.10	0.250
385.56	0.248
386.03	0.248
386.49	0.247
386.95	0.246
387.41	0.248
387.88	0.243
388.34	0.243
388.80	0.243
389.26	0.239
389.72	0.244
390.19	0.239
390.65	0.237
391.11	0.240
391.57	0.238
392.04	0.237
392.50	0.238
392.96	0.235
393.42	0.236
393.88	0.234
394.34	0.235
394.81	0.238
395.27	0.235
395.73	0.230
396.19	0.232
396.65	0.234
397.12	0.227
397.58	0.230
398.04	0.227
398.50	0.230
398.96	0.230
399.42	0.227
399.89	0.230
400.35	0.225
400.81	0.225
401.27	0.224
401.73	0.225
402.19	0.221
402.65	0.220
403.12	0.218
403.58	0.218
404.04	0.217
404.50	0.219
404.96	0.218
405.42	0.217
405.88	0.212
406.34	0.216
406.81	0.214
407.27	0.213
407.73	0.215
408.19	0.214
408.65	0.214
409.11	0.212
409.57	0.210
410.03	0.209
410.49	0.206
410.96	0.209
411.42	0.207
411.88	0.203
412.34	0.205
412.80	0.206
413.26	0.207
413.72	0.205
414.18	0.201
414.64	0.202
415.10	0.202
415.56	0.202
416.02	0.202
416.48	0.204
416.95	0.196
417.41	0.198
417.87	0.198
418.33	0.199
418.79	0.199
419.25	0.196
419.71	0.199
420.17	0.196
420.63	0.194
421.09	0.196
421.55	0.198
422.01	0.194
422.47	0.195
422.93	0.193
423.39	0.192
423.85	0.190
424.31	0.193
424.77	0.195
425.23	0.194
425.69	0.189
426.15	0.192
426.61	0.187
427.07	0.190
427.53	0.188
427.99	0.186
428.45	0.185
428.91	0.185
429.37	0.188
429.83	0.188
430.29	0.187
430.75	0.187
431.21	0.185
431.67	0.186
432.13	0.184
432.59	0.180
433.05	0.184
433.51	0.182
433.97	0.180
434.43	0.186
434.89	0.180
435.35	0.179
435.81	0.178
436.27	0.179
436.73	0.177
437.19	0.178
437.65	0.177
438.11	0.177
438.57	0.176
439.03	0.174
439.48	0.177
439.94	0.178
440.40	0.176
440.86	0.177
441.32	0.173
441.78	0.174
442.24	0.173
442.70	0.173
443.16	0.175
443.62	0.172
444.08	0.171
444.54	0.174
444.99	0.172
445.45	0.171
445.91	0.169
446.37	0.170
446.83	0.170
447.29	0.166
447.75	0.167
448.21	0.169
448.67	0.169
449.12	0.165
449.58	0.168
450.04	0.167
450.50	0.166
450.96	0.163
451.42	0.164
451.88	0.165
452.34	0.163
452.79	0.164
453.25	0.166
453.71	0.163
454.17	0.159
454.63	0.164
455.09	0.164
455.55	0.158
456.00	0.160
456.46	0.158
456.92	0.158
457.38	0.158
457.84	0.159
458.30	0.160
458.75	0.160
459.21	0.158
459.67	0.161
460.13	0.155
460.59	0.158
461.04	0.161
461.50	0.158
461.96	0.161
462.42	0.160
462.88	0.159
463.33	0.157
463.79	0.157
464.25	0.154
464.71	0.158
465.17	0.156
465.62	0.154
466.08	0.158
466.54	0.156
467.00	0.156
467.46	0.157
467.91	0.155
468.37	0.155
468.83	0.156
469.29	0.156
469.74	0.154
470.20	0.153
470.66	0.154
471.12	0.154
471.57	0.155
472.03	0.154
472.49	0.154
472.95	0.152
473.40	0.152
473.86	0.152
474.32	0.152
474.78	0.151
475.23	0.149
475.69	0.152
476.15	0.152
476.60	0.149
477.06	0.151
477.52	0.151
477.98	0.149
478.43	0.152
478.89	0.150
479.35	0.149
479.80	0.148
480.26	0.150
480.72	0.149
481.18	0.148
481.63	0.149
482.09	0.147
482.55	0.149
483.00	0.149
483.46	0.147
483.92	0.148
484.37	0.147
484.83	0.145
485.29	0.148
485.74	0.146
486.20	0.148
486.66	0.146
487.11	0.147
487.57	0.146
488.03	0.145
488.48	0.146
488.94	0.146
489.40	0.144
489.85	0.148
490.31	0.144
490.77	0.143
491.22	0.144
491.68	0.145
492.13	0.143
492.59	0.144
493.05	0.143
493.50	0.142
493.96	0.144
494.42	0.143
494.87	0.143
495.33	0.143
495.78	0.144
496.24	0.144
496.70	0.141
497.15	0.142
497.61	0.140
498.06	0.142
498.52	0.140
498.98	0.142
499.43	0.141
499.89	0.140
500.34	0.139
500.80	0.140
501.25	0.140
501.71	0.138
502.17	0.139
502.62	0.138
503.08	0.139
503.53	0.138
503.99	0.139
504.44	0.139
504.90	0.140
505.36	0.138
505.81	0.136
506.27	0.136
506.72	0.137
507.18	0.136
507.63	0.136
508.09	0.136
508.54	0.135
509.00	0.134
509.45	0.136
509.91	0.135
510.36	0.135
510.82	0.136
511.27	0.137
511.73	0.136
512.19	0.133
512.64	0.135
513.10	0.132
513.55	0.132
514.01	0.133
514.46	0.133
514.92	0.133
515.37	0.131
515.83	0.134
516.28	0.132
516.73	0.130
517.19	0.130
517.64	0.132
518.10	0.134
518.55	0.130
519.01	0.131
519.46	0.130
519.92	0.131
520.37	0.131
520.83	0.132
521.28	0.132
521.74	0.130
522.19	0.128
522.65	0.130
523.10	0.128
523.55	0.132
524.01	0.130
524.46	0.131
524.92	0.128
525.37	0.129
525.83	0.129
526.28	0.129
526.73	0.128
527.19	0.128
527.64	0.129
528.10	0.127
528.55	0.126
529.01	0.131
529.46	0.131
529.91	0.128
530.37	0.127
530.82	0.125
531.28	0.127
531.73	0.130
532.18	0.128
532.64	0.126
533.09	0.127
533.54	0.128
534.00	0.128
534.45	0.127
534.91	0.128
535.36	0.127
535.81	0.128
536.27	0.126
536.72	0.128
537.17	0.127
537.63	0.129
538.08	0.130
538.54	0.127
538.99	0.128
539.44	0.128
539.90	0.128
540.35	0.129
540.80	0.130
541.26	0.128
541.71	0.127
542.16	0.126
542.62	0.131
543.07	0.130
543.52	0.129
543.98	0.130
544.43	0.128
544.88	0.132
545.34	0.130
545.79	0.129
546.24	0.130
546.69	0.128
547.15	0.132
547.60	0.132
548.05	0.132
548.51	0.131
548.96	0.131
549.41	0.131
549.86	0.131
550.32	0.135
550.77	0.132
551.22	0.132
551.68	0.134
552.13	0.134
552.58	0.135
553.03	0.135
553.49	0.133
553.94	0.135
554.39	0.135
554.84	0.134
555.30	0.136
555.75	0.136
556.20	0.137
556.65	0.137
557.11	0.137
557.56	0.138
558.01	0.137
558.46	0.138
558.92	0.142
559.37	0.140
559.82	0.138
560.27	0.139
560.72	0.140
561.18	0.140
561.63	0.142
562.08	0.143
562.53	0.142
562.99	0.145
563.44	0.142
563.89	0.143
564.34	0.144
564.79	0.144
565.25	0.146
565.70	0.147
566.15	0.147
566.60	0.143
567.05	0.148
567.50	0.147
567.96	0.149
568.41	0.148
568.86	0.151
569.31	0.150
569.76	0.148
570.21	0.149
570.67	0.151
571.12	0.151
571.57	0.152
572.02	0.154
572.47	0.151
572.92	0.155
573.37	0.155
573.83	0.153
574.28	0.153
574.73	0.154
575.18	0.157
575.63	0.157
576.08	0.160
576.53	0.159
576.98	0.161
577.44	0.161
577.89	0.161
578.34	0.164
578.79	0.163
579.24	0.163
579.69	0.164
580.14	0.167
580.59	0.166
581.04	0.167
581.49	0.170
581.95	0.169
582.40	0.170
582.85	0.173
583.30	0.172
583.75	0.175
584.20	0.178
584.65	0.176
585.10	0.177
585.55	0.181
586.00	0.182
586.45	0.182
586.90	0.183
587.35	0.185
587.80	0.185
588.25	0.187
588.71	0.187
589.16	0.191
589.61	0.193
590.06	0.194
590.51	0.195
590.96	0.193
591.41	0.198
591.86	0.200
592.31	0.201
592.76	0.202
593.21	0.201
593.66	0.207
594.11	0.208
594.56	0.207
595.01	0.211
595.46	0.211
595.91	0.214
596.36	0.216
596.81	0.217
597.26	0.221
597.71	0.221
598.16	0.222
598.61	0.225
599.06	0.226
599.51	0.227
599.96	0.229
600.41	0.231
600.86	0.234
601.31	0.235
601.76	0.236
602.21	0.238
602.65	0.241
603.10	0.242
603.55	0.244
604.00	0.245
604.45	0.245
604.90	0.248
605.35	0.249
605.80	0.251
606.25	0.254
606.70	0.254
607.15	0.253
607.60	0.256
608.05	0.260
608.50	0.259
608.95	0.260
609.39	0.261
609.84	0.264
610.29	0.263
610.74	0.266
611.19	0.267
611.64	0.266
612.09	0.266
612.54	0.268
612.99	0.271
613.44	0.270
613.88	0.272
614.33	0.271
614.78	0.272
615.23	0.274
615.68	0.272
616.13	0.276
616.58	0.276
617.03	0.274
617.47	0.280
617.92	0.273
618.37	0.276
618.82	0.277
619.27	0.277
619.72	0.278
620.17	0.276
620.61	0.278
621.06	0.279
621.51	0.279
621.96	0.281
622.41	0.281
622.86	0.281
623.30	0.283
623.75	0.283
624.20	0.283
624.65	0.285
625.10	0.283
625.54	0.281
625.99	0.285
626.44	0.287
626.89	0.285
627.34	0.289
627.78	0.286
628.23	0.290
628.68	0.293
629.13	0.292
629.58	0.290
630.02	0.294
630.47	0.297
630.92	0.297
631.37	0.297
631.81	0.300
632.26	0.299
632.71	0.301
633.16	0.304
633.61	0.305
634.05	0.307
634.50	0.308
634.95	0.311
635.40	0.313
635.84	0.315
636.29	0.317
636.74	0.319
637.18	0.321
637.63	0.322
638.08	0.323
638.53	0.329
638.97	0.330
639.42	0.334
639.87	0.334
640.32	0.337
640.76	0.340
641.21	0.342
641.66	0.343
642.10	0.347
642.55	0.348
643.00	0.355
643.44	0.356
643.89	0.359
644.34	0.360
644.79	0.365
645.23	0.367
645.68	0.370
646.13	0.375
646.57	0.378
647.02	0.380
647.47	0.382
647.91	0.385
648.36	0.390
648.81	0.393
649.25	0.395
649.70	0.397
650.15	0.400
650.59	0.402
651.04	0.404
651.48	0.407
651.93	0.411
652.38	0.412
652.82	0.416
653.27	0.418
653.72	0.424
654.16	0.427
654.61	0.432
655.06	0.429
655.50	0.432
655.95	0.432
656.39	0.436
656.84	0.440
657.29	0.440
657.73	0.442
658.18	0.447
658.62	0.447
659.07	0.450
659.52	0.455
659.96	0.453
660.41	0.456
660.85	0.458
661.30	0.456
661.74	0.461
662.19	0.459
662.64	0.462
663.08	0.462
663.53	0.463
663.97	0.464
664.42	0.464
664.86	0.463
665.31	0.466
665.75	0.463
666.20	0.465
666.65	0.464
667.09	0.463
667.54	0.459
667.98	0.458
668.43	0.457
668.87	0.458
669.32	0.453
669.76	0.449
670.21	0.445
670.65	0.446
671.10	0.443
671.54	0.439
671.99	0.432
672.43	0.428
672.88	0.418
673.32	0.417
673.77	0.411
674.21	0.405
674.66	0.399
675.10	0.392
675.55	0.387
675.99	0.380
676.44	0.374
676.88	0.366
677.33	0.358
677.77	0.349
678.22	0.345
678.66	0.338
679.11	0.329
679.55	0.321
679.99	0.313
680.44	0.305
680.88	0.298
681.33	0.291
681.77	0.284
682.22	0.275
682.66	0.269
683.11	0.260
683.55	0.254
683.99	0.245
684.44	0.243
684.88	0.230
685.33	0.226
685.77	0.218
686.21	0.212
686.66	0.206
687.10	0.197
687.55	0.195
687.99	0.188
688.44	0.183
688.88	0.177
689.32	0.170
689.77	0.169
690.21	0.167
690.65	0.157
691.10	0.151
691.54	0.152
691.99	0.145
692.43	0.141
692.87	0.140
693.32	0.134
693.76	0.132
694.20	0.131
694.65	0.125
695.09	0.123
695.53	0.122
695.98	0.118
696.42	0.115
696.86	0.110
697.31	0.109
697.75	0.109
698.19	0.106
698.64	0.106
699.08	0.102
699.52	0.100
699.97	0.098
700.41	0.098
700.85	0.094
701.30	0.096
701.74	0.092
702.18	0.090
702.63	0.089
703.07	0.089
703.51	0.090
703.96	0.085
704.40	0.086
704.84	0.086
705.28	0.084
705.73	0.084
706.17	0.082
706.61	0.081
707.06	0.081
707.50	0.081
707.94	0.077
708.38	0.077
708.83	0.078
709.27	0.076
709.71	0.076
710.15	0.077
710.60	0.074
711.04	0.076
711.48	0.073
711.92	0.073
712.37	0.074
712.81	0.071
713.25	0.073
713.69	0.076
714.13	0.073
714.58	0.072
715.02	0.072
715.46	0.070
715.90	0.071
716.35	0.071
716.79	0.071
717.23	0.071
717.67	0.070
718.11	0.072
718.56	0.070
719.00	0.069
719.44	0.069
719.88	0.071
720.32	0.068
720.76	0.070
721.21	0.070
721.65	0.068
722.09	0.072
722.53	0.068
722.97	0.069
723.41	0.068
723.86	0.070
724.30	0.071
724.74	0.069
725.18	0.068
725.62	0.068
726.06	0.066
726.50	0.070
726.95	0.069
727.39	0.068
727.83	0.072
728.27	0.068
728.71	0.068
729.15	0.072
729.59	0.069
730.03	0.069
730.48	0.071
730.92	0.070
731.36	0.068
731.80	0.069
732.24	0.067
732.68	0.069
733.12	0.071
733.56	0.070
734.00	0.070
734.44	0.070
734.89	0.069
735.33	0.071
735.77	0.070
736.21	0.072
736.65	0.070
737.09	0.071
737.53	0.068
737.97	0.072
738.41	0.070
738.85	0.074
739.29	0.071
739.73	0.071
740.17	0.074
740.61	0.071
741.05	0.069
741.49	0.070
741.93	0.070
742.37	0.070
742.81	0.070
743.26	0.070
743.70	0.070
744.14	0.066
744.58	0.070
745.02	0.069
745.46	0.069
745.90	0.071
746.34	0.072
746.78	0.070
747.22	0.069
747.66	0.070
748.10	0.068
748.54	0.072
748.98	0.066
749.42	0.072
749.86	0.068
750.29	0.066
750.73	0.067
751.17	0.070
751.61	0.070
752.05	0.069
752.49	0.070
752.93	0.064
753.37	0.070
753.81	0.070
754.25	0.067
754.69	0.068
755.13	0.066
755.57	0.068
756.01	0.066
756.45	0.068
756.89	0.063
757.33	0.073
757.77	0.065
758.21	0.066
758.64	0.069
759.08	0.065
759.52	0.065
759.96	0.066
760.40	0.062
760.84	0.068
761.28	0.065
761.72	0.066
762.16	0.068
762.60	0.069
763.03	0.065
763.47	0.066
763.91	0.065
764.35	0.063
764.79	0.063
765.23	0.067
765.67	0.065
766.11	0.064
766.54	0.069
766.98	0.068
767.42	0.067
767.86	0.067
768.30	0.069
768.74	0.063
769.17	0.064
769.61	0.065
770.05	0.066
770.49	0.068
770.93	0.065
771.37	0.063
771.80	0.067
772.24	0.064
772.68	0.066
773.12	0.068
773.56	0.067
774.00	0.064
774.43	0.063
774.87	0.062
775.31	0.065
775.75	0.064
776.19	0.065
776.62	0.066
777.06	0.064
777.50	0.065
777.94	0.063
778.37	0.067
778.81	0.066
779.25	0.066
779.69	0.066
780.13	0.071
780.56	0.065
781.00	0.066
781.44	0.065
781.88	0.065
782.31	0.065
782.75	0.064
783.19	0.065
783.63	0.064
784.06	0.064
784.50	0.063
784.94	0.067
785.37	0.061
785.81	0.067
786.25	0.066
786.69	0.065
787.12	0.067
787.56	0.063
788.00	0.062
788.43	0.062
788.87	0.063
789.31	0.062
789.75	0.066
790.18	0.063
790.62	0.064
791.06	0.064
791.49	0.063
791.93	0.063
792.37	0.064
792.80	0.061
793.24	0.059
793.68	0.064
794.11	0.066
794.55	0.065
794.99	0.061
795.42	0.062
795.86	0.061
796.30	0.060
796.73	0.059
797.17	0.067
797.61	0.064
798.04	0.058
798.48	0.061
798.91	0.060
799.35	0.061
799.79	0.061
800.22	0.063
800.66	0.063
801.10	0.062
801.53	0.063
801.97	0.064
802.40	0.062
802.84	0.062
803.28	0.065
803.71	0.063
804.15	0.066
804.58	0.060
805.02	0.060
805.46	0.062
805.89	0.062
806.33	0.063
806.76	0.064
807.20	0.064
807.63	0.064
808.07	0.065
808.51	0.060
808.94	0.064
809.38	0.063
809.81	0.060
810.25	0.064
810.68	0.062
811.12	0.062
811.55	0.061
811.99	0.063
812.42	0.057
812.86	0.063
813.29	0.062
813.73	0.062
814.17	0.063
814.60	0.059
815.04	0.063
815.47	0.059
815.91	0.063
816.34	0.058
816.78	0.058
817.21	0.056
817.65	0.062
