SpectraSuite Data File
++++++++++++++++++++++++++++++++++++
Date: Mon Jul 10 14:24:17 CEST 2017
User: IPCE
Dark Spectrum Present: Yes
Reference Spectrum Present: Yes
Number of Sampled Component Spectra: 1
Spectrometers: HR+C0708
Integration Time (usec): 1000 (HR+C0708)
Spectra Averaged: 10 (HR+C0708)
Boxcar Smoothing: 0 (HR+C0708)
Correct for Electrical Dark: No (HR+C0708)
Strobe/Lamp Enabled: No (HR+C0708)
Correct for Detector Non-linearity: No (HR+C0708)
Correct for Stray Light: No (HR+C0708)
Number of Pixels in Processed Spectrum: 2048
>>>>>Begin Processed Spectral Data<<<<<
188.76	0.655
189.23	-0.000
189.70	-0.000
190.17	-0.000
190.64	-0.000
191.12	-0.209
191.59	-0.000
192.06	-0.000
192.53	-0.000
193.01	-0.000
193.48	-0.000
193.95	0.986
194.42	-0.000
194.90	0.823
195.37	-0.000
195.84	0.727
196.31	-0.000
196.78	-0.000
197.26	0.424
197.73	0.744
198.20	-0.000
198.67	-0.000
199.14	-0.000
199.62	-0.000
200.09	-0.000
200.56	1.521
201.03	1.074
201.50	1.072
201.97	0.535
202.45	0.747
202.92	0.746
203.39	-0.000
203.86	0.875
204.33	0.612
204.80	2.012
205.28	-0.000
205.75	1.115
206.22	1.594
206.69	0.894
207.16	0.634
207.63	1.085
208.11	0.831
208.58	0.740
209.05	0.606
209.52	0.413
209.99	1.405
210.46	0.839
210.93	0.991
211.41	0.497
211.88	0.761
212.35	0.792
212.82	0.858
213.29	0.528
213.76	2.627
214.23	2.645
214.70	0.810
215.18	-0.000
215.65	1.374
216.12	0.608
216.59	1.658
217.06	0.750
217.53	0.680
218.00	0.567
218.47	0.919
218.94	-0.000
219.41	0.651
219.89	0.960
220.36	1.139
220.83	0.660
221.30	0.609
221.77	0.907
222.24	0.736
222.71	1.104
223.18	1.034
223.65	0.908
224.12	1.508
224.59	0.798
225.06	0.919
225.54	1.951
226.01	1.884
226.48	1.027
226.95	1.779
227.42	1.139
227.89	1.166
228.36	3.181
228.83	1.876
229.30	1.402
229.77	1.484
230.24	1.886
230.71	-0.000
231.18	1.647
231.65	1.600
232.12	1.697
232.59	-0.000
233.06	1.855
233.53	1.936
234.00	1.864
234.47	1.794
234.94	1.785
235.41	1.771
235.88	4.008
236.35	2.071
236.82	2.069
237.29	-0.000
237.76	2.303
238.23	2.297
238.70	-0.000
239.17	2.359
239.64	2.253
240.11	2.455
240.58	2.435
241.05	2.589
241.52	2.493
241.99	2.335
242.46	-0.000
242.93	3.439
243.40	2.721
243.87	2.702
244.34	3.325
244.81	2.688
245.28	2.889
245.75	2.493
246.22	3.065
246.69	2.663
247.16	2.740
247.63	3.507
248.10	2.663
248.57	2.679
249.04	2.618
249.51	3.081
249.98	2.764
250.45	2.897
250.92	3.045
251.39	3.011
251.85	2.445
252.32	2.533
252.79	-0.000
253.26	2.632
253.73	2.473
254.20	2.596
254.67	2.484
255.14	3.051
255.61	2.706
256.08	2.650
256.55	2.800
257.02	2.767
257.49	3.021
257.95	3.406
258.42	2.623
258.89	2.708
259.36	2.983
259.83	2.685
260.30	2.840
260.77	2.717
261.24	2.864
261.71	2.847
262.17	2.656
262.64	2.828
263.11	2.876
263.58	3.049
264.05	2.838
264.52	3.249
264.99	2.945
265.46	2.640
265.92	2.708
266.39	2.904
266.86	2.849
267.33	2.886
267.80	2.709
268.27	2.963
268.74	2.847
269.20	2.682
269.67	2.906
270.14	2.820
270.61	2.751
271.08	2.746
271.55	3.075
272.01	2.965
272.48	2.844
272.95	2.665
273.42	3.012
273.89	2.504
274.36	2.718
274.82	2.807
275.29	2.799
275.76	2.463
276.23	2.640
276.70	2.499
277.16	2.715
277.63	2.565
278.10	2.626
278.57	3.043
279.04	2.563
279.50	2.449
279.97	2.594
280.44	2.491
280.91	2.491
281.38	2.658
281.84	2.570
282.31	2.520
282.78	2.520
283.25	2.536
283.72	2.509
284.18	2.513
284.65	2.752
285.12	2.617
285.59	2.623
286.05	2.494
286.52	2.619
286.99	2.534
287.46	2.363
287.92	2.551
288.39	2.459
288.86	2.513
289.33	2.319
289.79	2.356
290.26	2.408
290.73	2.328
291.20	2.359
291.66	2.469
292.13	2.354
292.60	2.284
293.07	2.406
293.53	2.367
294.00	2.286
294.47	2.238
294.93	2.303
295.40	2.403
295.87	2.292
296.34	2.288
296.80	2.363
297.27	2.368
297.74	2.236
298.20	2.336
298.67	2.306
299.14	2.312
299.60	2.234
300.07	2.191
300.54	2.352
301.01	2.190
301.47	2.207
301.94	2.253
302.41	2.235
302.87	2.181
303.34	2.225
303.81	2.127
304.27	2.190
304.74	2.185
305.21	2.092
305.67	2.272
306.14	2.102
306.61	2.105
307.07	2.211
307.54	2.085
308.01	2.099
308.47	2.149
308.94	2.104
309.40	2.094
309.87	2.030
310.34	2.058
310.80	2.147
311.27	2.036
311.74	2.017
312.20	2.094
312.67	2.074
313.13	2.047
313.60	2.087
314.07	2.067
314.53	2.038
315.00	2.058
315.47	2.049
315.93	2.050
316.40	2.014
316.86	2.021
317.33	2.118
317.80	1.993
318.26	1.980
318.73	2.035
319.19	1.976
319.66	1.943
320.13	2.002
320.59	1.956
321.06	1.988
321.52	1.971
321.99	1.920
322.45	1.983
322.92	1.905
323.39	1.892
323.85	1.949
324.32	1.930
324.78	1.963
325.25	1.975
325.71	1.881
326.18	1.862
326.64	1.891
327.11	1.856
327.58	1.931
328.04	1.820
328.51	1.788
328.97	1.823
329.44	1.795
329.90	1.783
330.37	1.827
330.83	1.766
331.30	1.750
331.76	1.756
332.23	1.710
332.69	1.756
333.16	1.678
333.62	1.675
334.09	1.715
334.56	1.629
335.02	1.612
335.49	1.608
335.95	1.566
336.42	1.537
336.88	1.525
337.35	1.499
337.81	1.476
338.28	1.425
338.74	1.414
339.20	1.416
339.67	1.369
340.13	1.334
340.60	1.319
341.06	1.285
341.53	1.238
341.99	1.217
342.46	1.192
342.92	1.161
343.39	1.136
343.85	1.104
344.32	1.085
344.78	1.061
345.25	1.031
345.71	1.024
346.17	0.992
346.64	0.962
347.10	0.940
347.57	0.908
348.03	0.891
348.50	0.865
348.96	0.851
349.43	0.835
349.89	0.811
350.35	0.797
350.82	0.791
351.28	0.762
351.75	0.747
352.21	0.735
352.67	0.718
353.14	0.707
353.60	0.687
354.07	0.671
354.53	0.663
355.00	0.650
355.46	0.643
355.92	0.636
356.39	0.631
356.85	0.613
357.31	0.612
357.78	0.599
358.24	0.593
358.71	0.583
359.17	0.574
359.63	0.573
360.10	0.562
360.56	0.562
361.03	0.557
361.49	0.547
361.95	0.546
362.42	0.544
362.88	0.538
363.34	0.536
363.81	0.534
364.27	0.532
364.73	0.528
365.20	0.522
365.66	0.518
366.12	0.524
366.59	0.515
367.05	0.516
367.51	0.518
367.98	0.511
368.44	0.509
368.90	0.508
369.37	0.503
369.83	0.499
370.29	0.502
370.76	0.494
371.22	0.500
371.68	0.492
372.15	0.496
372.61	0.493
373.07	0.490
373.54	0.487
374.00	0.482
374.46	0.483
374.92	0.482
375.39	0.481
375.85	0.478
376.31	0.480
376.78	0.475
377.24	0.472
377.70	0.470
378.16	0.471
378.63	0.467
379.09	0.469
379.55	0.470
380.01	0.464
380.48	0.460
380.94	0.462
381.40	0.461
381.87	0.455
382.33	0.462
382.79	0.459
383.25	0.452
383.72	0.455
384.18	0.452
384.64	0.452
385.10	0.448
385.56	0.445
386.03	0.444
386.49	0.446
386.95	0.438
387.41	0.442
387.88	0.443
388.34	0.437
388.80	0.440
389.26	0.435
389.72	0.437
390.19	0.437
390.65	0.433
391.11	0.430
391.57	0.430
392.04	0.424
392.50	0.427
392.96	0.429
393.42	0.424
393.88	0.425
394.34	0.422
394.81	0.420
395.27	0.421
395.73	0.417
396.19	0.417
396.65	0.417
397.12	0.411
397.58	0.412
398.04	0.415
398.50	0.411
398.96	0.412
399.42	0.409
399.89	0.409
400.35	0.405
400.81	0.409
401.27	0.405
401.73	0.404
402.19	0.403
402.65	0.401
403.12	0.399
403.58	0.399
404.04	0.394
404.50	0.398
404.96	0.397
405.42	0.395
405.88	0.395
406.34	0.392
406.81	0.394
407.27	0.387
407.73	0.394
408.19	0.389
408.65	0.387
409.11	0.384
409.57	0.386
410.03	0.385
410.49	0.381
410.96	0.382
411.42	0.381
411.88	0.377
412.34	0.375
412.80	0.376
413.26	0.379
413.72	0.376
414.18	0.373
414.64	0.375
415.10	0.375
415.56	0.374
416.02	0.371
416.48	0.375
416.95	0.367
417.41	0.365
417.87	0.366
418.33	0.367
418.79	0.364
419.25	0.361
419.71	0.365
420.17	0.361
420.63	0.357
421.09	0.361
421.55	0.363
422.01	0.360
422.47	0.358
422.93	0.359
423.39	0.357
423.85	0.356
424.31	0.358
424.77	0.354
425.23	0.355
425.69	0.351
426.15	0.352
426.61	0.349
427.07	0.349
427.53	0.349
427.99	0.346
428.45	0.347
428.91	0.344
429.37	0.344
429.83	0.344
430.29	0.344
430.75	0.344
431.21	0.344
431.67	0.339
432.13	0.339
432.59	0.335
433.05	0.336
433.51	0.337
433.97	0.333
434.43	0.334
434.89	0.333
435.35	0.328
435.81	0.329
436.27	0.326
436.73	0.327
437.19	0.330
437.65	0.330
438.11	0.327
438.57	0.328
439.03	0.322
439.48	0.323
439.94	0.320
440.40	0.321
440.86	0.325
441.32	0.320
441.78	0.320
442.24	0.320
442.70	0.320
443.16	0.317
443.62	0.315
444.08	0.316
444.54	0.316
444.99	0.319
445.45	0.313
445.91	0.309
446.37	0.313
446.83	0.312
447.29	0.306
447.75	0.308
448.21	0.308
448.67	0.310
449.12	0.302
449.58	0.305
450.04	0.311
450.50	0.304
450.96	0.301
451.42	0.299
451.88	0.300
452.34	0.301
452.79	0.302
453.25	0.303
453.71	0.302
454.17	0.299
454.63	0.298
455.09	0.295
455.55	0.294
456.00	0.294
456.46	0.296
456.92	0.290
457.38	0.287
457.84	0.295
458.30	0.292
458.75	0.290
459.21	0.287
459.67	0.291
460.13	0.287
460.59	0.288
461.04	0.288
461.50	0.290
461.96	0.285
462.42	0.285
462.88	0.286
463.33	0.285
463.79	0.284
464.25	0.284
464.71	0.284
465.17	0.283
465.62	0.280
466.08	0.284
466.54	0.283
467.00	0.281
467.46	0.282
467.91	0.279
468.37	0.279
468.83	0.282
469.29	0.279
469.74	0.278
470.20	0.276
470.66	0.276
471.12	0.275
471.57	0.276
472.03	0.271
472.49	0.274
472.95	0.272
473.40	0.269
473.86	0.269
474.32	0.273
474.78	0.271
475.23	0.268
475.69	0.269
476.15	0.267
476.60	0.267
477.06	0.264
477.52	0.263
477.98	0.267
478.43	0.264
478.89	0.263
479.35	0.265
479.80	0.263
480.26	0.263
480.72	0.265
481.18	0.261
481.63	0.264
482.09	0.257
482.55	0.259
483.00	0.260
483.46	0.259
483.92	0.259
484.37	0.258
484.83	0.256
485.29	0.256
485.74	0.256
486.20	0.258
486.66	0.256
487.11	0.256
487.57	0.255
488.03	0.257
488.48	0.252
488.94	0.255
489.40	0.254
489.85	0.252
490.31	0.252
490.77	0.252
491.22	0.250
491.68	0.251
492.13	0.249
492.59	0.250
493.05	0.248
493.50	0.246
493.96	0.247
494.42	0.246
494.87	0.248
495.33	0.247
495.78	0.247
496.24	0.245
496.70	0.246
497.15	0.244
497.61	0.241
498.06	0.245
498.52	0.242
498.98	0.242
499.43	0.244
499.89	0.243
500.34	0.241
500.80	0.241
501.25	0.241
501.71	0.237
502.17	0.238
502.62	0.239
503.08	0.237
503.53	0.238
503.99	0.235
504.44	0.239
504.90	0.235
505.36	0.236
505.81	0.236
506.27	0.235
506.72	0.235
507.18	0.236
507.63	0.235
508.09	0.235
508.54	0.232
509.00	0.231
509.45	0.234
509.91	0.232
510.36	0.233
510.82	0.234
511.27	0.232
511.73	0.233
512.19	0.229
512.64	0.230
513.10	0.229
513.55	0.226
514.01	0.227
514.46	0.228
514.92	0.228
515.37	0.223
515.83	0.226
516.28	0.224
516.73	0.224
517.19	0.223
517.64	0.225
518.10	0.224
518.55	0.220
519.01	0.222
519.46	0.222
519.92	0.223
520.37	0.223
520.83	0.223
521.28	0.222
521.74	0.222
522.19	0.218
522.65	0.220
523.10	0.220
523.55	0.222
524.01	0.218
524.46	0.221
524.92	0.220
525.37	0.217
525.83	0.219
526.28	0.217
526.73	0.217
527.19	0.218
527.64	0.216
528.10	0.215
528.55	0.213
529.01	0.216
529.46	0.214
529.91	0.214
530.37	0.214
530.82	0.212
531.28	0.211
531.73	0.213
532.18	0.213
532.64	0.212
533.09	0.213
533.54	0.212
534.00	0.210
534.45	0.213
534.91	0.211
535.36	0.209
535.81	0.210
536.27	0.209
536.72	0.209
537.17	0.208
537.63	0.209
538.08	0.211
538.54	0.204
538.99	0.207
539.44	0.207
539.90	0.208
540.35	0.205
540.80	0.207
541.26	0.206
541.71	0.201
542.16	0.204
542.62	0.203
543.07	0.203
543.52	0.203
543.98	0.202
544.43	0.203
544.88	0.204
545.34	0.203
545.79	0.203
546.24	0.202
546.69	0.200
547.15	0.203
547.60	0.201
548.05	0.202
548.51	0.201
548.96	0.199
549.41	0.199
549.86	0.199
550.32	0.201
550.77	0.198
551.22	0.198
551.68	0.199
552.13	0.198
552.58	0.199
553.03	0.198
553.49	0.197
553.94	0.200
554.39	0.197
554.84	0.195
555.30	0.195
555.75	0.194
556.20	0.194
556.65	0.195
557.11	0.195
557.56	0.195
558.01	0.193
558.46	0.194
558.92	0.195
559.37	0.195
559.82	0.191
560.27	0.190
560.72	0.193
561.18	0.193
561.63	0.191
562.08	0.191
562.53	0.189
562.99	0.192
563.44	0.192
563.89	0.190
564.34	0.189
564.79	0.192
565.25	0.189
565.70	0.190
566.15	0.188
566.60	0.185
567.05	0.189
567.50	0.190
567.96	0.188
568.41	0.187
568.86	0.188
569.31	0.189
569.76	0.187
570.21	0.188
570.67	0.185
571.12	0.187
571.57	0.187
572.02	0.186
572.47	0.186
572.92	0.185
573.37	0.185
573.83	0.183
574.28	0.183
574.73	0.182
575.18	0.185
575.63	0.183
576.08	0.183
576.53	0.181
576.98	0.182
577.44	0.182
577.89	0.181
578.34	0.184
578.79	0.181
579.24	0.180
579.69	0.182
580.14	0.182
580.59	0.181
581.04	0.182
581.49	0.182
581.95	0.180
582.40	0.181
582.85	0.181
583.30	0.180
583.75	0.180
584.20	0.181
584.65	0.178
585.10	0.177
585.55	0.179
586.00	0.178
586.45	0.179
586.90	0.180
587.35	0.180
587.80	0.177
588.25	0.177
588.71	0.177
589.16	0.178
589.61	0.178
590.06	0.178
590.51	0.180
590.96	0.175
591.41	0.177
591.86	0.177
592.31	0.178
592.76	0.175
593.21	0.175
593.66	0.175
594.11	0.176
594.56	0.177
595.01	0.175
595.46	0.174
595.91	0.178
596.36	0.174
596.81	0.174
597.26	0.177
597.71	0.177
598.16	0.176
598.61	0.177
599.06	0.175
599.51	0.176
599.96	0.177
600.41	0.174
600.86	0.173
601.31	0.175
601.76	0.173
602.21	0.174
602.65	0.174
603.10	0.174
603.55	0.176
604.00	0.174
604.45	0.173
604.90	0.174
605.35	0.176
605.80	0.173
606.25	0.173
606.70	0.173
607.15	0.173
607.60	0.173
608.05	0.172
608.50	0.171
608.95	0.172
609.39	0.174
609.84	0.172
610.29	0.174
610.74	0.172
611.19	0.172
611.64	0.170
612.09	0.169
612.54	0.170
612.99	0.171
613.44	0.170
613.88	0.170
614.33	0.170
614.78	0.170
615.23	0.170
615.68	0.169
616.13	0.170
616.58	0.170
617.03	0.168
617.47	0.169
617.92	0.168
618.37	0.168
618.82	0.168
619.27	0.170
619.72	0.166
620.17	0.165
620.61	0.168
621.06	0.165
621.51	0.167
621.96	0.167
622.41	0.165
622.86	0.166
623.30	0.166
623.75	0.167
624.20	0.166
624.65	0.167
625.10	0.164
625.54	0.164
625.99	0.164
626.44	0.167
626.89	0.164
627.34	0.165
627.78	0.165
628.23	0.165
628.68	0.162
629.13	0.164
629.58	0.162
630.02	0.164
630.47	0.165
630.92	0.165
631.37	0.164
631.81	0.162
632.26	0.163
632.71	0.162
633.16	0.163
633.61	0.162
634.05	0.164
634.50	0.163
634.95	0.163
635.40	0.164
635.84	0.162
636.29	0.164
636.74	0.163
637.18	0.163
637.63	0.161
638.08	0.163
638.53	0.163
638.97	0.163
639.42	0.163
639.87	0.163
640.32	0.163
640.76	0.163
641.21	0.163
641.66	0.162
642.10	0.161
642.55	0.164
643.00	0.162
643.44	0.161
643.89	0.161
644.34	0.161
644.79	0.164
645.23	0.161
645.68	0.163
646.13	0.164
646.57	0.163
647.02	0.163
647.47	0.164
647.91	0.163
648.36	0.164
648.81	0.164
649.25	0.161
649.70	0.161
650.15	0.162
650.59	0.161
651.04	0.161
651.48	0.163
651.93	0.163
652.38	0.162
652.82	0.161
653.27	0.161
653.72	0.162
654.16	0.164
654.61	0.165
655.06	0.164
655.50	0.161
655.95	0.161
656.39	0.161
656.84	0.164
657.29	0.161
657.73	0.161
658.18	0.164
658.62	0.162
659.07	0.163
659.52	0.160
659.96	0.163
660.41	0.162
660.85	0.161
661.30	0.159
661.74	0.161
662.19	0.160
662.64	0.160
663.08	0.161
663.53	0.161
663.97	0.160
664.42	0.160
664.86	0.161
665.31	0.160
665.75	0.158
666.20	0.159
666.65	0.161
667.09	0.158
667.54	0.157
667.98	0.158
668.43	0.157
668.87	0.158
669.32	0.157
669.76	0.156
670.21	0.156
670.65	0.156
671.10	0.155
671.54	0.156
671.99	0.155
672.43	0.154
672.88	0.151
673.32	0.154
673.77	0.154
674.21	0.153
674.66	0.153
675.10	0.151
675.55	0.148
675.99	0.152
676.44	0.148
676.88	0.149
677.33	0.150
677.77	0.146
678.22	0.147
678.66	0.146
679.11	0.144
679.55	0.145
679.99	0.145
680.44	0.145
680.88	0.146
681.33	0.141
681.77	0.142
682.22	0.140
682.66	0.141
683.11	0.140
683.55	0.140
683.99	0.138
684.44	0.142
684.88	0.137
685.33	0.137
685.77	0.135
686.21	0.136
686.66	0.135
687.10	0.131
687.55	0.135
687.99	0.134
688.44	0.133
688.88	0.133
689.32	0.131
689.77	0.134
690.21	0.134
690.65	0.130
691.10	0.130
691.54	0.132
691.99	0.128
692.43	0.129
692.87	0.130
693.32	0.129
693.76	0.128
694.20	0.129
694.65	0.128
695.09	0.126
695.53	0.127
695.98	0.128
696.42	0.127
696.86	0.125
697.31	0.127
697.75	0.127
698.19	0.127
698.64	0.128
699.08	0.126
699.52	0.124
699.97	0.124
700.41	0.126
700.85	0.123
701.30	0.126
701.74	0.125
702.18	0.124
702.63	0.124
703.07	0.124
703.51	0.126
703.96	0.122
704.40	0.126
704.84	0.125
705.28	0.124
705.73	0.124
706.17	0.123
706.61	0.124
707.06	0.123
707.50	0.122
707.94	0.122
708.38	0.120
708.83	0.121
709.27	0.121
709.71	0.122
710.15	0.121
710.60	0.122
711.04	0.122
711.48	0.122
711.92	0.121
712.37	0.123
712.81	0.122
713.25	0.123
713.69	0.125
714.13	0.122
714.58	0.122
715.02	0.124
715.46	0.119
715.90	0.120
716.35	0.120
716.79	0.120
717.23	0.121
717.67	0.122
718.11	0.123
718.56	0.119
719.00	0.119
719.44	0.120
719.88	0.122
720.32	0.119
720.76	0.122
721.21	0.120
721.65	0.118
722.09	0.120
722.53	0.119
722.97	0.121
723.41	0.120
723.86	0.121
724.30	0.121
724.74	0.121
725.18	0.118
725.62	0.120
726.06	0.119
726.50	0.121
726.95	0.120
727.39	0.121
727.83	0.120
728.27	0.117
728.71	0.119
729.15	0.119
729.59	0.119
730.03	0.118
730.48	0.122
730.92	0.118
731.36	0.118
731.80	0.118
732.24	0.119
732.68	0.117
733.12	0.122
733.56	0.119
734.00	0.120
734.44	0.122
734.89	0.119
735.33	0.121
735.77	0.121
736.21	0.120
736.65	0.120
737.09	0.119
737.53	0.120
737.97	0.122
738.41	0.118
738.85	0.121
739.29	0.121
739.73	0.121
740.17	0.122
740.61	0.119
741.05	0.119
741.49	0.120
741.93	0.117
742.37	0.120
742.81	0.122
743.26	0.121
743.70	0.118
744.14	0.118
744.58	0.120
745.02	0.117
745.46	0.119
745.90	0.119
746.34	0.121
746.78	0.119
747.22	0.117
747.66	0.117
748.10	0.120
748.54	0.122
748.98	0.118
749.42	0.119
749.86	0.118
750.29	0.118
750.73	0.115
751.17	0.118
751.61	0.118
752.05	0.118
752.49	0.118
752.93	0.115
753.37	0.117
753.81	0.117
754.25	0.116
754.69	0.117
755.13	0.115
755.57	0.118
756.01	0.117
756.45	0.113
756.89	0.114
757.33	0.119
757.77	0.115
758.21	0.116
758.64	0.117
759.08	0.113
759.52	0.113
759.96	0.115
760.40	0.115
760.84	0.115
761.28	0.116
761.72	0.113
762.16	0.115
762.60	0.117
763.03	0.115
763.47	0.114
763.91	0.111
764.35	0.113
764.79	0.110
765.23	0.114
765.67	0.112
766.11	0.112
766.54	0.117
766.98	0.114
767.42	0.116
767.86	0.113
768.30	0.115
768.74	0.114
769.17	0.112
769.61	0.109
770.05	0.118
770.49	0.116
770.93	0.112
771.37	0.110
771.80	0.112
772.24	0.112
772.68	0.111
773.12	0.114
773.56	0.112
774.00	0.114
774.43	0.110
774.87	0.111
775.31	0.110
775.75	0.109
776.19	0.110
776.62	0.113
777.06	0.112
777.50	0.110
777.94	0.110
778.37	0.111
778.81	0.112
779.25	0.111
779.69	0.107
780.13	0.111
780.56	0.112
781.00	0.112
781.44	0.114
781.88	0.112
782.31	0.107
782.75	0.108
783.19	0.109
783.63	0.108
784.06	0.111
784.50	0.110
784.94	0.112
785.37	0.109
785.81	0.110
786.25	0.108
786.69	0.111
787.12	0.109
787.56	0.108
788.00	0.110
788.43	0.107
788.87	0.109
789.31	0.110
789.75	0.107
790.18	0.108
790.62	0.109
791.06	0.109
791.49	0.108
791.93	0.107
792.37	0.107
792.80	0.107
793.24	0.105
793.68	0.109
794.11	0.106
794.55	0.107
794.99	0.101
795.42	0.105
795.86	0.107
796.30	0.109
796.73	0.109
797.17	0.108
797.61	0.106
798.04	0.104
798.48	0.102
798.91	0.106
799.35	0.109
799.79	0.103
800.22	0.108
800.66	0.102
801.10	0.103
801.53	0.104
801.97	0.105
802.40	0.105
802.84	0.105
803.28	0.103
803.71	0.106
804.15	0.105
804.58	0.103
805.02	0.103
805.46	0.106
805.89	0.109
806.33	0.104
806.76	0.104
807.20	0.104
807.63	0.106
808.07	0.104
808.51	0.103
808.94	0.102
809.38	0.104
809.81	0.105
810.25	0.104
810.68	0.105
811.12	0.102
811.55	0.103
811.99	0.102
812.42	0.104
812.86	0.100
813.29	0.103
813.73	0.102
814.17	0.107
814.60	0.104
815.04	0.103
815.47	0.103
815.91	0.107
816.34	0.100
816.78	0.101
817.21	0.101
