SpectraSuite Data File
++++++++++++++++++++++++++++++++++++
Date: Mon Jul 10 13:36:47 CEST 2017
User: IPCE
Dark Spectrum Present: Yes
Reference Spectrum Present: Yes
Number of Sampled Component Spectra: 1
Spectrometers: HR+C0708
Integration Time (usec): 1000 (HR+C0708)
Spectra Averaged: 10 (HR+C0708)
Boxcar Smoothing: 0 (HR+C0708)
Correct for Electrical Dark: No (HR+C0708)
Strobe/Lamp Enabled: No (HR+C0708)
Correct for Detector Non-linearity: No (HR+C0708)
Correct for Stray Light: No (HR+C0708)
Number of Pixels in Processed Spectrum: 2048
>>>>>Begin Processed Spectral Data<<<<<
188.76	0.085
189.23	-0.000
189.70	-0.000
190.17	0.180
190.64	-0.000
191.12	-0.081
191.59	-0.000
192.06	0.547
192.53	0.662
193.01	0.873
193.48	0.380
193.95	-0.000
194.42	0.849
194.90	0.094
195.37	-0.000
195.84	-0.000
196.31	0.222
196.78	0.503
197.26	-0.000
197.73	0.893
198.20	-0.000
198.67	0.263
199.14	-0.000
199.62	-0.000
200.09	0.313
200.56	0.469
201.03	0.627
201.50	0.342
201.97	0.388
202.45	0.682
202.92	0.465
203.39	0.570
203.86	0.474
204.33	0.546
204.80	0.716
205.28	0.663
205.75	0.708
206.22	0.586
206.69	0.362
207.16	0.612
207.63	0.700
208.11	0.357
208.58	0.317
209.05	0.360
209.52	0.508
209.99	0.688
210.46	0.367
210.93	0.487
211.41	0.589
211.88	0.313
212.35	0.557
212.82	0.739
213.29	0.314
213.76	0.537
214.23	0.620
214.70	0.628
215.18	0.731
215.65	0.423
216.12	0.450
216.59	0.750
217.06	0.380
217.53	0.454
218.00	0.692
218.47	0.330
218.94	0.587
219.41	0.498
219.89	0.672
220.36	0.531
220.83	0.413
221.30	0.893
221.77	0.667
222.24	0.519
222.71	0.710
223.18	0.693
223.65	0.621
224.12	0.690
224.59	0.912
225.06	0.807
225.54	0.741
226.01	0.986
226.48	0.890
226.95	1.057
227.42	0.726
227.89	1.136
228.36	1.368
228.83	0.923
229.30	1.101
229.77	1.114
230.24	1.507
230.71	1.365
231.18	1.337
231.65	1.564
232.12	1.530
232.59	1.407
233.06	1.445
233.53	1.593
234.00	1.476
234.47	1.677
234.94	1.739
235.41	1.673
235.88	1.835
236.35	1.829
236.82	1.887
237.29	2.176
237.76	2.027
238.23	2.513
238.70	2.454
239.17	1.902
239.64	2.265
240.11	2.274
240.58	2.097
241.05	2.254
241.52	2.119
241.99	2.274
242.46	2.437
242.93	2.443
243.40	2.424
243.87	2.544
244.34	2.333
244.81	2.387
245.28	2.592
245.75	2.269
246.22	2.517
246.69	2.449
247.16	2.532
247.63	2.560
248.10	2.439
248.57	2.612
249.04	2.513
249.51	2.401
249.98	2.455
250.45	2.706
250.92	2.505
251.39	2.564
251.85	2.515
252.32	2.425
252.79	2.775
253.26	2.391
253.73	2.484
254.20	2.421
254.67	2.337
255.14	2.655
255.61	2.699
256.08	2.452
256.55	2.584
257.02	2.644
257.49	3.042
257.95	2.769
258.42	2.556
258.89	2.672
259.36	2.877
259.83	2.538
260.30	2.563
260.77	2.654
261.24	2.663
261.71	2.629
262.17	2.564
262.64	2.584
263.11	2.548
263.58	2.886
264.05	2.701
264.52	2.585
264.99	2.594
265.46	2.649
265.92	2.779
266.39	2.571
266.86	2.907
267.33	2.882
267.80	2.701
268.27	2.684
268.74	2.673
269.20	2.634
269.67	2.657
270.14	2.622
270.61	3.019
271.08	2.943
271.55	2.594
272.01	2.638
272.48	2.686
272.95	2.558
273.42	2.566
273.89	2.574
274.36	2.811
274.82	2.587
275.29	2.566
275.76	2.628
276.23	2.771
276.70	2.346
277.16	2.657
277.63	2.701
278.10	2.687
278.57	2.605
279.04	2.739
279.50	2.478
279.97	2.466
280.44	2.428
280.91	2.958
281.38	2.639
281.84	2.510
282.31	2.588
282.78	2.588
283.25	2.439
283.72	2.595
284.18	2.629
284.65	2.840
285.12	2.546
285.59	2.523
286.05	2.574
286.52	2.591
286.99	2.414
287.46	2.518
287.92	2.591
288.39	2.532
288.86	2.499
289.33	2.634
289.79	2.690
290.26	2.477
290.73	2.399
291.20	2.594
291.66	2.481
292.13	2.411
292.60	2.546
293.07	2.913
293.53	2.405
294.00	2.364
294.47	2.530
294.93	2.528
295.40	2.455
295.87	2.432
296.34	2.496
296.80	2.581
297.27	2.456
297.74	2.557
298.20	2.600
298.67	2.358
299.14	2.499
299.60	2.552
300.07	2.333
300.54	2.476
301.01	2.489
301.47	2.642
301.94	2.540
302.41	2.383
302.87	2.409
303.34	2.474
303.81	2.221
304.27	2.368
304.74	2.525
305.21	2.313
305.67	2.304
306.14	2.278
306.61	2.343
307.07	2.450
307.54	2.293
308.01	2.440
308.47	2.455
308.94	2.305
309.40	2.460
309.87	2.504
310.34	2.317
310.80	2.411
311.27	2.458
311.74	2.450
312.20	2.290
312.67	2.322
313.13	2.481
313.60	2.372
314.07	2.287
314.53	2.331
315.00	2.380
315.47	2.320
315.93	2.356
316.40	2.306
316.86	2.370
317.33	2.325
317.80	2.265
318.26	2.291
318.73	2.349
319.19	2.153
319.66	2.198
320.13	2.328
320.59	2.129
321.06	2.095
321.52	2.178
321.99	2.106
322.45	2.063
322.92	2.044
323.39	2.066
323.85	2.011
324.32	1.927
324.78	1.924
325.25	1.913
325.71	1.786
326.18	1.779
326.64	1.785
327.11	1.689
327.58	1.677
328.04	1.586
328.51	1.561
328.97	1.500
329.44	1.447
329.90	1.392
330.37	1.377
330.83	1.287
331.30	1.245
331.76	1.188
332.23	1.128
332.69	1.076
333.16	1.022
333.62	0.972
334.09	0.910
334.56	0.857
335.02	0.806
335.49	0.764
335.95	0.711
336.42	0.671
336.88	0.630
337.35	0.589
337.81	0.553
338.28	0.519
338.74	0.496
339.20	0.467
339.67	0.436
340.13	0.410
340.60	0.381
341.06	0.352
341.53	0.328
341.99	0.310
342.46	0.289
342.92	0.268
343.39	0.256
343.85	0.239
344.32	0.227
344.78	0.215
345.25	0.206
345.71	0.194
346.17	0.184
346.64	0.174
347.10	0.162
347.57	0.152
348.03	0.146
348.50	0.140
348.96	0.132
349.43	0.127
349.89	0.120
350.35	0.120
350.82	0.117
351.28	0.111
351.75	0.106
352.21	0.108
352.67	0.103
353.14	0.099
353.60	0.102
354.07	0.095
354.53	0.093
355.00	0.088
355.46	0.090
355.92	0.091
356.39	0.090
356.85	0.085
357.31	0.085
357.78	0.085
358.24	0.085
358.71	0.082
359.17	0.079
359.63	0.077
360.10	0.076
360.56	0.078
361.03	0.076
361.49	0.075
361.95	0.078
362.42	0.077
362.88	0.077
363.34	0.078
363.81	0.074
364.27	0.076
364.73	0.072
365.20	0.072
365.66	0.071
366.12	0.073
366.59	0.072
367.05	0.070
367.51	0.072
367.98	0.071
368.44	0.070
368.90	0.072
369.37	0.068
369.83	0.066
370.29	0.069
370.76	0.066
371.22	0.068
371.68	0.065
372.15	0.068
372.61	0.068
373.07	0.065
373.54	0.064
374.00	0.066
374.46	0.066
374.92	0.067
375.39	0.068
375.85	0.067
376.31	0.065
376.78	0.066
377.24	0.063
377.70	0.064
378.16	0.066
378.63	0.063
379.09	0.066
379.55	0.065
380.01	0.063
380.48	0.063
380.94	0.065
381.40	0.062
381.87	0.062
382.33	0.065
382.79	0.067
383.25	0.062
383.72	0.063
384.18	0.062
384.64	0.063
385.10	0.063
385.56	0.063
386.03	0.060
386.49	0.062
386.95	0.061
387.41	0.063
387.88	0.059
388.34	0.059
388.80	0.062
389.26	0.059
389.72	0.063
390.19	0.061
390.65	0.060
391.11	0.062
391.57	0.059
392.04	0.060
392.50	0.063
392.96	0.060
393.42	0.059
393.88	0.062
394.34	0.060
394.81	0.059
395.27	0.060
395.73	0.057
396.19	0.059
396.65	0.061
397.12	0.060
397.58	0.060
398.04	0.058
398.50	0.058
398.96	0.059
399.42	0.058
399.89	0.059
400.35	0.057
400.81	0.060
401.27	0.055
401.73	0.056
402.19	0.054
402.65	0.056
403.12	0.054
403.58	0.053
404.04	0.058
404.50	0.055
404.96	0.053
405.42	0.054
405.88	0.052
406.34	0.053
406.81	0.055
407.27	0.051
407.73	0.054
408.19	0.050
408.65	0.049
409.11	0.049
409.57	0.050
410.03	0.049
410.49	0.050
410.96	0.049
411.42	0.048
411.88	0.049
412.34	0.048
412.80	0.049
413.26	0.048
413.72	0.048
414.18	0.047
414.64	0.046
415.10	0.048
415.56	0.047
416.02	0.046
416.48	0.051
416.95	0.045
417.41	0.046
417.87	0.048
418.33	0.047
418.79	0.046
419.25	0.044
419.71	0.046
420.17	0.047
420.63	0.045
421.09	0.046
421.55	0.045
422.01	0.047
422.47	0.046
422.93	0.044
423.39	0.047
423.85	0.044
424.31	0.047
424.77	0.046
425.23	0.047
425.69	0.046
426.15	0.047
426.61	0.044
427.07	0.045
427.53	0.045
427.99	0.047
428.45	0.045
428.91	0.046
429.37	0.046
429.83	0.044
430.29	0.045
430.75	0.046
431.21	0.046
431.67	0.044
432.13	0.044
432.59	0.043
433.05	0.043
433.51	0.046
433.97	0.042
434.43	0.047
434.89	0.041
435.35	0.042
435.81	0.042
436.27	0.044
436.73	0.041
437.19	0.043
437.65	0.045
438.11	0.044
438.57	0.042
439.03	0.041
439.48	0.046
439.94	0.044
440.40	0.044
440.86	0.041
441.32	0.042
441.78	0.040
442.24	0.044
442.70	0.042
443.16	0.041
443.62	0.043
444.08	0.042
444.54	0.042
444.99	0.041
445.45	0.042
445.91	0.039
446.37	0.044
446.83	0.040
447.29	0.041
447.75	0.039
448.21	0.042
448.67	0.040
449.12	0.040
449.58	0.043
450.04	0.044
450.50	0.041
450.96	0.040
451.42	0.041
451.88	0.043
452.34	0.041
452.79	0.042
453.25	0.042
453.71	0.043
454.17	0.040
454.63	0.042
455.09	0.042
455.55	0.040
456.00	0.040
456.46	0.043
456.92	0.041
457.38	0.041
457.84	0.042
458.30	0.041
458.75	0.042
459.21	0.041
459.67	0.046
460.13	0.039
460.59	0.041
461.04	0.044
461.50	0.043
461.96	0.041
462.42	0.042
462.88	0.043
463.33	0.040
463.79	0.041
464.25	0.042
464.71	0.041
465.17	0.042
465.62	0.040
466.08	0.044
466.54	0.042
467.00	0.044
467.46	0.044
467.91	0.043
468.37	0.041
468.83	0.044
469.29	0.046
469.74	0.044
470.20	0.043
470.66	0.044
471.12	0.045
471.57	0.044
472.03	0.044
472.49	0.044
472.95	0.046
473.40	0.042
473.86	0.042
474.32	0.044
474.78	0.045
475.23	0.043
475.69	0.045
476.15	0.045
476.60	0.044
477.06	0.043
477.52	0.045
477.98	0.044
478.43	0.047
478.89	0.044
479.35	0.046
479.80	0.047
480.26	0.046
480.72	0.047
481.18	0.045
481.63	0.047
482.09	0.044
482.55	0.049
483.00	0.047
483.46	0.046
483.92	0.046
484.37	0.048
484.83	0.046
485.29	0.047
485.74	0.047
486.20	0.048
486.66	0.047
487.11	0.047
487.57	0.046
488.03	0.047
488.48	0.046
488.94	0.047
489.40	0.048
489.85	0.048
490.31	0.046
490.77	0.048
491.22	0.046
491.68	0.049
492.13	0.047
492.59	0.047
493.05	0.047
493.50	0.048
493.96	0.048
494.42	0.048
494.87	0.047
495.33	0.050
495.78	0.051
496.24	0.049
496.70	0.050
497.15	0.049
497.61	0.049
498.06	0.048
498.52	0.047
498.98	0.050
499.43	0.049
499.89	0.048
500.34	0.048
500.80	0.048
501.25	0.050
501.71	0.049
502.17	0.048
502.62	0.047
503.08	0.047
503.53	0.049
503.99	0.048
504.44	0.047
504.90	0.047
505.36	0.046
505.81	0.049
506.27	0.048
506.72	0.049
507.18	0.049
507.63	0.048
508.09	0.046
508.54	0.046
509.00	0.047
509.45	0.047
509.91	0.048
510.36	0.048
510.82	0.049
511.27	0.049
511.73	0.048
512.19	0.048
512.64	0.049
513.10	0.046
513.55	0.047
514.01	0.048
514.46	0.046
514.92	0.046
515.37	0.047
515.83	0.051
516.28	0.048
516.73	0.046
517.19	0.046
517.64	0.050
518.10	0.049
518.55	0.045
519.01	0.048
519.46	0.046
519.92	0.048
520.37	0.048
520.83	0.048
521.28	0.046
521.74	0.048
522.19	0.046
522.65	0.045
523.10	0.048
523.55	0.048
524.01	0.047
524.46	0.047
524.92	0.049
525.37	0.049
525.83	0.048
526.28	0.048
526.73	0.049
527.19	0.049
527.64	0.049
528.10	0.049
528.55	0.050
529.01	0.051
529.46	0.049
529.91	0.049
530.37	0.050
530.82	0.049
531.28	0.048
531.73	0.051
532.18	0.050
532.64	0.050
533.09	0.052
533.54	0.052
534.00	0.051
534.45	0.054
534.91	0.053
535.36	0.054
535.81	0.051
536.27	0.053
536.72	0.054
537.17	0.055
537.63	0.055
538.08	0.055
538.54	0.054
538.99	0.057
539.44	0.055
539.90	0.057
540.35	0.057
540.80	0.059
541.26	0.058
541.71	0.058
542.16	0.057
542.62	0.059
543.07	0.058
543.52	0.059
543.98	0.060
544.43	0.061
544.88	0.063
545.34	0.064
545.79	0.064
546.24	0.065
546.69	0.063
547.15	0.066
547.60	0.064
548.05	0.068
548.51	0.069
548.96	0.067
549.41	0.069
549.86	0.068
550.32	0.072
550.77	0.071
551.22	0.072
551.68	0.073
552.13	0.073
552.58	0.074
553.03	0.075
553.49	0.077
553.94	0.078
554.39	0.078
554.84	0.075
555.30	0.079
555.75	0.079
556.20	0.078
556.65	0.082
557.11	0.081
557.56	0.082
558.01	0.085
558.46	0.085
558.92	0.087
559.37	0.087
559.82	0.089
560.27	0.087
560.72	0.090
561.18	0.092
561.63	0.092
562.08	0.092
562.53	0.093
562.99	0.095
563.44	0.093
563.89	0.094
564.34	0.097
564.79	0.097
565.25	0.101
565.70	0.101
566.15	0.101
566.60	0.100
567.05	0.104
567.50	0.104
567.96	0.106
568.41	0.106
568.86	0.109
569.31	0.110
569.76	0.110
570.21	0.112
570.67	0.113
571.12	0.114
571.57	0.114
572.02	0.117
572.47	0.116
572.92	0.120
573.37	0.120
573.83	0.120
574.28	0.121
574.73	0.123
575.18	0.124
575.63	0.127
576.08	0.128
576.53	0.128
576.98	0.130
577.44	0.130
577.89	0.136
578.34	0.138
578.79	0.138
579.24	0.139
579.69	0.143
580.14	0.143
580.59	0.144
581.04	0.145
581.49	0.149
581.95	0.150
582.40	0.153
582.85	0.155
583.30	0.157
583.75	0.159
584.20	0.163
584.65	0.163
585.10	0.165
585.55	0.167
586.00	0.172
586.45	0.173
586.90	0.176
587.35	0.178
587.80	0.182
588.25	0.183
588.71	0.186
589.16	0.190
589.61	0.194
590.06	0.194
590.51	0.199
590.96	0.199
591.41	0.202
591.86	0.206
592.31	0.208
592.76	0.210
593.21	0.212
593.66	0.217
594.11	0.219
594.56	0.223
595.01	0.228
595.46	0.230
595.91	0.233
596.36	0.237
596.81	0.240
597.26	0.244
597.71	0.247
598.16	0.250
598.61	0.253
599.06	0.254
599.51	0.261
599.96	0.262
600.41	0.265
600.86	0.270
601.31	0.274
601.76	0.275
602.21	0.278
602.65	0.280
603.10	0.285
603.55	0.291
604.00	0.291
604.45	0.297
604.90	0.298
605.35	0.303
605.80	0.302
606.25	0.307
606.70	0.307
607.15	0.311
607.60	0.312
608.05	0.317
608.50	0.320
608.95	0.322
609.39	0.323
609.84	0.323
610.29	0.328
610.74	0.330
611.19	0.332
611.64	0.334
612.09	0.334
612.54	0.336
612.99	0.338
613.44	0.339
613.88	0.341
614.33	0.342
614.78	0.341
615.23	0.343
615.68	0.345
616.13	0.346
616.58	0.348
617.03	0.347
617.47	0.350
617.92	0.349
618.37	0.351
618.82	0.352
619.27	0.353
619.72	0.352
620.17	0.351
620.61	0.354
621.06	0.353
621.51	0.354
621.96	0.355
622.41	0.357
622.86	0.356
623.30	0.361
623.75	0.360
624.20	0.362
624.65	0.362
625.10	0.362
625.54	0.360
625.99	0.363
626.44	0.366
626.89	0.366
627.34	0.369
627.78	0.369
628.23	0.371
628.68	0.374
629.13	0.375
629.58	0.374
630.02	0.379
630.47	0.382
630.92	0.383
631.37	0.387
631.81	0.386
632.26	0.390
632.71	0.393
633.16	0.392
633.61	0.399
634.05	0.403
634.50	0.403
634.95	0.409
635.40	0.411
635.84	0.415
636.29	0.418
636.74	0.424
637.18	0.426
637.63	0.427
638.08	0.433
638.53	0.439
638.97	0.443
639.42	0.447
639.87	0.452
640.32	0.453
640.76	0.460
641.21	0.465
641.66	0.468
642.10	0.474
642.55	0.478
643.00	0.485
643.44	0.489
643.89	0.494
644.34	0.501
644.79	0.509
645.23	0.510
645.68	0.520
646.13	0.522
646.57	0.528
647.02	0.536
647.47	0.539
647.91	0.548
648.36	0.554
648.81	0.557
649.25	0.562
649.70	0.570
650.15	0.570
650.59	0.576
651.04	0.582
651.48	0.590
651.93	0.593
652.38	0.599
652.82	0.604
653.27	0.607
653.72	0.614
654.16	0.618
654.61	0.622
655.06	0.628
655.50	0.632
655.95	0.639
656.39	0.642
656.84	0.647
657.29	0.650
657.73	0.654
658.18	0.663
658.62	0.664
659.07	0.667
659.52	0.672
659.96	0.678
660.41	0.677
660.85	0.680
661.30	0.684
661.74	0.689
662.19	0.693
662.64	0.694
663.08	0.697
663.53	0.697
663.97	0.700
664.42	0.701
664.86	0.702
665.31	0.702
665.75	0.701
666.20	0.702
666.65	0.701
667.09	0.699
667.54	0.696
667.98	0.696
668.43	0.695
668.87	0.690
669.32	0.688
669.76	0.682
670.21	0.680
670.65	0.675
671.10	0.667
671.54	0.656
671.99	0.650
672.43	0.645
672.88	0.634
673.32	0.628
673.77	0.616
674.21	0.605
674.66	0.595
675.10	0.590
675.55	0.572
675.99	0.565
676.44	0.551
676.88	0.538
677.33	0.526
677.77	0.510
678.22	0.500
678.66	0.488
679.11	0.473
679.55	0.461
679.99	0.445
680.44	0.435
680.88	0.420
681.33	0.404
681.77	0.393
682.22	0.380
682.66	0.365
683.11	0.353
683.55	0.340
683.99	0.328
684.44	0.318
684.88	0.304
685.33	0.293
685.77	0.283
686.21	0.270
686.66	0.261
687.10	0.247
687.55	0.240
687.99	0.230
688.44	0.222
688.88	0.211
689.32	0.201
689.77	0.196
690.21	0.189
690.65	0.176
691.10	0.168
691.54	0.162
691.99	0.157
692.43	0.149
692.87	0.144
693.32	0.135
693.76	0.130
694.20	0.124
694.65	0.120
695.09	0.116
695.53	0.112
695.98	0.107
696.42	0.102
696.86	0.098
697.31	0.093
697.75	0.091
698.19	0.086
698.64	0.085
699.08	0.080
699.52	0.077
699.97	0.075
700.41	0.073
700.85	0.067
701.30	0.067
701.74	0.067
702.18	0.062
702.63	0.061
703.07	0.058
703.51	0.057
703.96	0.055
704.40	0.055
704.84	0.052
705.28	0.050
705.73	0.047
706.17	0.046
706.61	0.046
707.06	0.044
707.50	0.043
707.94	0.041
708.38	0.039
708.83	0.041
709.27	0.039
709.71	0.036
710.15	0.038
710.60	0.036
711.04	0.033
711.48	0.033
711.92	0.030
712.37	0.033
712.81	0.032
713.25	0.032
713.69	0.034
714.13	0.031
714.58	0.032
715.02	0.030
715.46	0.028
715.90	0.029
716.35	0.030
716.79	0.026
717.23	0.027
717.67	0.028
718.11	0.028
718.56	0.028
719.00	0.027
719.44	0.026
719.88	0.028
720.32	0.025
720.76	0.025
721.21	0.026
721.65	0.024
722.09	0.028
722.53	0.026
722.97	0.027
723.41	0.027
723.86	0.028
724.30	0.026
724.74	0.026
725.18	0.024
725.62	0.026
726.06	0.025
726.50	0.027
726.95	0.027
727.39	0.029
727.83	0.027
728.27	0.024
728.71	0.022
729.15	0.025
729.59	0.028
730.03	0.027
730.48	0.028
730.92	0.027
731.36	0.026
731.80	0.025
732.24	0.024
732.68	0.025
733.12	0.028
733.56	0.027
734.00	0.028
734.44	0.026
734.89	0.027
735.33	0.029
735.77	0.027
736.21	0.029
736.65	0.027
737.09	0.030
737.53	0.028
737.97	0.028
738.41	0.027
738.85	0.030
739.29	0.029
739.73	0.030
740.17	0.028
740.61	0.028
741.05	0.029
741.49	0.030
741.93	0.027
742.37	0.029
742.81	0.028
743.26	0.026
743.70	0.027
744.14	0.026
744.58	0.030
745.02	0.027
745.46	0.027
745.90	0.027
746.34	0.028
746.78	0.027
747.22	0.027
747.66	0.026
748.10	0.028
748.54	0.031
748.98	0.030
749.42	0.032
749.86	0.030
750.29	0.024
750.73	0.028
751.17	0.028
751.61	0.029
752.05	0.029
752.49	0.030
752.93	0.024
753.37	0.028
753.81	0.028
754.25	0.027
754.69	0.028
755.13	0.025
755.57	0.028
756.01	0.027
756.45	0.027
756.89	0.024
757.33	0.032
757.77	0.026
758.21	0.026
758.64	0.030
759.08	0.025
759.52	0.025
759.96	0.025
760.40	0.027
760.84	0.028
761.28	0.029
761.72	0.027
762.16	0.030
762.60	0.028
763.03	0.024
763.47	0.026
763.91	0.025
764.35	0.025
764.79	0.025
765.23	0.030
765.67	0.029
766.11	0.024
766.54	0.030
766.98	0.028
767.42	0.026
767.86	0.027
768.30	0.027
768.74	0.027
769.17	0.027
769.61	0.026
770.05	0.028
770.49	0.026
770.93	0.026
771.37	0.025
771.80	0.027
772.24	0.026
772.68	0.024
773.12	0.030
773.56	0.027
774.00	0.027
774.43	0.027
774.87	0.026
775.31	0.027
775.75	0.027
776.19	0.027
776.62	0.028
777.06	0.028
777.50	0.025
777.94	0.026
778.37	0.026
778.81	0.026
779.25	0.026
779.69	0.026
780.13	0.029
780.56	0.029
781.00	0.028
781.44	0.028
781.88	0.027
782.31	0.027
782.75	0.026
783.19	0.025
783.63	0.024
784.06	0.028
784.50	0.026
784.94	0.032
785.37	0.026
785.81	0.029
786.25	0.025
786.69	0.025
787.12	0.025
787.56	0.024
788.00	0.028
788.43	0.026
788.87	0.028
789.31	0.026
789.75	0.027
790.18	0.023
790.62	0.024
791.06	0.028
791.49	0.026
791.93	0.027
792.37	0.025
792.80	0.022
793.24	0.023
793.68	0.028
794.11	0.026
794.55	0.026
794.99	0.022
795.42	0.024
795.86	0.025
796.30	0.024
796.73	0.024
797.17	0.031
797.61	0.024
798.04	0.023
798.48	0.025
798.91	0.024
799.35	0.025
799.79	0.023
800.22	0.026
800.66	0.026
801.10	0.025
801.53	0.027
801.97	0.027
802.40	0.024
802.84	0.024
803.28	0.025
803.71	0.025
804.15	0.022
804.58	0.026
805.02	0.024
805.46	0.027
805.89	0.028
806.33	0.026
806.76	0.027
807.20	0.025
807.63	0.024
808.07	0.026
808.51	0.023
808.94	0.028
809.38	0.027
809.81	0.024
810.25	0.025
810.68	0.022
811.12	0.028
811.55	0.026
811.99	0.025
812.42	0.024
812.86	0.028
813.29	0.025
813.73	0.025
814.17	0.029
814.60	0.027
815.04	0.025
815.47	0.023
815.91	0.030
816.34	0.026
816.78	0.024
817.21	0.026
817.65	0.030
