SpectraSuite Data File
++++++++++++++++++++++++++++++++++++
Date: Mon Jul 10 14:39:47 CEST 2017
User: IPCE
Dark Spectrum Present: Yes
Reference Spectrum Present: Yes
Number of Sampled Component Spectra: 1
Spectrometers: HR+C0708
Integration Time (usec): 1000 (HR+C0708)
Spectra Averaged: 10 (HR+C0708)
Boxcar Smoothing: 0 (HR+C0708)
Correct for Electrical Dark: No (HR+C0708)
Strobe/Lamp Enabled: No (HR+C0708)
Correct for Detector Non-linearity: No (HR+C0708)
Correct for Stray Light: No (HR+C0708)
Number of Pixels in Processed Spectrum: 2048
>>>>>Begin Processed Spectral Data<<<<<
188.76	0.314
189.23	-0.000
189.70	-0.000
190.17	0.416
190.64	-0.000
191.12	-0.000
191.59	-0.000
192.06	0.693
192.53	-0.000
193.01	-0.000
193.48	-0.000
193.95	-0.000
194.42	-0.000
194.90	-0.000
195.37	-0.000
195.84	-0.000
196.31	-0.000
196.78	-0.000
197.26	0.176
197.73	-0.000
198.20	-0.000
198.67	-0.000
199.14	-0.000
199.62	-0.000
200.09	1.497
200.56	1.416
201.03	-0.000
201.50	-0.000
201.97	0.735
202.45	1.509
202.92	0.900
203.39	1.074
203.86	0.543
204.33	0.630
204.80	-0.000
205.28	-0.000
205.75	-0.000
206.22	-0.000
206.69	-0.000
207.16	0.653
207.63	0.887
208.11	1.179
208.58	0.632
209.05	0.616
209.52	0.776
209.99	-0.000
210.46	0.919
210.93	0.849
211.41	0.804
211.88	0.894
212.35	0.672
212.82	0.882
213.29	0.730
213.76	1.326
214.23	1.800
214.70	0.580
215.18	-0.000
215.65	-0.000
216.12	0.856
216.59	1.195
217.06	0.900
217.53	0.680
218.00	0.634
218.47	0.763
218.94	0.951
219.41	0.823
219.89	0.874
220.36	0.905
220.83	0.668
221.30	1.146
221.77	0.894
222.24	0.939
222.71	1.367
223.18	1.455
223.65	1.182
224.12	1.196
224.59	1.075
225.06	1.678
225.54	-0.000
226.01	1.223
226.48	1.391
226.95	-0.000
227.42	1.575
227.89	1.358
228.36	-0.000
228.83	1.470
229.30	1.474
229.77	1.490
230.24	-0.000
230.71	2.060
231.18	2.130
231.65	1.947
232.12	1.849
232.59	1.963
233.06	1.776
233.53	1.983
234.00	2.023
234.47	1.857
234.94	1.956
235.41	2.007
235.88	2.069
236.35	1.933
236.82	2.763
237.29	-0.000
237.76	2.655
238.23	2.603
238.70	-0.000
239.17	2.543
239.64	2.495
240.11	2.438
240.58	2.391
241.05	2.719
241.52	2.537
241.99	2.728
242.46	3.207
242.93	3.158
243.40	2.818
243.87	3.221
244.34	-0.000
244.81	2.627
245.28	-0.000
245.75	2.713
246.22	2.492
246.69	2.688
247.16	2.982
247.63	2.857
248.10	3.082
248.57	2.751
249.04	2.884
249.51	2.968
249.98	2.665
250.45	3.169
250.92	-0.000
251.39	-0.000
251.85	3.031
252.32	3.232
252.79	3.582
253.26	2.587
253.73	2.911
254.20	2.789
254.67	2.898
255.14	2.648
255.61	2.602
256.08	2.857
256.55	2.827
257.02	2.835
257.49	2.790
257.95	3.883
258.42	2.644
258.89	2.730
259.36	3.140
259.83	2.866
260.30	2.688
260.77	3.160
261.24	3.402
261.71	2.832
262.17	2.804
262.64	2.839
263.11	2.827
263.58	2.970
264.05	2.845
264.52	2.868
264.99	2.927
265.46	2.824
265.92	2.818
266.39	2.843
266.86	2.860
267.33	3.041
267.80	2.831
268.27	2.830
268.74	2.812
269.20	2.838
269.67	2.818
270.14	2.817
270.61	2.664
271.08	2.863
271.55	2.881
272.01	2.786
272.48	2.602
272.95	2.609
273.42	2.708
273.89	2.731
274.36	2.914
274.82	2.705
275.29	2.726
275.76	2.535
276.23	2.679
276.70	2.536
277.16	2.475
277.63	2.463
278.10	2.634
278.57	2.623
279.04	2.509
279.50	2.434
279.97	2.450
280.44	2.424
280.91	2.646
281.38	2.649
281.84	2.557
282.31	2.452
282.78	2.462
283.25	2.339
283.72	2.441
284.18	2.453
284.65	2.539
285.12	2.401
285.59	2.464
286.05	2.310
286.52	2.348
286.99	2.421
287.46	2.314
287.92	2.392
288.39	2.357
288.86	2.356
289.33	2.349
289.79	2.369
290.26	2.325
290.73	2.245
291.20	2.262
291.66	2.241
292.13	2.389
292.60	2.223
293.07	2.284
293.53	2.277
294.00	2.221
294.47	2.240
294.93	2.269
295.40	2.226
295.87	2.152
296.34	2.169
296.80	2.325
297.27	2.250
297.74	2.182
298.20	2.173
298.67	2.214
299.14	2.183
299.60	2.206
300.07	2.143
300.54	2.195
301.01	2.106
301.47	2.183
301.94	2.152
302.41	2.179
302.87	2.100
303.34	2.152
303.81	2.041
304.27	2.071
304.74	2.083
305.21	2.061
305.67	2.080
306.14	2.056
306.61	2.048
307.07	2.105
307.54	2.032
308.01	2.045
308.47	2.074
308.94	2.037
309.40	2.008
309.87	2.018
310.34	1.983
310.80	2.000
311.27	1.974
311.74	1.999
312.20	1.954
312.67	2.002
313.13	1.988
313.60	1.967
314.07	1.972
314.53	1.954
315.00	1.932
315.47	1.959
315.93	1.968
316.40	1.955
316.86	1.936
317.33	1.947
317.80	1.906
318.26	1.932
318.73	1.889
319.19	1.896
319.66	1.855
320.13	1.923
320.59	1.884
321.06	1.848
321.52	1.870
321.99	1.855
322.45	1.858
322.92	1.843
323.39	1.820
323.85	1.850
324.32	1.821
324.78	1.797
325.25	1.811
325.71	1.803
326.18	1.756
326.64	1.742
327.11	1.757
327.58	1.780
328.04	1.722
328.51	1.697
328.97	1.706
329.44	1.694
329.90	1.678
330.37	1.709
330.83	1.660
331.30	1.657
331.76	1.663
332.23	1.648
332.69	1.631
333.16	1.588
333.62	1.608
334.09	1.584
334.56	1.548
335.02	1.524
335.49	1.534
335.95	1.488
336.42	1.462
336.88	1.457
337.35	1.437
337.81	1.413
338.28	1.382
338.74	1.370
339.20	1.364
339.67	1.329
340.13	1.296
340.60	1.291
341.06	1.253
341.53	1.238
341.99	1.218
342.46	1.187
342.92	1.168
343.39	1.138
343.85	1.125
344.32	1.103
344.78	1.081
345.25	1.071
345.71	1.041
346.17	1.027
346.64	1.000
347.10	0.973
347.57	0.951
348.03	0.937
348.50	0.918
348.96	0.907
349.43	0.888
349.89	0.878
350.35	0.859
350.82	0.838
351.28	0.821
351.75	0.818
352.21	0.800
352.67	0.785
353.14	0.768
353.60	0.760
354.07	0.752
354.53	0.749
355.00	0.730
355.46	0.719
355.92	0.716
356.39	0.705
356.85	0.696
357.31	0.689
357.78	0.677
358.24	0.665
358.71	0.663
359.17	0.655
359.63	0.653
360.10	0.643
360.56	0.638
361.03	0.638
361.49	0.628
361.95	0.620
362.42	0.621
362.88	0.613
363.34	0.617
363.81	0.615
364.27	0.611
364.73	0.606
365.20	0.600
365.66	0.599
366.12	0.593
366.59	0.594
367.05	0.589
367.51	0.589
367.98	0.585
368.44	0.583
368.90	0.582
369.37	0.580
369.83	0.573
370.29	0.575
370.76	0.574
371.22	0.575
371.68	0.571
372.15	0.567
372.61	0.566
373.07	0.557
373.54	0.558
374.00	0.559
374.46	0.556
374.92	0.557
375.39	0.550
375.85	0.550
376.31	0.549
376.78	0.548
377.24	0.549
377.70	0.543
378.16	0.543
378.63	0.543
379.09	0.539
379.55	0.543
380.01	0.537
380.48	0.533
380.94	0.532
381.40	0.529
381.87	0.528
382.33	0.533
382.79	0.526
383.25	0.525
383.72	0.525
384.18	0.518
384.64	0.522
385.10	0.521
385.56	0.513
386.03	0.514
386.49	0.515
386.95	0.512
387.41	0.512
387.88	0.507
388.34	0.505
388.80	0.508
389.26	0.504
389.72	0.505
390.19	0.504
390.65	0.497
391.11	0.501
391.57	0.495
392.04	0.496
392.50	0.496
392.96	0.494
393.42	0.491
393.88	0.488
394.34	0.489
394.81	0.485
395.27	0.488
395.73	0.480
396.19	0.481
396.65	0.484
397.12	0.477
397.58	0.483
398.04	0.477
398.50	0.478
398.96	0.481
399.42	0.472
399.89	0.476
400.35	0.475
400.81	0.468
401.27	0.470
401.73	0.466
402.19	0.468
402.65	0.461
403.12	0.459
403.58	0.461
404.04	0.458
404.50	0.457
404.96	0.460
405.42	0.459
405.88	0.456
406.34	0.454
406.81	0.453
407.27	0.449
407.73	0.453
408.19	0.451
408.65	0.449
409.11	0.446
409.57	0.443
410.03	0.443
410.49	0.444
410.96	0.444
411.42	0.438
411.88	0.441
412.34	0.440
412.80	0.439
413.26	0.440
413.72	0.434
414.18	0.434
414.64	0.432
415.10	0.432
415.56	0.429
416.02	0.429
416.48	0.431
416.95	0.427
417.41	0.429
417.87	0.427
418.33	0.421
418.79	0.423
419.25	0.420
419.71	0.419
420.17	0.420
420.63	0.417
421.09	0.421
421.55	0.420
422.01	0.418
422.47	0.413
422.93	0.414
423.39	0.416
423.85	0.413
424.31	0.409
424.77	0.410
425.23	0.413
425.69	0.412
426.15	0.409
426.61	0.406
427.07	0.405
427.53	0.404
427.99	0.402
428.45	0.401
428.91	0.398
429.37	0.399
429.83	0.398
430.29	0.402
430.75	0.402
431.21	0.402
431.67	0.397
432.13	0.392
432.59	0.385
433.05	0.392
433.51	0.391
433.97	0.389
434.43	0.392
434.89	0.384
435.35	0.386
435.81	0.384
436.27	0.382
436.73	0.380
437.19	0.382
437.65	0.385
438.11	0.381
438.57	0.380
439.03	0.371
439.48	0.378
439.94	0.377
440.40	0.376
440.86	0.373
441.32	0.371
441.78	0.369
442.24	0.370
442.70	0.367
443.16	0.369
443.62	0.365
444.08	0.363
444.54	0.366
444.99	0.368
445.45	0.364
445.91	0.360
446.37	0.363
446.83	0.362
447.29	0.359
447.75	0.359
448.21	0.361
448.67	0.359
449.12	0.355
449.58	0.355
450.04	0.354
450.50	0.351
450.96	0.351
451.42	0.351
451.88	0.353
452.34	0.349
452.79	0.348
453.25	0.353
453.71	0.350
454.17	0.347
454.63	0.347
455.09	0.346
455.55	0.344
456.00	0.344
456.46	0.344
456.92	0.337
457.38	0.338
457.84	0.340
458.30	0.339
458.75	0.336
459.21	0.335
459.67	0.340
460.13	0.332
460.59	0.332
461.04	0.335
461.50	0.334
461.96	0.334
462.42	0.331
462.88	0.332
463.33	0.332
463.79	0.332
464.25	0.330
464.71	0.329
465.17	0.330
465.62	0.327
466.08	0.331
466.54	0.326
467.00	0.326
467.46	0.324
467.91	0.325
468.37	0.324
468.83	0.323
469.29	0.323
469.74	0.324
470.20	0.322
470.66	0.322
471.12	0.322
471.57	0.319
472.03	0.318
472.49	0.319
472.95	0.317
473.40	0.313
473.86	0.313
474.32	0.315
474.78	0.315
475.23	0.311
475.69	0.314
476.15	0.313
476.60	0.310
477.06	0.308
477.52	0.308
477.98	0.309
478.43	0.307
478.89	0.307
479.35	0.306
479.80	0.306
480.26	0.306
480.72	0.308
481.18	0.305
481.63	0.304
482.09	0.300
482.55	0.304
483.00	0.301
483.46	0.300
483.92	0.301
484.37	0.300
484.83	0.296
485.29	0.299
485.74	0.297
486.20	0.297
486.66	0.295
487.11	0.296
487.57	0.297
488.03	0.293
488.48	0.296
488.94	0.294
489.40	0.293
489.85	0.293
490.31	0.291
490.77	0.288
491.22	0.292
491.68	0.288
492.13	0.288
492.59	0.289
493.05	0.287
493.50	0.288
493.96	0.288
494.42	0.284
494.87	0.284
495.33	0.286
495.78	0.287
496.24	0.289
496.70	0.282
497.15	0.283
497.61	0.284
498.06	0.281
498.52	0.284
498.98	0.283
499.43	0.281
499.89	0.278
500.34	0.280
500.80	0.280
501.25	0.280
501.71	0.277
502.17	0.278
502.62	0.279
503.08	0.276
503.53	0.278
503.99	0.273
504.44	0.275
504.90	0.274
505.36	0.273
505.81	0.273
506.27	0.275
506.72	0.274
507.18	0.273
507.63	0.271
508.09	0.271
508.54	0.271
509.00	0.270
509.45	0.271
509.91	0.271
510.36	0.267
510.82	0.270
511.27	0.271
511.73	0.270
512.19	0.267
512.64	0.268
513.10	0.268
513.55	0.264
514.01	0.265
514.46	0.265
514.92	0.262
515.37	0.264
515.83	0.263
516.28	0.259
516.73	0.259
517.19	0.259
517.64	0.261
518.10	0.259
518.55	0.257
519.01	0.257
519.46	0.257
519.92	0.258
520.37	0.255
520.83	0.258
521.28	0.257
521.74	0.256
522.19	0.254
522.65	0.255
523.10	0.254
523.55	0.257
524.01	0.255
524.46	0.256
524.92	0.253
525.37	0.256
525.83	0.253
526.28	0.250
526.73	0.252
527.19	0.252
527.64	0.251
528.10	0.250
528.55	0.250
529.01	0.249
529.46	0.250
529.91	0.248
530.37	0.248
530.82	0.247
531.28	0.244
531.73	0.246
532.18	0.246
532.64	0.246
533.09	0.245
533.54	0.246
534.00	0.246
534.45	0.243
534.91	0.243
535.36	0.243
535.81	0.241
536.27	0.242
536.72	0.243
537.17	0.240
537.63	0.241
538.08	0.241
538.54	0.241
538.99	0.240
539.44	0.241
539.90	0.238
540.35	0.239
540.80	0.240
541.26	0.237
541.71	0.233
542.16	0.236
542.62	0.237
543.07	0.235
543.52	0.233
543.98	0.234
544.43	0.234
544.88	0.233
545.34	0.233
545.79	0.233
546.24	0.233
546.69	0.233
547.15	0.233
547.60	0.232
548.05	0.233
548.51	0.232
548.96	0.231
549.41	0.233
549.86	0.229
550.32	0.231
550.77	0.231
551.22	0.232
551.68	0.228
552.13	0.227
552.58	0.228
553.03	0.230
553.49	0.229
553.94	0.227
554.39	0.229
554.84	0.225
555.30	0.226
555.75	0.226
556.20	0.223
556.65	0.226
557.11	0.223
557.56	0.226
558.01	0.224
558.46	0.223
558.92	0.225
559.37	0.224
559.82	0.221
560.27	0.219
560.72	0.221
561.18	0.222
561.63	0.220
562.08	0.220
562.53	0.219
562.99	0.221
563.44	0.219
563.89	0.219
564.34	0.218
564.79	0.219
565.25	0.219
565.70	0.220
566.15	0.219
566.60	0.214
567.05	0.218
567.50	0.218
567.96	0.215
568.41	0.216
568.86	0.216
569.31	0.215
569.76	0.215
570.21	0.215
570.67	0.214
571.12	0.213
571.57	0.212
572.02	0.212
572.47	0.211
572.92	0.211
573.37	0.210
573.83	0.210
574.28	0.209
574.73	0.208
575.18	0.209
575.63	0.210
576.08	0.207
576.53	0.209
576.98	0.209
577.44	0.207
577.89	0.207
578.34	0.208
578.79	0.207
579.24	0.205
579.69	0.205
580.14	0.205
580.59	0.204
581.04	0.206
581.49	0.205
581.95	0.203
582.40	0.204
582.85	0.203
583.30	0.203
583.75	0.204
584.20	0.205
584.65	0.202
585.10	0.203
585.55	0.201
586.00	0.201
586.45	0.202
586.90	0.202
587.35	0.200
587.80	0.200
588.25	0.200
588.71	0.201
589.16	0.202
589.61	0.201
590.06	0.199
590.51	0.202
590.96	0.198
591.41	0.200
591.86	0.199
592.31	0.199
592.76	0.196
593.21	0.195
593.66	0.198
594.11	0.197
594.56	0.197
595.01	0.197
595.46	0.197
595.91	0.197
596.36	0.196
596.81	0.196
597.26	0.197
597.71	0.196
598.16	0.195
598.61	0.194
599.06	0.195
599.51	0.193
599.96	0.194
600.41	0.193
600.86	0.193
601.31	0.194
601.76	0.191
602.21	0.193
602.65	0.192
603.10	0.193
603.55	0.192
604.00	0.193
604.45	0.192
604.90	0.193
605.35	0.191
605.80	0.192
606.25	0.193
606.70	0.191
607.15	0.189
607.60	0.186
608.05	0.188
608.50	0.187
608.95	0.189
609.39	0.188
609.84	0.187
610.29	0.189
610.74	0.188
611.19	0.186
611.64	0.187
612.09	0.186
612.54	0.187
612.99	0.187
613.44	0.185
613.88	0.184
614.33	0.183
614.78	0.183
615.23	0.185
615.68	0.184
616.13	0.184
616.58	0.184
617.03	0.181
617.47	0.184
617.92	0.183
618.37	0.182
618.82	0.180
619.27	0.182
619.72	0.180
620.17	0.180
620.61	0.181
621.06	0.180
621.51	0.181
621.96	0.180
622.41	0.179
622.86	0.178
623.30	0.182
623.75	0.181
624.20	0.181
624.65	0.180
625.10	0.180
625.54	0.178
625.99	0.178
626.44	0.178
626.89	0.176
627.34	0.178
627.78	0.177
628.23	0.179
628.68	0.177
629.13	0.176
629.58	0.175
630.02	0.177
630.47	0.176
630.92	0.175
631.37	0.176
631.81	0.176
632.26	0.174
632.71	0.173
633.16	0.175
633.61	0.176
634.05	0.175
634.50	0.173
634.95	0.177
635.40	0.174
635.84	0.173
636.29	0.173
636.74	0.174
637.18	0.173
637.63	0.172
638.08	0.175
638.53	0.174
638.97	0.171
639.42	0.173
639.87	0.172
640.32	0.172
640.76	0.172
641.21	0.171
641.66	0.169
642.10	0.169
642.55	0.170
643.00	0.170
643.44	0.171
643.89	0.170
644.34	0.171
644.79	0.170
645.23	0.169
645.68	0.168
646.13	0.169
646.57	0.169
647.02	0.168
647.47	0.168
647.91	0.169
648.36	0.170
648.81	0.169
649.25	0.167
649.70	0.168
650.15	0.166
650.59	0.167
651.04	0.165
651.48	0.167
651.93	0.167
652.38	0.168
652.82	0.165
653.27	0.164
653.72	0.166
654.16	0.167
654.61	0.166
655.06	0.167
655.50	0.163
655.95	0.163
656.39	0.163
656.84	0.166
657.29	0.165
657.73	0.163
658.18	0.166
658.62	0.166
659.07	0.165
659.52	0.163
659.96	0.163
660.41	0.163
660.85	0.161
661.30	0.160
661.74	0.164
662.19	0.160
662.64	0.161
663.08	0.162
663.53	0.163
663.97	0.162
664.42	0.161
664.86	0.161
665.31	0.162
665.75	0.160
666.20	0.161
666.65	0.161
667.09	0.161
667.54	0.158
667.98	0.160
668.43	0.158
668.87	0.160
669.32	0.158
669.76	0.158
670.21	0.158
670.65	0.159
671.10	0.158
671.54	0.159
671.99	0.159
672.43	0.159
672.88	0.156
673.32	0.158
673.77	0.157
674.21	0.155
674.66	0.157
675.10	0.155
675.55	0.155
675.99	0.156
676.44	0.155
676.88	0.155
677.33	0.156
677.77	0.154
678.22	0.153
678.66	0.155
679.11	0.154
679.55	0.154
679.99	0.154
680.44	0.154
680.88	0.154
681.33	0.151
681.77	0.153
682.22	0.151
682.66	0.153
683.11	0.150
683.55	0.151
683.99	0.150
684.44	0.151
684.88	0.149
685.33	0.151
685.77	0.150
686.21	0.149
686.66	0.148
687.10	0.146
687.55	0.148
687.99	0.151
688.44	0.150
688.88	0.149
689.32	0.149
689.77	0.150
690.21	0.150
690.65	0.146
691.10	0.148
691.54	0.147
691.99	0.148
692.43	0.146
692.87	0.148
693.32	0.147
693.76	0.145
694.20	0.149
694.65	0.145
695.09	0.145
695.53	0.147
695.98	0.145
696.42	0.144
696.86	0.142
697.31	0.147
697.75	0.146
698.19	0.143
698.64	0.146
699.08	0.146
699.52	0.144
699.97	0.144
700.41	0.145
700.85	0.144
701.30	0.143
701.74	0.145
702.18	0.143
702.63	0.143
703.07	0.144
703.51	0.144
703.96	0.143
704.40	0.144
704.84	0.143
705.28	0.144
705.73	0.144
706.17	0.142
706.61	0.142
707.06	0.142
707.50	0.142
707.94	0.138
708.38	0.139
708.83	0.142
709.27	0.141
709.71	0.143
710.15	0.143
710.60	0.139
711.04	0.142
711.48	0.141
711.92	0.138
712.37	0.141
712.81	0.139
713.25	0.141
713.69	0.143
714.13	0.142
714.58	0.142
715.02	0.143
715.46	0.136
715.90	0.139
716.35	0.139
716.79	0.142
717.23	0.141
717.67	0.142
718.11	0.142
718.56	0.140
719.00	0.138
719.44	0.139
719.88	0.142
720.32	0.139
720.76	0.140
721.21	0.140
721.65	0.137
722.09	0.138
722.53	0.138
722.97	0.139
723.41	0.139
723.86	0.138
724.30	0.139
724.74	0.139
725.18	0.139
725.62	0.137
726.06	0.138
726.50	0.141
726.95	0.140
727.39	0.140
727.83	0.141
728.27	0.138
728.71	0.137
729.15	0.140
729.59	0.140
730.03	0.142
730.48	0.140
730.92	0.138
731.36	0.140
731.80	0.137
732.24	0.138
732.68	0.138
733.12	0.142
733.56	0.137
734.00	0.142
734.44	0.142
734.89	0.141
735.33	0.140
735.77	0.139
736.21	0.139
736.65	0.139
737.09	0.136
737.53	0.139
737.97	0.140
738.41	0.136
738.85	0.139
739.29	0.137
739.73	0.141
740.17	0.142
740.61	0.139
741.05	0.138
741.49	0.139
741.93	0.136
742.37	0.141
742.81	0.139
743.26	0.137
743.70	0.139
744.14	0.137
744.58	0.139
745.02	0.138
745.46	0.135
745.90	0.137
746.34	0.138
746.78	0.136
747.22	0.137
747.66	0.136
748.10	0.138
748.54	0.138
748.98	0.137
749.42	0.137
749.86	0.136
750.29	0.135
750.73	0.133
751.17	0.134
751.61	0.135
752.05	0.134
752.49	0.136
752.93	0.131
753.37	0.135
753.81	0.137
754.25	0.133
754.69	0.136
755.13	0.132
755.57	0.135
756.01	0.134
756.45	0.131
756.89	0.133
757.33	0.137
757.77	0.132
758.21	0.133
758.64	0.135
759.08	0.131
759.52	0.134
759.96	0.133
760.40	0.133
760.84	0.133
761.28	0.130
761.72	0.133
762.16	0.133
762.60	0.132
763.03	0.129
763.47	0.132
763.91	0.128
764.35	0.127
764.79	0.130
765.23	0.133
765.67	0.129
766.11	0.129
766.54	0.131
766.98	0.132
767.42	0.128
767.86	0.130
768.30	0.134
768.74	0.131
769.17	0.131
769.61	0.131
770.05	0.131
770.49	0.132
770.93	0.129
771.37	0.126
771.80	0.130
772.24	0.129
772.68	0.131
773.12	0.131
773.56	0.127
774.00	0.130
774.43	0.130
774.87	0.127
775.31	0.130
775.75	0.126
776.19	0.128
776.62	0.129
777.06	0.129
777.50	0.128
777.94	0.129
778.37	0.129
778.81	0.126
779.25	0.129
779.69	0.127
780.13	0.128
780.56	0.128
781.00	0.127
781.44	0.128
781.88	0.126
782.31	0.126
782.75	0.128
783.19	0.124
783.63	0.124
784.06	0.126
784.50	0.123
784.94	0.126
785.37	0.123
785.81	0.124
786.25	0.123
786.69	0.124
787.12	0.126
787.56	0.123
788.00	0.124
788.43	0.126
788.87	0.124
789.31	0.126
789.75	0.127
790.18	0.125
790.62	0.127
791.06	0.123
791.49	0.121
791.93	0.122
792.37	0.124
792.80	0.120
793.24	0.119
793.68	0.126
794.11	0.124
794.55	0.123
794.99	0.122
795.42	0.122
795.86	0.123
796.30	0.122
796.73	0.121
797.17	0.126
797.61	0.119
798.04	0.119
798.48	0.121
798.91	0.118
799.35	0.121
799.79	0.116
800.22	0.125
800.66	0.123
801.10	0.121
801.53	0.125
801.97	0.121
802.40	0.117
802.84	0.119
803.28	0.122
803.71	0.124
804.15	0.119
804.58	0.119
805.02	0.120
805.46	0.121
805.89	0.122
806.33	0.121
806.76	0.119
807.20	0.119
807.63	0.122
808.07	0.121
808.51	0.120
808.94	0.123
809.38	0.121
809.81	0.119
810.25	0.117
810.68	0.117
811.12	0.120
811.55	0.122
811.99	0.119
812.42	0.121
812.86	0.119
813.29	0.117
813.73	0.117
814.17	0.122
814.60	0.114
815.04	0.120
815.47	0.118
815.91	0.125
816.34	0.113
816.78	0.115
