SpectraSuite Data File
++++++++++++++++++++++++++++++++++++
Date: Mon Jul 10 14:39:17 CEST 2017
User: IPCE
Dark Spectrum Present: Yes
Reference Spectrum Present: Yes
Number of Sampled Component Spectra: 1
Spectrometers: HR+C0708
Integration Time (usec): 1000 (HR+C0708)
Spectra Averaged: 10 (HR+C0708)
Boxcar Smoothing: 0 (HR+C0708)
Correct for Electrical Dark: No (HR+C0708)
Strobe/Lamp Enabled: No (HR+C0708)
Correct for Detector Non-linearity: No (HR+C0708)
Correct for Stray Light: No (HR+C0708)
Number of Pixels in Processed Spectrum: 2048
>>>>>Begin Processed Spectral Data<<<<<
188.76	0.655
189.23	-0.000
189.70	-0.000
190.17	1.160
190.64	0.699
191.12	-0.000
191.59	-0.000
192.06	-0.000
192.53	-0.000
193.01	-0.000
193.48	-0.000
193.95	-0.000
194.42	0.795
194.90	0.580
195.37	-0.000
195.84	-0.000
196.31	-0.000
196.78	-0.000
197.26	-0.000
197.73	-0.000
198.20	-0.000
198.67	-0.000
199.14	-0.000
199.62	-0.000
200.09	1.865
200.56	1.085
201.03	0.819
201.50	-0.000
201.97	1.133
202.45	0.863
202.92	-0.000
203.39	1.018
203.86	0.972
204.33	0.786
204.80	1.359
205.28	-0.000
205.75	-0.000
206.22	0.831
206.69	0.846
207.16	0.974
207.63	0.866
208.11	0.822
208.58	0.604
209.05	0.728
209.52	0.602
209.99	0.928
210.46	0.691
210.93	1.946
211.41	0.950
211.88	0.659
212.35	0.861
212.82	0.603
213.29	0.914
213.76	1.059
214.23	-0.000
214.70	0.983
215.18	1.257
215.65	0.778
216.12	0.767
216.59	0.675
217.06	0.551
217.53	0.584
218.00	0.710
218.47	0.670
218.94	1.625
219.41	0.623
219.89	1.168
220.36	0.935
220.83	0.901
221.30	0.994
221.77	1.013
222.24	0.658
222.71	1.386
223.18	0.833
223.65	1.057
224.12	1.098
224.59	0.922
225.06	1.158
225.54	1.120
226.01	-0.000
226.48	1.361
226.95	-0.000
227.42	1.421
227.89	1.116
228.36	1.977
228.83	1.347
229.30	1.720
229.77	1.490
230.24	1.928
230.71	2.136
231.18	2.130
231.65	1.714
232.12	2.513
232.59	1.887
233.06	1.806
233.53	1.793
234.00	1.883
234.47	1.888
234.94	2.002
235.41	1.965
235.88	2.122
236.35	2.258
236.82	2.529
237.29	3.820
237.76	2.729
238.23	3.717
238.70	3.056
239.17	2.595
239.64	2.425
240.11	2.163
240.58	2.584
241.05	2.825
241.52	2.573
241.99	2.449
242.46	2.931
242.93	4.480
243.40	2.968
243.87	2.823
244.34	-0.000
244.81	2.659
245.28	2.880
245.75	2.596
246.22	2.733
246.69	2.829
247.16	3.217
247.63	2.857
248.10	-0.000
248.57	2.939
249.04	2.841
249.51	3.348
249.98	2.940
250.45	2.747
250.92	3.578
251.39	4.665
251.85	2.740
252.32	-0.000
252.79	3.758
253.26	2.609
253.73	-0.000
254.20	2.653
254.67	2.726
255.14	2.826
255.61	2.695
256.08	2.841
256.55	2.654
257.02	3.808
257.49	3.422
257.95	2.962
258.42	2.791
258.89	2.889
259.36	3.038
259.83	2.768
260.30	2.726
260.77	3.004
261.24	2.939
261.71	2.909
262.17	2.895
262.64	2.878
263.11	3.147
263.58	3.104
264.05	3.125
264.52	2.778
264.99	2.786
265.46	2.834
265.92	3.133
266.39	2.908
266.86	2.871
267.33	2.766
267.80	2.788
268.27	2.712
268.74	3.015
269.20	2.692
269.67	2.703
270.14	2.813
270.61	2.667
271.08	3.011
271.55	2.995
272.01	2.866
272.48	2.694
272.95	2.560
273.42	2.759
273.89	2.688
274.36	3.019
274.82	2.616
275.29	2.780
275.76	2.685
276.23	2.597
276.70	2.451
277.16	2.691
277.63	2.556
278.10	2.608
278.57	2.694
279.04	2.732
279.50	2.480
279.97	2.468
280.44	2.587
280.91	2.499
281.38	2.468
281.84	2.512
282.31	2.506
282.78	2.477
283.25	2.422
283.72	2.464
284.18	2.444
284.65	2.517
285.12	2.437
285.59	2.534
286.05	2.321
286.52	2.427
286.99	2.411
287.46	2.445
287.92	2.378
288.39	2.340
288.86	2.392
289.33	2.361
289.79	2.389
290.26	2.290
290.73	2.262
291.20	2.345
291.66	2.256
292.13	2.308
292.60	2.297
293.07	2.328
293.53	2.265
294.00	2.302
294.47	2.241
294.93	2.212
295.40	2.228
295.87	2.234
296.34	2.207
296.80	2.238
297.27	2.239
297.74	2.191
298.20	2.233
298.67	2.187
299.14	2.214
299.60	2.158
300.07	2.142
300.54	2.149
301.01	2.168
301.47	2.195
301.94	2.118
302.41	2.150
302.87	2.105
303.34	2.076
303.81	2.002
304.27	2.106
304.74	2.033
305.21	2.037
305.67	2.088
306.14	2.008
306.61	2.051
307.07	2.089
307.54	2.042
308.01	2.038
308.47	2.024
308.94	1.978
309.40	2.068
309.87	1.992
310.34	1.961
310.80	2.028
311.27	2.032
311.74	2.044
312.20	1.990
312.67	2.016
313.13	1.961
313.60	1.955
314.07	1.959
314.53	1.952
315.00	1.935
315.47	1.940
315.93	1.990
316.40	1.960
316.86	1.950
317.33	1.943
317.80	1.917
318.26	1.947
318.73	1.914
319.19	1.902
319.66	1.876
320.13	1.889
320.59	1.854
321.06	1.845
321.52	1.837
321.99	1.846
322.45	1.825
322.92	1.845
323.39	1.800
323.85	1.827
324.32	1.831
324.78	1.847
325.25	1.806
325.71	1.793
326.18	1.759
326.64	1.777
327.11	1.759
327.58	1.765
328.04	1.718
328.51	1.715
328.97	1.719
329.44	1.715
329.90	1.654
330.37	1.694
330.83	1.624
331.30	1.658
331.76	1.668
332.23	1.641
332.69	1.615
333.16	1.605
333.62	1.618
334.09	1.591
334.56	1.547
335.02	1.541
335.49	1.519
335.95	1.515
336.42	1.483
336.88	1.442
337.35	1.423
337.81	1.423
338.28	1.390
338.74	1.369
339.20	1.359
339.67	1.349
340.13	1.312
340.60	1.279
341.06	1.258
341.53	1.235
341.99	1.211
342.46	1.200
342.92	1.172
343.39	1.153
343.85	1.130
344.32	1.108
344.78	1.090
345.25	1.077
345.71	1.037
346.17	1.031
346.64	1.006
347.10	0.982
347.57	0.951
348.03	0.942
348.50	0.914
348.96	0.906
349.43	0.890
349.89	0.871
350.35	0.857
350.82	0.845
351.28	0.825
351.75	0.812
352.21	0.808
352.67	0.792
353.14	0.777
353.60	0.755
354.07	0.758
354.53	0.734
355.00	0.735
355.46	0.724
355.92	0.717
356.39	0.705
356.85	0.692
357.31	0.683
357.78	0.672
358.24	0.672
358.71	0.663
359.17	0.652
359.63	0.649
360.10	0.645
360.56	0.640
361.03	0.632
361.49	0.623
361.95	0.624
362.42	0.619
362.88	0.616
363.34	0.617
363.81	0.612
364.27	0.612
364.73	0.603
365.20	0.604
365.66	0.596
366.12	0.594
366.59	0.591
367.05	0.593
367.51	0.594
367.98	0.585
368.44	0.585
368.90	0.580
369.37	0.578
369.83	0.574
370.29	0.573
370.76	0.569
371.22	0.566
371.68	0.569
372.15	0.566
372.61	0.562
373.07	0.562
373.54	0.557
374.00	0.558
374.46	0.560
374.92	0.557
375.39	0.554
375.85	0.553
376.31	0.546
376.78	0.546
377.24	0.545
377.70	0.538
378.16	0.542
378.63	0.539
379.09	0.538
379.55	0.540
380.01	0.537
380.48	0.532
380.94	0.533
381.40	0.530
381.87	0.531
382.33	0.530
382.79	0.531
383.25	0.523
383.72	0.526
384.18	0.520
384.64	0.517
385.10	0.517
385.56	0.515
386.03	0.514
386.49	0.511
386.95	0.510
387.41	0.508
387.88	0.508
388.34	0.510
388.80	0.506
389.26	0.502
389.72	0.500
390.19	0.502
390.65	0.499
391.11	0.498
391.57	0.497
392.04	0.490
392.50	0.496
392.96	0.491
393.42	0.494
393.88	0.491
394.34	0.488
394.81	0.487
395.27	0.486
395.73	0.483
396.19	0.483
396.65	0.486
397.12	0.479
397.58	0.476
398.04	0.479
398.50	0.476
398.96	0.479
399.42	0.473
399.89	0.474
400.35	0.473
400.81	0.470
401.27	0.468
401.73	0.467
402.19	0.466
402.65	0.467
403.12	0.461
403.58	0.462
404.04	0.461
404.50	0.455
404.96	0.457
405.42	0.458
405.88	0.454
406.34	0.451
406.81	0.452
407.27	0.452
407.73	0.448
408.19	0.448
408.65	0.446
409.11	0.445
409.57	0.443
410.03	0.443
410.49	0.440
410.96	0.438
411.42	0.440
411.88	0.435
412.34	0.438
412.80	0.435
413.26	0.435
413.72	0.435
414.18	0.430
414.64	0.429
415.10	0.430
415.56	0.430
416.02	0.431
416.48	0.431
416.95	0.423
417.41	0.426
417.87	0.423
418.33	0.420
418.79	0.421
419.25	0.419
419.71	0.418
420.17	0.420
420.63	0.420
421.09	0.418
421.55	0.419
422.01	0.415
422.47	0.414
422.93	0.414
423.39	0.414
423.85	0.414
424.31	0.410
424.77	0.409
425.23	0.408
425.69	0.409
426.15	0.408
426.61	0.405
427.07	0.404
427.53	0.403
427.99	0.402
428.45	0.400
428.91	0.400
429.37	0.399
429.83	0.400
430.29	0.398
430.75	0.401
431.21	0.397
431.67	0.395
432.13	0.390
432.59	0.388
433.05	0.390
433.51	0.395
433.97	0.386
434.43	0.389
434.89	0.385
435.35	0.385
435.81	0.383
436.27	0.380
436.73	0.381
437.19	0.381
437.65	0.382
438.11	0.379
438.57	0.378
439.03	0.375
439.48	0.375
439.94	0.373
440.40	0.375
440.86	0.371
441.32	0.371
441.78	0.370
442.24	0.373
442.70	0.365
443.16	0.367
443.62	0.365
444.08	0.364
444.54	0.364
444.99	0.367
445.45	0.363
445.91	0.363
446.37	0.359
446.83	0.359
447.29	0.360
447.75	0.357
448.21	0.357
448.67	0.358
449.12	0.355
449.58	0.352
450.04	0.356
450.50	0.355
450.96	0.349
451.42	0.349
451.88	0.350
452.34	0.352
452.79	0.347
453.25	0.351
453.71	0.349
454.17	0.347
454.63	0.346
455.09	0.345
455.55	0.346
456.00	0.345
456.46	0.341
456.92	0.337
457.38	0.338
457.84	0.339
458.30	0.338
458.75	0.337
459.21	0.335
459.67	0.340
460.13	0.335
460.59	0.332
461.04	0.334
461.50	0.338
461.96	0.333
462.42	0.336
462.88	0.332
463.33	0.331
463.79	0.330
464.25	0.330
464.71	0.327
465.17	0.330
465.62	0.326
466.08	0.328
466.54	0.326
467.00	0.327
467.46	0.326
467.91	0.323
468.37	0.321
468.83	0.322
469.29	0.323
469.74	0.323
470.20	0.318
470.66	0.319
471.12	0.319
471.57	0.317
472.03	0.316
472.49	0.318
472.95	0.313
473.40	0.313
473.86	0.314
474.32	0.314
474.78	0.313
475.23	0.312
475.69	0.313
476.15	0.308
476.60	0.313
477.06	0.309
477.52	0.307
477.98	0.307
478.43	0.310
478.89	0.307
479.35	0.304
479.80	0.305
480.26	0.305
480.72	0.306
481.18	0.303
481.63	0.302
482.09	0.302
482.55	0.302
483.00	0.301
483.46	0.302
483.92	0.298
484.37	0.300
484.83	0.296
485.29	0.300
485.74	0.299
486.20	0.300
486.66	0.294
487.11	0.297
487.57	0.294
488.03	0.295
488.48	0.295
488.94	0.295
489.40	0.293
489.85	0.293
490.31	0.293
490.77	0.290
491.22	0.289
491.68	0.292
492.13	0.287
492.59	0.290
493.05	0.287
493.50	0.287
493.96	0.288
494.42	0.285
494.87	0.287
495.33	0.287
495.78	0.286
496.24	0.286
496.70	0.284
497.15	0.283
497.61	0.283
498.06	0.283
498.52	0.283
498.98	0.284
499.43	0.282
499.89	0.281
500.34	0.278
500.80	0.279
501.25	0.280
501.71	0.277
502.17	0.278
502.62	0.277
503.08	0.276
503.53	0.276
503.99	0.273
504.44	0.274
504.90	0.274
505.36	0.275
505.81	0.274
506.27	0.275
506.72	0.273
507.18	0.272
507.63	0.273
508.09	0.273
508.54	0.271
509.00	0.270
509.45	0.271
509.91	0.269
510.36	0.267
510.82	0.268
511.27	0.269
511.73	0.268
512.19	0.265
512.64	0.265
513.10	0.264
513.55	0.264
514.01	0.265
514.46	0.263
514.92	0.264
515.37	0.261
515.83	0.261
516.28	0.261
516.73	0.261
517.19	0.258
517.64	0.261
518.10	0.260
518.55	0.259
519.01	0.256
519.46	0.256
519.92	0.259
520.37	0.257
520.83	0.259
521.28	0.257
521.74	0.256
522.19	0.253
522.65	0.251
523.10	0.255
523.55	0.254
524.01	0.253
524.46	0.255
524.92	0.255
525.37	0.255
525.83	0.253
526.28	0.251
526.73	0.251
527.19	0.250
527.64	0.251
528.10	0.247
528.55	0.248
529.01	0.250
529.46	0.248
529.91	0.247
530.37	0.248
530.82	0.245
531.28	0.244
531.73	0.245
532.18	0.246
532.64	0.245
533.09	0.246
533.54	0.244
534.00	0.242
534.45	0.243
534.91	0.244
535.36	0.242
535.81	0.241
536.27	0.242
536.72	0.240
537.17	0.239
537.63	0.242
538.08	0.240
538.54	0.238
538.99	0.241
539.44	0.241
539.90	0.239
540.35	0.239
540.80	0.238
541.26	0.237
541.71	0.235
542.16	0.236
542.62	0.237
543.07	0.238
543.52	0.234
543.98	0.235
544.43	0.234
544.88	0.235
545.34	0.234
545.79	0.233
546.24	0.233
546.69	0.232
547.15	0.232
547.60	0.233
548.05	0.234
548.51	0.231
548.96	0.231
549.41	0.232
549.86	0.229
550.32	0.232
550.77	0.230
551.22	0.230
551.68	0.228
552.13	0.228
552.58	0.227
553.03	0.229
553.49	0.229
553.94	0.228
554.39	0.227
554.84	0.226
555.30	0.227
555.75	0.223
556.20	0.225
556.65	0.227
557.11	0.224
557.56	0.226
558.01	0.225
558.46	0.225
558.92	0.228
559.37	0.225
559.82	0.222
560.27	0.221
560.72	0.222
561.18	0.223
561.63	0.222
562.08	0.221
562.53	0.220
562.99	0.221
563.44	0.221
563.89	0.218
564.34	0.220
564.79	0.218
565.25	0.218
565.70	0.221
566.15	0.218
566.60	0.215
567.05	0.218
567.50	0.219
567.96	0.217
568.41	0.215
568.86	0.217
569.31	0.215
569.76	0.214
570.21	0.214
570.67	0.213
571.12	0.215
571.57	0.213
572.02	0.214
572.47	0.212
572.92	0.213
573.37	0.211
573.83	0.211
574.28	0.210
574.73	0.210
575.18	0.209
575.63	0.209
576.08	0.210
576.53	0.208
576.98	0.211
577.44	0.209
577.89	0.210
578.34	0.209
578.79	0.209
579.24	0.208
579.69	0.208
580.14	0.208
580.59	0.206
581.04	0.206
581.49	0.206
581.95	0.204
582.40	0.206
582.85	0.205
583.30	0.204
583.75	0.204
584.20	0.205
584.65	0.204
585.10	0.202
585.55	0.202
586.00	0.203
586.45	0.202
586.90	0.203
587.35	0.202
587.80	0.203
588.25	0.201
588.71	0.202
589.16	0.203
589.61	0.202
590.06	0.202
590.51	0.202
590.96	0.199
591.41	0.200
591.86	0.198
592.31	0.199
592.76	0.200
593.21	0.196
593.66	0.199
594.11	0.197
594.56	0.201
595.01	0.200
595.46	0.196
595.91	0.199
596.36	0.197
596.81	0.196
597.26	0.199
597.71	0.198
598.16	0.197
598.61	0.196
599.06	0.197
599.51	0.196
599.96	0.196
600.41	0.196
600.86	0.198
601.31	0.196
601.76	0.194
602.21	0.194
602.65	0.193
603.10	0.193
603.55	0.197
604.00	0.193
604.45	0.193
604.90	0.195
605.35	0.194
605.80	0.194
606.25	0.192
606.70	0.195
607.15	0.193
607.60	0.190
608.05	0.192
608.50	0.192
608.95	0.191
609.39	0.191
609.84	0.190
610.29	0.191
610.74	0.189
611.19	0.193
611.64	0.190
612.09	0.187
612.54	0.189
612.99	0.188
613.44	0.189
613.88	0.188
614.33	0.186
614.78	0.186
615.23	0.188
615.68	0.187
616.13	0.188
616.58	0.189
617.03	0.186
617.47	0.188
617.92	0.185
618.37	0.185
618.82	0.183
619.27	0.184
619.72	0.185
620.17	0.183
620.61	0.183
621.06	0.184
621.51	0.184
621.96	0.182
622.41	0.183
622.86	0.183
623.30	0.185
623.75	0.185
624.20	0.183
624.65	0.182
625.10	0.182
625.54	0.180
625.99	0.180
626.44	0.183
626.89	0.181
627.34	0.180
627.78	0.182
628.23	0.180
628.68	0.178
629.13	0.180
629.58	0.178
630.02	0.179
630.47	0.179
630.92	0.181
631.37	0.180
631.81	0.179
632.26	0.180
632.71	0.177
633.16	0.178
633.61	0.178
634.05	0.178
634.50	0.177
634.95	0.179
635.40	0.179
635.84	0.178
636.29	0.177
636.74	0.179
637.18	0.176
637.63	0.175
638.08	0.179
638.53	0.176
638.97	0.175
639.42	0.177
639.87	0.177
640.32	0.176
640.76	0.175
641.21	0.177
641.66	0.173
642.10	0.174
642.55	0.175
643.00	0.175
643.44	0.174
643.89	0.175
644.34	0.172
644.79	0.175
645.23	0.173
645.68	0.174
646.13	0.173
646.57	0.172
647.02	0.173
647.47	0.173
647.91	0.173
648.36	0.173
648.81	0.174
649.25	0.172
649.70	0.172
650.15	0.172
650.59	0.172
651.04	0.171
651.48	0.172
651.93	0.172
652.38	0.170
652.82	0.169
653.27	0.169
653.72	0.171
654.16	0.170
654.61	0.172
655.06	0.171
655.50	0.168
655.95	0.167
656.39	0.170
656.84	0.170
657.29	0.170
657.73	0.169
658.18	0.171
658.62	0.170
659.07	0.170
659.52	0.169
659.96	0.171
660.41	0.170
660.85	0.167
661.30	0.166
661.74	0.169
662.19	0.167
662.64	0.168
663.08	0.168
663.53	0.168
663.97	0.168
664.42	0.165
664.86	0.166
665.31	0.167
665.75	0.165
666.20	0.167
666.65	0.169
667.09	0.165
667.54	0.164
667.98	0.163
668.43	0.162
668.87	0.164
669.32	0.165
669.76	0.164
670.21	0.164
670.65	0.164
671.10	0.163
671.54	0.165
671.99	0.165
672.43	0.159
672.88	0.163
673.32	0.161
673.77	0.161
674.21	0.161
674.66	0.160
675.10	0.160
675.55	0.158
675.99	0.158
676.44	0.158
676.88	0.160
677.33	0.158
677.77	0.157
678.22	0.157
678.66	0.156
679.11	0.157
679.55	0.157
679.99	0.156
680.44	0.160
680.88	0.157
681.33	0.154
681.77	0.156
682.22	0.153
682.66	0.154
683.11	0.153
683.55	0.152
683.99	0.152
684.44	0.153
684.88	0.153
685.33	0.151
685.77	0.152
686.21	0.152
686.66	0.152
687.10	0.148
687.55	0.150
687.99	0.151
688.44	0.151
688.88	0.149
689.32	0.147
689.77	0.149
690.21	0.151
690.65	0.148
691.10	0.148
691.54	0.149
691.99	0.148
692.43	0.147
692.87	0.148
693.32	0.147
693.76	0.145
694.20	0.148
694.65	0.145
695.09	0.145
695.53	0.147
695.98	0.146
696.42	0.147
696.86	0.146
697.31	0.148
697.75	0.146
698.19	0.146
698.64	0.145
699.08	0.145
699.52	0.146
699.97	0.145
700.41	0.144
700.85	0.145
701.30	0.145
701.74	0.145
702.18	0.145
702.63	0.144
703.07	0.144
703.51	0.146
703.96	0.141
704.40	0.143
704.84	0.143
705.28	0.144
705.73	0.143
706.17	0.141
706.61	0.142
707.06	0.143
707.50	0.143
707.94	0.139
708.38	0.140
708.83	0.141
709.27	0.143
709.71	0.141
710.15	0.141
710.60	0.141
711.04	0.141
711.48	0.139
711.92	0.140
712.37	0.141
712.81	0.141
713.25	0.141
713.69	0.142
714.13	0.141
714.58	0.140
715.02	0.141
715.46	0.141
715.90	0.139
716.35	0.139
716.79	0.138
717.23	0.142
717.67	0.140
718.11	0.142
718.56	0.138
719.00	0.140
719.44	0.140
719.88	0.140
720.32	0.139
720.76	0.140
721.21	0.139
721.65	0.138
722.09	0.138
722.53	0.138
722.97	0.139
723.41	0.138
723.86	0.138
724.30	0.139
724.74	0.139
725.18	0.137
725.62	0.137
726.06	0.137
726.50	0.139
726.95	0.139
727.39	0.140
727.83	0.139
728.27	0.138
728.71	0.135
729.15	0.139
729.59	0.139
730.03	0.139
730.48	0.139
730.92	0.139
731.36	0.137
731.80	0.135
732.24	0.134
732.68	0.139
733.12	0.141
733.56	0.138
734.00	0.139
734.44	0.139
734.89	0.139
735.33	0.138
735.77	0.140
736.21	0.140
736.65	0.138
737.09	0.138
737.53	0.139
737.97	0.135
738.41	0.138
738.85	0.140
739.29	0.137
739.73	0.139
740.17	0.137
740.61	0.138
741.05	0.138
741.49	0.137
741.93	0.134
742.37	0.138
742.81	0.137
743.26	0.137
743.70	0.134
744.14	0.138
744.58	0.138
745.02	0.135
745.46	0.137
745.90	0.137
746.34	0.138
746.78	0.135
747.22	0.134
747.66	0.136
748.10	0.136
748.54	0.137
748.98	0.135
749.42	0.136
749.86	0.136
750.29	0.131
750.73	0.134
751.17	0.134
751.61	0.135
752.05	0.136
752.49	0.137
752.93	0.132
753.37	0.135
753.81	0.135
754.25	0.133
754.69	0.138
755.13	0.132
755.57	0.136
756.01	0.132
756.45	0.133
756.89	0.131
757.33	0.136
757.77	0.133
758.21	0.132
758.64	0.135
759.08	0.130
759.52	0.130
759.96	0.131
760.40	0.133
760.84	0.132
761.28	0.129
761.72	0.131
762.16	0.131
762.60	0.129
763.03	0.129
763.47	0.131
763.91	0.131
764.35	0.129
764.79	0.130
765.23	0.136
765.67	0.128
766.11	0.130
766.54	0.132
766.98	0.133
767.42	0.130
767.86	0.132
768.30	0.131
768.74	0.128
769.17	0.128
769.61	0.128
770.05	0.131
770.49	0.131
770.93	0.128
771.37	0.130
771.80	0.127
772.24	0.128
772.68	0.130
773.12	0.133
773.56	0.128
774.00	0.128
774.43	0.129
774.87	0.126
775.31	0.128
775.75	0.130
776.19	0.128
776.62	0.128
777.06	0.129
777.50	0.129
777.94	0.126
778.37	0.129
778.81	0.126
779.25	0.129
779.69	0.126
780.13	0.128
780.56	0.126
781.00	0.130
781.44	0.127
781.88	0.125
782.31	0.124
782.75	0.125
783.19	0.126
783.63	0.126
784.06	0.127
784.50	0.124
784.94	0.125
785.37	0.124
785.81	0.129
786.25	0.121
786.69	0.124
787.12	0.124
787.56	0.123
788.00	0.127
788.43	0.126
788.87	0.127
789.31	0.123
789.75	0.123
790.18	0.125
790.62	0.123
791.06	0.124
791.49	0.124
791.93	0.125
792.37	0.124
792.80	0.123
793.24	0.121
793.68	0.126
794.11	0.123
794.55	0.123
794.99	0.121
795.42	0.121
795.86	0.121
796.30	0.119
796.73	0.122
797.17	0.126
797.61	0.120
798.04	0.120
798.48	0.119
798.91	0.120
799.35	0.124
799.79	0.118
800.22	0.119
800.66	0.120
801.10	0.121
801.53	0.125
801.97	0.121
802.40	0.118
802.84	0.122
803.28	0.121
803.71	0.118
804.15	0.121
804.58	0.119
805.02	0.118
805.46	0.121
805.89	0.121
806.33	0.120
806.76	0.119
807.20	0.119
807.63	0.122
808.07	0.120
808.51	0.117
808.94	0.120
809.38	0.120
809.81	0.117
810.25	0.122
810.68	0.117
811.12	0.122
811.55	0.121
811.99	0.120
812.42	0.118
812.86	0.118
813.29	0.116
813.73	0.117
814.17	0.122
814.60	0.117
815.04	0.119
815.47	0.118
815.91	0.118
816.34	0.116
816.78	0.115
817.21	0.115
