SpectraSuite Data File
++++++++++++++++++++++++++++++++++++
Date: Mon Jul 10 14:33:47 CEST 2017
User: IPCE
Dark Spectrum Present: Yes
Reference Spectrum Present: Yes
Number of Sampled Component Spectra: 1
Spectrometers: HR+C0708
Integration Time (usec): 1000 (HR+C0708)
Spectra Averaged: 10 (HR+C0708)
Boxcar Smoothing: 0 (HR+C0708)
Correct for Electrical Dark: No (HR+C0708)
Strobe/Lamp Enabled: No (HR+C0708)
Correct for Detector Non-linearity: No (HR+C0708)
Correct for Stray Light: No (HR+C0708)
Number of Pixels in Processed Spectrum: 2048
>>>>>Begin Processed Spectral Data<<<<<
188.76	0.684
189.23	-0.000
189.70	-0.000
190.17	1.122
190.64	-0.000
191.12	0.490
191.59	-0.000
192.06	-0.000
192.53	-0.000
193.01	-0.000
193.48	-0.000
193.95	-0.000
194.42	1.326
194.90	-0.000
195.37	-0.000
195.84	-0.000
196.31	-0.000
196.78	-0.000
197.26	0.389
197.73	-0.000
198.20	-0.000
198.67	-0.000
199.14	-0.000
199.62	-0.000
200.09	-0.000
200.56	2.562
201.03	-0.000
201.50	2.248
201.97	0.860
202.45	1.193
202.92	0.854
203.39	1.352
203.86	0.761
204.33	0.717
204.80	1.234
205.28	-0.000
205.75	1.166
206.22	1.816
206.69	1.000
207.16	1.116
207.63	1.177
208.11	0.689
208.58	0.728
209.05	0.496
209.52	0.748
209.99	1.472
210.46	0.403
210.93	0.777
211.41	0.798
211.88	0.761
212.35	0.882
212.82	0.805
213.29	0.689
213.76	1.048
214.23	1.284
214.70	0.810
215.18	1.521
215.65	0.724
216.12	0.751
216.59	0.929
217.06	0.524
217.53	1.003
218.00	0.650
218.47	0.635
218.94	-0.000
219.41	0.961
219.89	1.618
220.36	0.729
220.83	0.621
221.30	-0.000
221.77	1.358
222.24	1.121
222.71	1.386
223.18	0.916
223.65	0.801
224.12	1.004
224.59	1.362
225.06	0.985
225.54	1.951
226.01	1.472
226.48	1.652
226.95	-0.000
227.42	1.242
227.89	1.835
228.36	-0.000
228.83	1.177
229.30	1.837
229.77	1.726
230.24	-0.000
230.71	1.786
231.18	1.618
231.65	2.015
232.12	1.841
232.59	1.939
233.06	2.283
233.53	1.722
234.00	1.990
234.47	2.122
234.94	2.874
235.41	2.026
235.88	2.202
236.35	1.957
236.82	2.086
237.29	3.820
237.76	2.642
238.23	-0.000
238.70	-0.000
239.17	2.364
239.64	2.587
240.11	2.623
240.58	2.542
241.05	2.568
241.52	2.374
241.99	2.356
242.46	2.617
242.93	2.781
243.40	2.700
243.87	2.978
244.34	3.415
244.81	2.469
245.28	2.898
245.75	2.465
246.22	2.797
246.69	2.994
247.16	3.314
247.63	4.019
248.10	2.973
248.57	2.805
249.04	2.712
249.51	2.624
249.98	2.799
250.45	2.768
250.92	2.901
251.39	-0.000
251.85	2.735
252.32	2.931
252.79	3.093
253.26	2.591
253.73	2.679
254.20	2.550
254.67	2.604
255.14	3.155
255.61	2.808
256.08	2.753
256.55	2.800
257.02	3.229
257.49	2.906
257.95	3.758
258.42	2.664
258.89	2.727
259.36	3.466
259.83	2.781
260.30	2.913
260.77	2.987
261.24	2.810
261.71	2.863
262.17	2.828
262.64	3.001
263.11	3.098
263.58	3.234
264.05	2.824
264.52	3.150
264.99	2.851
265.46	2.954
265.92	2.808
266.39	2.793
266.86	2.993
267.33	2.689
267.80	2.601
268.27	2.826
268.74	2.936
269.20	2.861
269.67	2.877
270.14	2.728
270.61	2.965
271.08	2.799
271.55	2.806
272.01	2.755
272.48	2.798
272.95	2.696
273.42	2.899
273.89	2.548
274.36	2.834
274.82	2.578
275.29	2.667
275.76	2.628
276.23	2.612
276.70	2.457
277.16	2.654
277.63	2.649
278.10	2.543
278.57	2.650
279.04	2.637
279.50	2.426
279.97	2.473
280.44	2.404
280.91	2.649
281.38	2.586
281.84	2.476
282.31	2.602
282.78	2.498
283.25	2.396
283.72	2.494
284.18	2.489
284.65	2.526
285.12	2.382
285.59	2.544
286.05	2.374
286.52	2.401
286.99	2.525
287.46	2.415
287.92	2.367
288.39	2.386
288.86	2.418
289.33	2.380
289.79	2.404
290.26	2.345
290.73	2.312
291.20	2.374
291.66	2.316
292.13	2.233
292.60	2.312
293.07	2.309
293.53	2.270
294.00	2.261
294.47	2.207
294.93	2.313
295.40	2.315
295.87	2.227
296.34	2.233
296.80	2.263
297.27	2.200
297.74	2.228
298.20	2.212
298.67	2.165
299.14	2.278
299.60	2.192
300.07	2.178
300.54	2.201
301.01	2.183
301.47	2.189
301.94	2.193
302.41	2.145
302.87	2.149
303.34	2.097
303.81	2.047
304.27	2.144
304.74	2.061
305.21	2.050
305.67	2.142
306.14	2.031
306.61	2.070
307.07	2.086
307.54	2.021
308.01	2.103
308.47	2.079
308.94	2.022
309.40	2.080
309.87	2.020
310.34	1.984
310.80	1.994
311.27	2.012
311.74	2.008
312.20	1.986
312.67	2.017
313.13	2.051
313.60	2.037
314.07	2.009
314.53	1.983
315.00	1.982
315.47	1.949
315.93	1.975
316.40	1.961
316.86	1.961
317.33	1.971
317.80	1.943
318.26	1.951
318.73	1.983
319.19	1.945
319.66	1.949
320.13	1.948
320.59	1.884
321.06	1.880
321.52	1.913
321.99	1.860
322.45	1.865
322.92	1.846
323.39	1.857
323.85	1.848
324.32	1.869
324.78	1.881
325.25	1.871
325.71	1.819
326.18	1.813
326.64	1.829
327.11	1.777
327.58	1.811
328.04	1.721
328.51	1.717
328.97	1.731
329.44	1.710
329.90	1.736
330.37	1.732
330.83	1.660
331.30	1.692
331.76	1.686
332.23	1.676
332.69	1.659
333.16	1.640
333.62	1.645
334.09	1.624
334.56	1.570
335.02	1.566
335.49	1.547
335.95	1.525
336.42	1.504
336.88	1.481
337.35	1.461
337.81	1.442
338.28	1.414
338.74	1.389
339.20	1.389
339.67	1.358
340.13	1.332
340.60	1.302
341.06	1.270
341.53	1.246
341.99	1.223
342.46	1.189
342.92	1.182
343.39	1.156
343.85	1.133
344.32	1.104
344.78	1.093
345.25	1.073
345.71	1.041
346.17	1.025
346.64	1.003
347.10	0.977
347.57	0.945
348.03	0.936
348.50	0.916
348.96	0.894
349.43	0.877
349.89	0.858
350.35	0.843
350.82	0.826
351.28	0.814
351.75	0.803
352.21	0.789
352.67	0.765
353.14	0.769
353.60	0.738
354.07	0.742
354.53	0.720
355.00	0.711
355.46	0.697
355.92	0.694
356.39	0.683
356.85	0.674
357.31	0.666
357.78	0.649
358.24	0.650
358.71	0.641
359.17	0.629
359.63	0.626
360.10	0.620
360.56	0.623
361.03	0.612
361.49	0.604
361.95	0.604
362.42	0.599
362.88	0.597
363.34	0.598
363.81	0.589
364.27	0.586
364.73	0.582
365.20	0.578
365.66	0.576
366.12	0.572
366.59	0.569
367.05	0.569
367.51	0.568
367.98	0.560
368.44	0.559
368.90	0.557
369.37	0.556
369.83	0.553
370.29	0.553
370.76	0.547
371.22	0.549
371.68	0.545
372.15	0.546
372.61	0.542
373.07	0.540
373.54	0.538
374.00	0.536
374.46	0.536
374.92	0.534
375.39	0.537
375.85	0.531
376.31	0.525
376.78	0.528
377.24	0.524
377.70	0.525
378.16	0.518
378.63	0.520
379.09	0.520
379.55	0.520
380.01	0.513
380.48	0.515
380.94	0.515
381.40	0.512
381.87	0.511
382.33	0.510
382.79	0.510
383.25	0.503
383.72	0.508
384.18	0.501
384.64	0.501
385.10	0.500
385.56	0.496
386.03	0.495
386.49	0.492
386.95	0.490
387.41	0.491
387.88	0.489
388.34	0.491
388.80	0.482
389.26	0.484
389.72	0.485
390.19	0.482
390.65	0.479
391.11	0.480
391.57	0.476
392.04	0.476
392.50	0.478
392.96	0.476
393.42	0.473
393.88	0.473
394.34	0.471
394.81	0.469
395.27	0.470
395.73	0.460
396.19	0.462
396.65	0.466
397.12	0.462
397.58	0.462
398.04	0.458
398.50	0.460
398.96	0.460
399.42	0.457
399.89	0.456
400.35	0.452
400.81	0.453
401.27	0.453
401.73	0.452
402.19	0.451
402.65	0.448
403.12	0.440
403.58	0.444
404.04	0.441
404.50	0.440
404.96	0.439
405.42	0.440
405.88	0.440
406.34	0.436
406.81	0.436
407.27	0.430
407.73	0.430
408.19	0.431
408.65	0.429
409.11	0.430
409.57	0.431
410.03	0.425
410.49	0.427
410.96	0.424
411.42	0.420
411.88	0.422
412.34	0.426
412.80	0.420
413.26	0.419
413.72	0.423
414.18	0.416
414.64	0.413
415.10	0.412
415.56	0.411
416.02	0.412
416.48	0.414
416.95	0.410
417.41	0.408
417.87	0.407
418.33	0.409
418.79	0.409
419.25	0.406
419.71	0.406
420.17	0.404
420.63	0.399
421.09	0.400
421.55	0.404
422.01	0.400
422.47	0.401
422.93	0.397
423.39	0.399
423.85	0.393
424.31	0.394
424.77	0.398
425.23	0.396
425.69	0.395
426.15	0.395
426.61	0.389
427.07	0.387
427.53	0.389
427.99	0.387
428.45	0.384
428.91	0.383
429.37	0.384
429.83	0.383
430.29	0.383
430.75	0.385
431.21	0.382
431.67	0.378
432.13	0.377
432.59	0.372
433.05	0.373
433.51	0.378
433.97	0.374
434.43	0.378
434.89	0.371
435.35	0.372
435.81	0.369
436.27	0.365
436.73	0.366
437.19	0.367
437.65	0.367
438.11	0.366
438.57	0.364
439.03	0.361
439.48	0.363
439.94	0.363
440.40	0.361
440.86	0.361
441.32	0.361
441.78	0.353
442.24	0.357
442.70	0.351
443.16	0.352
443.62	0.355
444.08	0.351
444.54	0.354
444.99	0.350
445.45	0.351
445.91	0.350
446.37	0.350
446.83	0.345
447.29	0.344
447.75	0.346
448.21	0.346
448.67	0.342
449.12	0.341
449.58	0.342
450.04	0.343
450.50	0.339
450.96	0.337
451.42	0.337
451.88	0.337
452.34	0.336
452.79	0.334
453.25	0.338
453.71	0.333
454.17	0.336
454.63	0.331
455.09	0.332
455.55	0.331
456.00	0.331
456.46	0.325
456.92	0.327
457.38	0.325
457.84	0.326
458.30	0.323
458.75	0.327
459.21	0.323
459.67	0.323
460.13	0.321
460.59	0.322
461.04	0.321
461.50	0.320
461.96	0.319
462.42	0.319
462.88	0.320
463.33	0.317
463.79	0.316
464.25	0.317
464.71	0.317
465.17	0.317
465.62	0.315
466.08	0.317
466.54	0.313
467.00	0.315
467.46	0.315
467.91	0.311
468.37	0.309
468.83	0.311
469.29	0.311
469.74	0.311
470.20	0.307
470.66	0.307
471.12	0.310
471.57	0.307
472.03	0.305
472.49	0.308
472.95	0.300
473.40	0.302
473.86	0.305
474.32	0.301
474.78	0.301
475.23	0.300
475.69	0.302
476.15	0.299
476.60	0.300
477.06	0.298
477.52	0.299
477.98	0.296
478.43	0.295
478.89	0.295
479.35	0.296
479.80	0.293
480.26	0.294
480.72	0.293
481.18	0.293
481.63	0.290
482.09	0.289
482.55	0.292
483.00	0.288
483.46	0.289
483.92	0.288
484.37	0.289
484.83	0.285
485.29	0.287
485.74	0.287
486.20	0.288
486.66	0.286
487.11	0.287
487.57	0.285
488.03	0.284
488.48	0.281
488.94	0.284
489.40	0.283
489.85	0.281
490.31	0.282
490.77	0.278
491.22	0.278
491.68	0.279
492.13	0.278
492.59	0.278
493.05	0.275
493.50	0.276
493.96	0.277
494.42	0.275
494.87	0.277
495.33	0.277
495.78	0.275
496.24	0.274
496.70	0.273
497.15	0.272
497.61	0.271
498.06	0.270
498.52	0.270
498.98	0.270
499.43	0.272
499.89	0.269
500.34	0.269
500.80	0.267
501.25	0.271
501.71	0.267
502.17	0.269
502.62	0.267
503.08	0.266
503.53	0.266
503.99	0.267
504.44	0.266
504.90	0.263
505.36	0.264
505.81	0.262
506.27	0.264
506.72	0.264
507.18	0.264
507.63	0.261
508.09	0.261
508.54	0.260
509.00	0.261
509.45	0.262
509.91	0.260
510.36	0.260
510.82	0.260
511.27	0.256
511.73	0.260
512.19	0.257
512.64	0.258
513.10	0.257
513.55	0.254
514.01	0.254
514.46	0.255
514.92	0.252
515.37	0.250
515.83	0.254
516.28	0.250
516.73	0.251
517.19	0.250
517.64	0.249
518.10	0.252
518.55	0.246
519.01	0.247
519.46	0.249
519.92	0.251
520.37	0.250
520.83	0.249
521.28	0.248
521.74	0.247
522.19	0.246
522.65	0.244
523.10	0.247
523.55	0.245
524.01	0.247
524.46	0.245
524.92	0.244
525.37	0.241
525.83	0.245
526.28	0.243
526.73	0.243
527.19	0.244
527.64	0.240
528.10	0.239
528.55	0.240
529.01	0.241
529.46	0.238
529.91	0.237
530.37	0.239
530.82	0.237
531.28	0.238
531.73	0.239
532.18	0.237
532.64	0.235
533.09	0.235
533.54	0.237
534.00	0.233
534.45	0.235
534.91	0.235
535.36	0.235
535.81	0.234
536.27	0.233
536.72	0.232
537.17	0.228
537.63	0.234
538.08	0.233
538.54	0.232
538.99	0.233
539.44	0.231
539.90	0.230
540.35	0.229
540.80	0.232
541.26	0.230
541.71	0.229
542.16	0.228
542.62	0.230
543.07	0.225
543.52	0.227
543.98	0.229
544.43	0.228
544.88	0.228
545.34	0.226
545.79	0.225
546.24	0.226
546.69	0.225
547.15	0.224
547.60	0.225
548.05	0.226
548.51	0.225
548.96	0.222
549.41	0.223
549.86	0.225
550.32	0.225
550.77	0.222
551.22	0.224
551.68	0.223
552.13	0.223
552.58	0.222
553.03	0.221
553.49	0.219
553.94	0.223
554.39	0.218
554.84	0.219
555.30	0.217
555.75	0.219
556.20	0.217
556.65	0.217
557.11	0.217
557.56	0.218
558.01	0.218
558.46	0.218
558.92	0.219
559.37	0.218
559.82	0.216
560.27	0.216
560.72	0.215
561.18	0.215
561.63	0.213
562.08	0.216
562.53	0.214
562.99	0.214
563.44	0.213
563.89	0.211
564.34	0.211
564.79	0.214
565.25	0.214
565.70	0.214
566.15	0.215
566.60	0.209
567.05	0.213
567.50	0.213
567.96	0.210
568.41	0.211
568.86	0.211
569.31	0.210
569.76	0.211
570.21	0.208
570.67	0.209
571.12	0.208
571.57	0.208
572.02	0.208
572.47	0.208
572.92	0.209
573.37	0.208
573.83	0.204
574.28	0.206
574.73	0.206
575.18	0.206
575.63	0.205
576.08	0.206
576.53	0.204
576.98	0.204
577.44	0.204
577.89	0.204
578.34	0.205
578.79	0.203
579.24	0.202
579.69	0.205
580.14	0.204
580.59	0.203
581.04	0.203
581.49	0.204
581.95	0.202
582.40	0.201
582.85	0.202
583.30	0.202
583.75	0.202
584.20	0.203
584.65	0.200
585.10	0.200
585.55	0.200
586.00	0.201
586.45	0.199
586.90	0.201
587.35	0.198
587.80	0.202
588.25	0.199
588.71	0.198
589.16	0.201
589.61	0.200
590.06	0.201
590.51	0.203
590.96	0.197
591.41	0.198
591.86	0.197
592.31	0.200
592.76	0.197
593.21	0.195
593.66	0.196
594.11	0.197
594.56	0.198
595.01	0.196
595.46	0.198
595.91	0.197
596.36	0.197
596.81	0.197
597.26	0.198
597.71	0.197
598.16	0.196
598.61	0.197
599.06	0.196
599.51	0.196
599.96	0.197
600.41	0.193
600.86	0.198
601.31	0.195
601.76	0.196
602.21	0.195
602.65	0.196
603.10	0.197
603.55	0.196
604.00	0.194
604.45	0.195
604.90	0.194
605.35	0.197
605.80	0.193
606.25	0.196
606.70	0.194
607.15	0.194
607.60	0.192
608.05	0.194
608.50	0.193
608.95	0.193
609.39	0.192
609.84	0.192
610.29	0.192
610.74	0.192
611.19	0.192
611.64	0.191
612.09	0.190
612.54	0.192
612.99	0.190
613.44	0.190
613.88	0.189
614.33	0.189
614.78	0.190
615.23	0.189
615.68	0.190
616.13	0.189
616.58	0.190
617.03	0.189
617.47	0.190
617.92	0.187
618.37	0.188
618.82	0.189
619.27	0.190
619.72	0.189
620.17	0.187
620.61	0.187
621.06	0.187
621.51	0.186
621.96	0.186
622.41	0.185
622.86	0.186
623.30	0.187
623.75	0.188
624.20	0.187
624.65	0.188
625.10	0.184
625.54	0.185
625.99	0.184
626.44	0.187
626.89	0.184
627.34	0.185
627.78	0.184
628.23	0.184
628.68	0.185
629.13	0.183
629.58	0.182
630.02	0.184
630.47	0.185
630.92	0.184
631.37	0.183
631.81	0.183
632.26	0.184
632.71	0.183
633.16	0.183
633.61	0.184
634.05	0.182
634.50	0.182
634.95	0.184
635.40	0.183
635.84	0.182
636.29	0.185
636.74	0.184
637.18	0.182
637.63	0.182
638.08	0.183
638.53	0.184
638.97	0.181
639.42	0.185
639.87	0.182
640.32	0.183
640.76	0.182
641.21	0.184
641.66	0.180
642.10	0.182
642.55	0.182
643.00	0.182
643.44	0.181
643.89	0.182
644.34	0.182
644.79	0.182
645.23	0.182
645.68	0.182
646.13	0.184
646.57	0.181
647.02	0.182
647.47	0.184
647.91	0.184
648.36	0.183
648.81	0.184
649.25	0.182
649.70	0.183
650.15	0.180
650.59	0.182
651.04	0.182
651.48	0.185
651.93	0.183
652.38	0.184
652.82	0.183
653.27	0.181
653.72	0.184
654.16	0.182
654.61	0.183
655.06	0.181
655.50	0.179
655.95	0.180
656.39	0.182
656.84	0.184
657.29	0.182
657.73	0.182
658.18	0.183
658.62	0.183
659.07	0.181
659.52	0.180
659.96	0.182
660.41	0.181
660.85	0.179
661.30	0.182
661.74	0.183
662.19	0.181
662.64	0.181
663.08	0.181
663.53	0.181
663.97	0.180
664.42	0.179
664.86	0.180
665.31	0.180
665.75	0.178
666.20	0.179
666.65	0.180
667.09	0.178
667.54	0.177
667.98	0.177
668.43	0.174
668.87	0.176
669.32	0.177
669.76	0.176
670.21	0.175
670.65	0.176
671.10	0.176
671.54	0.176
671.99	0.174
672.43	0.173
672.88	0.171
673.32	0.172
673.77	0.173
674.21	0.170
674.66	0.172
675.10	0.170
675.55	0.167
675.99	0.167
676.44	0.166
676.88	0.167
677.33	0.164
677.77	0.164
678.22	0.162
678.66	0.164
679.11	0.163
679.55	0.163
679.99	0.162
680.44	0.164
680.88	0.161
681.33	0.158
681.77	0.160
682.22	0.159
682.66	0.159
683.11	0.155
683.55	0.154
683.99	0.153
684.44	0.158
684.88	0.154
685.33	0.153
685.77	0.153
686.21	0.153
686.66	0.150
687.10	0.150
687.55	0.149
687.99	0.152
688.44	0.152
688.88	0.149
689.32	0.148
689.77	0.149
690.21	0.149
690.65	0.147
691.10	0.144
691.54	0.146
691.99	0.148
692.43	0.143
692.87	0.146
693.32	0.145
693.76	0.143
694.20	0.146
694.65	0.143
695.09	0.143
695.53	0.143
695.98	0.144
696.42	0.142
696.86	0.140
697.31	0.142
697.75	0.143
698.19	0.142
698.64	0.141
699.08	0.142
699.52	0.139
699.97	0.140
700.41	0.140
700.85	0.139
701.30	0.138
701.74	0.139
702.18	0.139
702.63	0.140
703.07	0.139
703.51	0.140
703.96	0.138
704.40	0.138
704.84	0.139
705.28	0.139
705.73	0.139
706.17	0.138
706.61	0.137
707.06	0.138
707.50	0.139
707.94	0.135
708.38	0.135
708.83	0.136
709.27	0.136
709.71	0.138
710.15	0.139
710.60	0.136
711.04	0.134
711.48	0.135
711.92	0.134
712.37	0.136
712.81	0.138
713.25	0.137
713.69	0.135
714.13	0.136
714.58	0.136
715.02	0.138
715.46	0.132
715.90	0.136
716.35	0.134
716.79	0.135
717.23	0.137
717.67	0.133
718.11	0.136
718.56	0.135
719.00	0.134
719.44	0.133
719.88	0.137
720.32	0.134
720.76	0.134
721.21	0.134
721.65	0.133
722.09	0.134
722.53	0.132
722.97	0.133
723.41	0.134
723.86	0.133
724.30	0.133
724.74	0.133
725.18	0.132
725.62	0.135
726.06	0.131
726.50	0.134
726.95	0.135
727.39	0.133
727.83	0.132
728.27	0.129
728.71	0.132
729.15	0.134
729.59	0.133
730.03	0.134
730.48	0.135
730.92	0.132
731.36	0.135
731.80	0.131
732.24	0.132
732.68	0.136
733.12	0.135
733.56	0.133
734.00	0.136
734.44	0.133
734.89	0.132
735.33	0.133
735.77	0.133
736.21	0.136
736.65	0.134
737.09	0.133
737.53	0.134
737.97	0.134
738.41	0.133
738.85	0.138
739.29	0.132
739.73	0.134
740.17	0.137
740.61	0.132
741.05	0.131
741.49	0.135
741.93	0.132
742.37	0.132
742.81	0.132
743.26	0.136
743.70	0.133
744.14	0.131
744.58	0.135
745.02	0.129
745.46	0.131
745.90	0.129
746.34	0.133
746.78	0.134
747.22	0.131
747.66	0.131
748.10	0.133
748.54	0.132
748.98	0.129
749.42	0.133
749.86	0.132
750.29	0.129
750.73	0.127
751.17	0.133
751.61	0.133
752.05	0.130
752.49	0.130
752.93	0.126
753.37	0.131
753.81	0.129
754.25	0.130
754.69	0.130
755.13	0.128
755.57	0.129
756.01	0.128
756.45	0.127
756.89	0.127
757.33	0.133
757.77	0.128
758.21	0.128
758.64	0.132
759.08	0.125
759.52	0.126
759.96	0.129
760.40	0.129
760.84	0.126
761.28	0.127
761.72	0.127
762.16	0.128
762.60	0.125
763.03	0.124
763.47	0.127
763.91	0.125
764.35	0.124
764.79	0.127
765.23	0.127
765.67	0.125
766.11	0.125
766.54	0.127
766.98	0.127
767.42	0.125
767.86	0.127
768.30	0.126
768.74	0.124
769.17	0.126
769.61	0.125
770.05	0.128
770.49	0.130
770.93	0.126
771.37	0.125
771.80	0.124
772.24	0.123
772.68	0.126
773.12	0.126
773.56	0.124
774.00	0.124
774.43	0.122
774.87	0.123
775.31	0.123
775.75	0.123
776.19	0.120
776.62	0.125
777.06	0.125
777.50	0.124
777.94	0.124
778.37	0.122
778.81	0.122
779.25	0.124
779.69	0.118
780.13	0.125
780.56	0.125
781.00	0.124
781.44	0.121
781.88	0.122
782.31	0.119
782.75	0.124
783.19	0.120
783.63	0.118
784.06	0.120
784.50	0.121
784.94	0.121
785.37	0.117
785.81	0.124
786.25	0.116
786.69	0.122
787.12	0.118
787.56	0.120
788.00	0.124
788.43	0.122
788.87	0.120
789.31	0.118
789.75	0.122
790.18	0.114
790.62	0.118
791.06	0.118
791.49	0.121
791.93	0.120
792.37	0.117
792.80	0.117
793.24	0.114
793.68	0.117
794.11	0.121
794.55	0.117
794.99	0.114
795.42	0.116
795.86	0.114
796.30	0.115
796.73	0.117
797.17	0.124
797.61	0.116
798.04	0.116
798.48	0.115
798.91	0.116
799.35	0.116
799.79	0.117
800.22	0.121
800.66	0.118
801.10	0.120
801.53	0.114
801.97	0.115
802.40	0.115
802.84	0.117
803.28	0.115
803.71	0.113
804.15	0.116
804.58	0.117
805.02	0.117
805.46	0.118
805.89	0.121
806.33	0.115
806.76	0.112
807.20	0.116
807.63	0.116
808.07	0.116
808.51	0.112
808.94	0.116
809.38	0.114
809.81	0.115
810.25	0.116
810.68	0.111
811.12	0.109
811.55	0.114
811.99	0.114
812.42	0.116
812.86	0.115
813.29	0.114
813.73	0.111
814.17	0.114
814.60	0.113
815.04	0.111
815.47	0.116
815.91	0.115
816.34	0.114
816.78	0.110
817.21	0.114
