SpectraSuite Data File
++++++++++++++++++++++++++++++++++++
Date: Mon Jul 10 13:40:47 CEST 2017
User: IPCE
Dark Spectrum Present: Yes
Reference Spectrum Present: Yes
Number of Sampled Component Spectra: 1
Spectrometers: HR+C0708
Integration Time (usec): 1000 (HR+C0708)
Spectra Averaged: 10 (HR+C0708)
Boxcar Smoothing: 0 (HR+C0708)
Correct for Electrical Dark: No (HR+C0708)
Strobe/Lamp Enabled: No (HR+C0708)
Correct for Detector Non-linearity: No (HR+C0708)
Correct for Stray Light: No (HR+C0708)
Number of Pixels in Processed Spectrum: 2048
>>>>>Begin Processed Spectral Data<<<<<
188.76	0.748
189.23	0.179
189.70	-0.000
190.17	0.409
190.64	0.465
191.12	0.054
191.59	-0.000
192.06	0.940
192.53	-0.081
193.01	1.259
193.48	0.458
193.95	1.255
194.42	0.507
194.90	0.184
195.37	0.544
195.84	0.323
196.31	-0.000
196.78	0.980
197.26	0.506
197.73	0.619
198.20	0.743
198.67	1.166
199.14	0.377
199.62	-0.000
200.09	0.523
200.56	0.633
201.03	0.648
201.50	0.886
201.97	0.462
202.45	1.012
202.92	0.724
203.39	0.562
203.86	0.539
204.33	0.335
204.80	0.601
205.28	0.814
205.75	0.478
206.22	0.494
206.69	0.638
207.16	0.428
207.63	0.642
208.11	0.291
208.58	0.445
209.05	0.439
209.52	0.386
209.99	1.190
210.46	0.362
210.93	0.579
211.41	0.459
211.88	0.469
212.35	0.319
212.82	0.553
213.29	0.351
213.76	0.513
214.23	1.012
214.70	0.384
215.18	0.749
215.65	0.486
216.12	0.399
216.59	0.579
217.06	0.410
217.53	0.517
218.00	0.557
218.47	0.303
218.94	0.654
219.41	0.451
219.89	0.516
220.36	0.764
220.83	0.597
221.30	0.629
221.77	0.492
222.24	0.566
222.71	0.834
223.18	0.554
223.65	0.610
224.12	0.660
224.59	0.851
225.06	0.622
225.54	0.876
226.01	1.029
226.48	0.904
226.95	1.171
227.42	0.878
227.89	1.096
228.36	1.425
228.83	1.169
229.30	1.059
229.77	1.377
230.24	1.384
230.71	1.595
231.18	1.442
231.65	1.246
232.12	1.540
232.59	1.521
233.06	1.518
233.53	1.457
234.00	1.544
234.47	1.740
234.94	1.766
235.41	1.611
235.88	1.869
236.35	1.730
236.82	1.755
237.29	2.301
237.76	1.984
238.23	2.104
238.70	2.227
239.17	2.000
239.64	2.109
240.11	2.248
240.58	2.142
241.05	2.295
241.52	2.291
241.99	2.101
242.46	2.369
242.93	2.561
243.40	2.462
243.87	2.509
244.34	3.067
244.81	2.231
245.28	2.822
245.75	2.271
246.22	2.482
246.69	2.374
247.16	2.691
247.63	2.592
248.10	2.516
248.57	2.335
249.04	2.366
249.51	2.401
249.98	2.441
250.45	2.517
250.92	2.788
251.39	2.682
251.85	2.486
252.32	2.459
252.79	2.780
253.26	2.335
253.73	2.654
254.20	2.496
254.67	2.428
255.14	2.429
255.61	2.485
256.08	2.667
256.55	2.645
257.02	2.624
257.49	2.662
257.95	2.727
258.42	2.554
258.89	2.475
259.36	2.778
259.83	2.708
260.30	2.607
260.77	2.670
261.24	2.621
261.71	2.702
262.17	2.783
262.64	2.533
263.11	2.608
263.58	2.722
264.05	2.614
264.52	2.763
264.99	2.812
265.46	2.729
265.92	2.690
266.39	2.674
266.86	2.875
267.33	2.603
267.80	2.674
268.27	2.646
268.74	2.656
269.20	2.750
269.67	2.703
270.14	2.869
270.61	2.599
271.08	2.627
271.55	2.717
272.01	2.811
272.48	2.667
272.95	2.539
273.42	2.598
273.89	2.604
274.36	2.685
274.82	2.613
275.29	2.622
275.76	2.533
276.23	2.595
276.70	2.604
277.16	2.600
277.63	2.701
278.10	2.628
278.57	2.716
279.04	2.663
279.50	2.496
279.97	2.582
280.44	2.582
280.91	2.684
281.38	2.590
281.84	2.726
282.31	2.683
282.78	2.676
283.25	2.517
283.72	2.645
284.18	2.757
284.65	2.822
285.12	2.571
285.59	2.551
286.05	2.532
286.52	2.661
286.99	2.639
287.46	2.621
287.92	2.656
288.39	2.549
288.86	2.732
289.33	2.583
289.79	2.560
290.26	2.546
290.73	2.520
291.20	2.579
291.66	2.513
292.13	2.746
292.60	2.488
293.07	2.740
293.53	2.480
294.00	2.502
294.47	2.641
294.93	2.399
295.40	2.588
295.87	2.460
296.34	2.467
296.80	2.609
297.27	2.581
297.74	2.433
298.20	2.542
298.67	2.468
299.14	2.546
299.60	2.522
300.07	2.274
300.54	2.512
301.01	2.385
301.47	2.466
301.94	2.467
302.41	2.563
302.87	2.471
303.34	2.488
303.81	2.268
304.27	2.387
304.74	2.419
305.21	2.343
305.67	2.564
306.14	2.427
306.61	2.359
307.07	2.491
307.54	2.314
308.01	2.356
308.47	2.463
308.94	2.477
309.40	2.421
309.87	2.403
310.34	2.336
310.80	2.524
311.27	2.438
311.74	2.372
312.20	2.405
312.67	2.450
313.13	2.428
313.60	2.441
314.07	2.371
314.53	2.343
315.00	2.395
315.47	2.375
315.93	2.431
316.40	2.425
316.86	2.356
317.33	2.431
317.80	2.367
318.26	2.359
318.73	2.388
319.19	2.357
319.66	2.309
320.13	2.333
320.59	2.310
321.06	2.293
321.52	2.324
321.99	2.162
322.45	2.242
322.92	2.230
323.39	2.175
323.85	2.248
324.32	2.183
324.78	2.172
325.25	2.193
325.71	2.093
326.18	2.063
326.64	2.055
327.11	1.996
327.58	2.024
328.04	1.946
328.51	1.899
328.97	1.900
329.44	1.857
329.90	1.801
330.37	1.809
330.83	1.738
331.30	1.724
331.76	1.675
332.23	1.627
332.69	1.590
333.16	1.522
333.62	1.481
334.09	1.441
334.56	1.371
335.02	1.322
335.49	1.258
335.95	1.203
336.42	1.155
336.88	1.100
337.35	1.046
337.81	1.002
338.28	0.950
338.74	0.916
339.20	0.873
339.67	0.833
340.13	0.780
340.60	0.739
341.06	0.700
341.53	0.658
341.99	0.621
342.46	0.588
342.92	0.557
343.39	0.525
343.85	0.502
344.32	0.474
344.78	0.455
345.25	0.429
345.71	0.406
346.17	0.384
346.64	0.359
347.10	0.334
347.57	0.310
348.03	0.293
348.50	0.277
348.96	0.264
349.43	0.249
349.89	0.237
350.35	0.225
350.82	0.218
351.28	0.205
351.75	0.194
352.21	0.186
352.67	0.175
353.14	0.171
353.60	0.166
354.07	0.156
354.53	0.151
355.00	0.144
355.46	0.142
355.92	0.140
356.39	0.135
356.85	0.129
357.31	0.127
357.78	0.125
358.24	0.124
358.71	0.116
359.17	0.114
359.63	0.114
360.10	0.113
360.56	0.112
361.03	0.111
361.49	0.107
361.95	0.106
362.42	0.107
362.88	0.105
363.34	0.105
363.81	0.104
364.27	0.105
364.73	0.100
365.20	0.101
365.66	0.100
366.12	0.099
366.59	0.099
367.05	0.097
367.51	0.098
367.98	0.099
368.44	0.092
368.90	0.096
369.37	0.094
369.83	0.095
370.29	0.092
370.76	0.090
371.22	0.092
371.68	0.091
372.15	0.093
372.61	0.091
373.07	0.091
373.54	0.088
374.00	0.091
374.46	0.091
374.92	0.089
375.39	0.088
375.85	0.088
376.31	0.089
376.78	0.087
377.24	0.088
377.70	0.088
378.16	0.088
378.63	0.087
379.09	0.089
379.55	0.086
380.01	0.086
380.48	0.085
380.94	0.085
381.40	0.087
381.87	0.086
382.33	0.084
382.79	0.086
383.25	0.082
383.72	0.086
384.18	0.084
384.64	0.085
385.10	0.084
385.56	0.083
386.03	0.082
386.49	0.083
386.95	0.079
387.41	0.084
387.88	0.081
388.34	0.083
388.80	0.084
389.26	0.081
389.72	0.081
390.19	0.082
390.65	0.081
391.11	0.079
391.57	0.079
392.04	0.080
392.50	0.080
392.96	0.080
393.42	0.080
393.88	0.079
394.34	0.080
394.81	0.080
395.27	0.078
395.73	0.076
396.19	0.079
396.65	0.080
397.12	0.078
397.58	0.079
398.04	0.077
398.50	0.077
398.96	0.077
399.42	0.074
399.89	0.078
400.35	0.075
400.81	0.075
401.27	0.075
401.73	0.076
402.19	0.073
402.65	0.076
403.12	0.073
403.58	0.072
404.04	0.072
404.50	0.070
404.96	0.072
405.42	0.069
405.88	0.068
406.34	0.071
406.81	0.069
407.27	0.066
407.73	0.068
408.19	0.067
408.65	0.068
409.11	0.067
409.57	0.067
410.03	0.064
410.49	0.065
410.96	0.068
411.42	0.065
411.88	0.063
412.34	0.065
412.80	0.064
413.26	0.065
413.72	0.065
414.18	0.060
414.64	0.062
415.10	0.063
415.56	0.064
416.02	0.062
416.48	0.067
416.95	0.059
417.41	0.060
417.87	0.060
418.33	0.061
418.79	0.064
419.25	0.060
419.71	0.061
420.17	0.064
420.63	0.062
421.09	0.063
421.55	0.061
422.01	0.061
422.47	0.059
422.93	0.060
423.39	0.060
423.85	0.059
424.31	0.062
424.77	0.062
425.23	0.061
425.69	0.059
426.15	0.060
426.61	0.060
427.07	0.059
427.53	0.060
427.99	0.058
428.45	0.061
428.91	0.058
429.37	0.058
429.83	0.059
430.29	0.060
430.75	0.063
431.21	0.062
431.67	0.060
432.13	0.060
432.59	0.055
433.05	0.058
433.51	0.057
433.97	0.055
434.43	0.059
434.89	0.057
435.35	0.057
435.81	0.055
436.27	0.054
436.73	0.055
437.19	0.055
437.65	0.057
438.11	0.057
438.57	0.057
439.03	0.055
439.48	0.057
439.94	0.059
440.40	0.056
440.86	0.057
441.32	0.054
441.78	0.055
442.24	0.054
442.70	0.053
443.16	0.057
443.62	0.056
444.08	0.054
444.54	0.055
444.99	0.056
445.45	0.054
445.91	0.052
446.37	0.053
446.83	0.052
447.29	0.053
447.75	0.052
448.21	0.053
448.67	0.055
449.12	0.051
449.58	0.054
450.04	0.054
450.50	0.052
450.96	0.052
451.42	0.053
451.88	0.054
452.34	0.051
452.79	0.052
453.25	0.056
453.71	0.055
454.17	0.049
454.63	0.052
455.09	0.053
455.55	0.053
456.00	0.052
456.46	0.051
456.92	0.052
457.38	0.049
457.84	0.052
458.30	0.051
458.75	0.054
459.21	0.052
459.67	0.057
460.13	0.051
460.59	0.053
461.04	0.055
461.50	0.054
461.96	0.053
462.42	0.052
462.88	0.054
463.33	0.051
463.79	0.052
464.25	0.052
464.71	0.053
465.17	0.052
465.62	0.050
466.08	0.054
466.54	0.054
467.00	0.055
467.46	0.053
467.91	0.053
468.37	0.053
468.83	0.056
469.29	0.053
469.74	0.055
470.20	0.055
470.66	0.054
471.12	0.056
471.57	0.055
472.03	0.053
472.49	0.055
472.95	0.054
473.40	0.054
473.86	0.052
474.32	0.055
474.78	0.055
475.23	0.054
475.69	0.056
476.15	0.057
476.60	0.053
477.06	0.055
477.52	0.055
477.98	0.056
478.43	0.056
478.89	0.057
479.35	0.054
479.80	0.056
480.26	0.056
480.72	0.056
481.18	0.055
481.63	0.057
482.09	0.053
482.55	0.057
483.00	0.055
483.46	0.057
483.92	0.057
484.37	0.057
484.83	0.054
485.29	0.058
485.74	0.056
486.20	0.058
486.66	0.055
487.11	0.057
487.57	0.057
488.03	0.057
488.48	0.057
488.94	0.058
489.40	0.058
489.85	0.057
490.31	0.057
490.77	0.057
491.22	0.057
491.68	0.058
492.13	0.057
492.59	0.056
493.05	0.058
493.50	0.056
493.96	0.058
494.42	0.057
494.87	0.056
495.33	0.058
495.78	0.058
496.24	0.057
496.70	0.057
497.15	0.056
497.61	0.056
498.06	0.057
498.52	0.058
498.98	0.058
499.43	0.059
499.89	0.058
500.34	0.058
500.80	0.058
501.25	0.057
501.71	0.057
502.17	0.057
502.62	0.058
503.08	0.057
503.53	0.058
503.99	0.056
504.44	0.057
504.90	0.055
505.36	0.057
505.81	0.055
506.27	0.057
506.72	0.058
507.18	0.057
507.63	0.055
508.09	0.056
508.54	0.055
509.00	0.056
509.45	0.056
509.91	0.057
510.36	0.055
510.82	0.056
511.27	0.057
511.73	0.056
512.19	0.054
512.64	0.057
513.10	0.055
513.55	0.055
514.01	0.055
514.46	0.057
514.92	0.055
515.37	0.054
515.83	0.055
516.28	0.054
516.73	0.056
517.19	0.053
517.64	0.058
518.10	0.056
518.55	0.055
519.01	0.054
519.46	0.055
519.92	0.056
520.37	0.055
520.83	0.055
521.28	0.055
521.74	0.057
522.19	0.054
522.65	0.054
523.10	0.056
523.55	0.056
524.01	0.055
524.46	0.057
524.92	0.057
525.37	0.056
525.83	0.055
526.28	0.057
526.73	0.056
527.19	0.056
527.64	0.054
528.10	0.057
528.55	0.057
529.01	0.058
529.46	0.056
529.91	0.057
530.37	0.057
530.82	0.056
531.28	0.056
531.73	0.059
532.18	0.059
532.64	0.059
533.09	0.059
533.54	0.060
534.00	0.059
534.45	0.060
534.91	0.061
535.36	0.060
535.81	0.059
536.27	0.061
536.72	0.062
537.17	0.059
537.63	0.063
538.08	0.062
538.54	0.061
538.99	0.063
539.44	0.063
539.90	0.064
540.35	0.062
540.80	0.065
541.26	0.064
541.71	0.063
542.16	0.064
542.62	0.066
543.07	0.066
543.52	0.065
543.98	0.066
544.43	0.069
544.88	0.071
545.34	0.069
545.79	0.068
546.24	0.071
546.69	0.069
547.15	0.073
547.60	0.070
548.05	0.075
548.51	0.073
548.96	0.074
549.41	0.075
549.86	0.075
550.32	0.076
550.77	0.077
551.22	0.079
551.68	0.078
552.13	0.079
552.58	0.079
553.03	0.082
553.49	0.080
553.94	0.083
554.39	0.084
554.84	0.081
555.30	0.081
555.75	0.084
556.20	0.084
556.65	0.087
557.11	0.087
557.56	0.089
558.01	0.090
558.46	0.090
558.92	0.092
559.37	0.091
559.82	0.091
560.27	0.092
560.72	0.092
561.18	0.095
561.63	0.094
562.08	0.097
562.53	0.097
562.99	0.100
563.44	0.098
563.89	0.099
564.34	0.100
564.79	0.101
565.25	0.101
565.70	0.103
566.15	0.106
566.60	0.104
567.05	0.108
567.50	0.109
567.96	0.110
568.41	0.111
568.86	0.112
569.31	0.112
569.76	0.113
570.21	0.114
570.67	0.115
571.12	0.116
571.57	0.117
572.02	0.120
572.47	0.121
572.92	0.120
573.37	0.122
573.83	0.122
574.28	0.125
574.73	0.125
575.18	0.127
575.63	0.127
576.08	0.132
576.53	0.129
576.98	0.136
577.44	0.135
577.89	0.138
578.34	0.139
578.79	0.140
579.24	0.142
579.69	0.142
580.14	0.146
580.59	0.146
581.04	0.148
581.49	0.149
581.95	0.153
582.40	0.153
582.85	0.157
583.30	0.158
583.75	0.159
584.20	0.165
584.65	0.163
585.10	0.166
585.55	0.169
586.00	0.172
586.45	0.173
586.90	0.176
587.35	0.176
587.80	0.179
588.25	0.181
588.71	0.185
589.16	0.190
589.61	0.190
590.06	0.194
590.51	0.198
590.96	0.197
591.41	0.201
591.86	0.205
592.31	0.207
592.76	0.208
593.21	0.210
593.66	0.214
594.11	0.218
594.56	0.222
595.01	0.224
595.46	0.227
595.91	0.231
596.36	0.232
596.81	0.237
597.26	0.240
597.71	0.244
598.16	0.245
598.61	0.249
599.06	0.251
599.51	0.253
599.96	0.259
600.41	0.262
600.86	0.264
601.31	0.267
601.76	0.269
602.21	0.273
602.65	0.275
603.10	0.279
603.55	0.282
604.00	0.283
604.45	0.288
604.90	0.291
605.35	0.295
605.80	0.295
606.25	0.299
606.70	0.301
607.15	0.306
607.60	0.304
608.05	0.309
608.50	0.312
608.95	0.313
609.39	0.316
609.84	0.317
610.29	0.320
610.74	0.320
611.19	0.322
611.64	0.326
612.09	0.325
612.54	0.327
612.99	0.328
613.44	0.329
613.88	0.332
614.33	0.332
614.78	0.332
615.23	0.333
615.68	0.335
616.13	0.339
616.58	0.339
617.03	0.337
617.47	0.340
617.92	0.341
618.37	0.343
618.82	0.341
619.27	0.343
619.72	0.343
620.17	0.344
620.61	0.344
621.06	0.344
621.51	0.346
621.96	0.347
622.41	0.349
622.86	0.348
623.30	0.350
623.75	0.350
624.20	0.353
624.65	0.353
625.10	0.355
625.54	0.353
625.99	0.357
626.44	0.359
626.89	0.358
627.34	0.361
627.78	0.360
628.23	0.364
628.68	0.363
629.13	0.366
629.58	0.366
630.02	0.370
630.47	0.373
630.92	0.372
631.37	0.377
631.81	0.378
632.26	0.381
632.71	0.382
633.16	0.387
633.61	0.390
634.05	0.392
634.50	0.395
634.95	0.399
635.40	0.401
635.84	0.401
636.29	0.408
636.74	0.413
637.18	0.415
637.63	0.417
638.08	0.421
638.53	0.426
638.97	0.431
639.42	0.436
639.87	0.440
640.32	0.442
640.76	0.447
641.21	0.452
641.66	0.454
642.10	0.463
642.55	0.467
643.00	0.471
643.44	0.476
643.89	0.482
644.34	0.485
644.79	0.492
645.23	0.496
645.68	0.502
646.13	0.506
646.57	0.511
647.02	0.518
647.47	0.524
647.91	0.529
648.36	0.536
648.81	0.542
649.25	0.544
649.70	0.550
650.15	0.554
650.59	0.557
651.04	0.564
651.48	0.569
651.93	0.578
652.38	0.582
652.82	0.583
653.27	0.588
653.72	0.593
654.16	0.598
654.61	0.605
655.06	0.607
655.50	0.614
655.95	0.618
656.39	0.619
656.84	0.623
657.29	0.630
657.73	0.630
658.18	0.640
658.62	0.640
659.07	0.646
659.52	0.647
659.96	0.652
660.41	0.653
660.85	0.655
661.30	0.657
661.74	0.664
662.19	0.665
662.64	0.669
663.08	0.670
663.53	0.673
663.97	0.676
664.42	0.674
664.86	0.678
665.31	0.678
665.75	0.674
666.20	0.676
666.65	0.675
667.09	0.671
667.54	0.669
667.98	0.668
668.43	0.664
668.87	0.664
669.32	0.660
669.76	0.655
670.21	0.650
670.65	0.651
671.10	0.642
671.54	0.634
671.99	0.629
672.43	0.620
672.88	0.612
673.32	0.604
673.77	0.595
674.21	0.586
674.66	0.575
675.10	0.564
675.55	0.552
675.99	0.544
676.44	0.532
676.88	0.521
677.33	0.509
677.77	0.495
678.22	0.483
678.66	0.470
679.11	0.454
679.55	0.443
679.99	0.432
680.44	0.418
680.88	0.407
681.33	0.392
681.77	0.380
682.22	0.367
682.66	0.357
683.11	0.342
683.55	0.329
683.99	0.316
684.44	0.309
684.88	0.296
685.33	0.286
685.77	0.277
686.21	0.262
686.66	0.255
687.10	0.240
687.55	0.233
687.99	0.225
688.44	0.218
688.88	0.208
689.32	0.198
689.77	0.192
690.21	0.185
690.65	0.173
691.10	0.167
691.54	0.161
691.99	0.153
692.43	0.147
692.87	0.143
693.32	0.137
693.76	0.129
694.20	0.128
694.65	0.120
695.09	0.117
695.53	0.112
695.98	0.105
696.42	0.101
696.86	0.097
697.31	0.095
697.75	0.093
698.19	0.088
698.64	0.085
699.08	0.081
699.52	0.078
699.97	0.076
700.41	0.073
700.85	0.070
701.30	0.070
701.74	0.067
702.18	0.064
702.63	0.062
703.07	0.059
703.51	0.059
703.96	0.055
704.40	0.054
704.84	0.054
705.28	0.052
705.73	0.051
706.17	0.049
706.61	0.048
707.06	0.047
707.50	0.046
707.94	0.042
708.38	0.039
708.83	0.041
709.27	0.040
709.71	0.039
710.15	0.039
710.60	0.037
711.04	0.038
711.48	0.036
711.92	0.034
712.37	0.036
712.81	0.034
713.25	0.034
713.69	0.035
714.13	0.034
714.58	0.033
715.02	0.034
715.46	0.030
715.90	0.031
716.35	0.030
716.79	0.029
717.23	0.031
717.67	0.032
718.11	0.031
718.56	0.031
719.00	0.029
719.44	0.029
719.88	0.030
720.32	0.029
720.76	0.029
721.21	0.028
721.65	0.026
722.09	0.031
722.53	0.029
722.97	0.030
723.41	0.030
723.86	0.030
724.30	0.028
724.74	0.029
725.18	0.030
725.62	0.027
726.06	0.027
726.50	0.027
726.95	0.029
727.39	0.029
727.83	0.030
728.27	0.029
728.71	0.028
729.15	0.030
729.59	0.030
730.03	0.032
730.48	0.030
730.92	0.028
731.36	0.030
731.80	0.028
732.24	0.028
732.68	0.029
733.12	0.032
733.56	0.030
734.00	0.033
734.44	0.032
734.89	0.029
735.33	0.028
735.77	0.029
736.21	0.030
736.65	0.030
737.09	0.029
737.53	0.030
737.97	0.030
738.41	0.031
738.85	0.034
739.29	0.031
739.73	0.032
740.17	0.031
740.61	0.030
741.05	0.032
741.49	0.029
741.93	0.029
742.37	0.030
742.81	0.030
743.26	0.030
743.70	0.030
744.14	0.032
744.58	0.032
745.02	0.029
745.46	0.031
745.90	0.031
746.34	0.033
746.78	0.031
747.22	0.030
747.66	0.030
748.10	0.031
748.54	0.033
748.98	0.030
749.42	0.031
749.86	0.032
750.29	0.029
750.73	0.027
751.17	0.030
751.61	0.030
752.05	0.031
752.49	0.032
752.93	0.026
753.37	0.030
753.81	0.030
754.25	0.029
754.69	0.032
755.13	0.029
755.57	0.029
756.01	0.030
756.45	0.029
756.89	0.028
757.33	0.032
757.77	0.028
758.21	0.031
758.64	0.032
759.08	0.027
759.52	0.029
759.96	0.027
760.40	0.030
760.84	0.031
761.28	0.026
761.72	0.029
762.16	0.032
762.60	0.030
763.03	0.028
763.47	0.030
763.91	0.029
764.35	0.026
764.79	0.027
765.23	0.031
765.67	0.028
766.11	0.027
766.54	0.034
766.98	0.030
767.42	0.029
767.86	0.029
768.30	0.030
768.74	0.030
769.17	0.028
769.61	0.028
770.05	0.031
770.49	0.032
770.93	0.028
771.37	0.025
771.80	0.028
772.24	0.027
772.68	0.030
773.12	0.032
773.56	0.030
774.00	0.031
774.43	0.029
774.87	0.028
775.31	0.029
775.75	0.026
776.19	0.027
776.62	0.031
777.06	0.030
777.50	0.030
777.94	0.028
778.37	0.031
778.81	0.029
779.25	0.031
779.69	0.025
780.13	0.031
780.56	0.032
781.00	0.030
781.44	0.029
781.88	0.031
782.31	0.029
782.75	0.027
783.19	0.025
783.63	0.027
784.06	0.031
784.50	0.028
784.94	0.031
785.37	0.027
785.81	0.028
786.25	0.027
786.69	0.029
787.12	0.029
787.56	0.026
788.00	0.028
788.43	0.027
788.87	0.029
789.31	0.027
789.75	0.032
790.18	0.028
790.62	0.030
791.06	0.030
791.49	0.028
791.93	0.029
792.37	0.028
792.80	0.026
793.24	0.024
793.68	0.030
794.11	0.025
794.55	0.028
794.99	0.024
795.42	0.026
795.86	0.024
796.30	0.027
796.73	0.026
797.17	0.032
797.61	0.027
798.04	0.029
798.48	0.029
798.91	0.025
799.35	0.030
799.79	0.024
800.22	0.030
800.66	0.025
801.10	0.028
801.53	0.027
801.97	0.029
802.40	0.026
802.84	0.030
803.28	0.027
803.71	0.027
804.15	0.029
804.58	0.026
805.02	0.025
805.46	0.029
805.89	0.029
806.33	0.025
806.76	0.026
807.20	0.026
807.63	0.029
808.07	0.027
808.51	0.025
808.94	0.028
809.38	0.026
809.81	0.030
810.25	0.029
810.68	0.029
811.12	0.029
811.55	0.031
811.99	0.030
812.42	0.029
812.86	0.029
813.29	0.029
813.73	0.027
814.17	0.029
814.60	0.026
815.04	0.028
815.47	0.025
815.91	0.030
816.34	0.029
816.78	0.023
817.21	0.023
817.65	0.026
818.08	0.027
