SpectraSuite Data File
++++++++++++++++++++++++++++++++++++
Date: Mon Jul 10 13:49:17 CEST 2017
User: IPCE
Dark Spectrum Present: Yes
Reference Spectrum Present: Yes
Number of Sampled Component Spectra: 1
Spectrometers: HR+C0708
Integration Time (usec): 1000 (HR+C0708)
Spectra Averaged: 10 (HR+C0708)
Boxcar Smoothing: 0 (HR+C0708)
Correct for Electrical Dark: No (HR+C0708)
Strobe/Lamp Enabled: No (HR+C0708)
Correct for Detector Non-linearity: No (HR+C0708)
Correct for Stray Light: No (HR+C0708)
Number of Pixels in Processed Spectrum: 2048
>>>>>Begin Processed Spectral Data<<<<<
188.76	0.265
189.23	-0.000
189.70	-0.000
190.17	0.247
190.64	-0.000
191.12	-0.000
191.59	-0.000
192.06	1.216
192.53	0.093
193.01	-0.000
193.48	0.778
193.95	0.778
194.42	-0.000
194.90	0.400
195.37	0.490
195.84	-0.000
196.31	-0.000
196.78	0.980
197.26	0.366
197.73	0.869
198.20	-0.000
198.67	0.254
199.14	-0.113
199.62	-0.000
200.09	0.369
200.56	0.929
201.03	1.229
201.50	0.524
201.97	0.542
202.45	0.572
202.92	0.536
203.39	0.875
203.86	0.821
204.33	0.479
204.80	0.645
205.28	1.650
205.75	0.814
206.22	1.196
206.69	0.456
207.16	0.409
207.63	0.876
208.11	0.431
208.58	0.421
209.05	0.540
209.52	0.377
209.99	1.949
210.46	0.790
210.93	0.392
211.41	0.690
211.88	0.684
212.35	0.429
212.82	0.617
213.29	0.570
213.76	0.747
214.23	1.089
214.70	0.599
215.18	-0.000
215.65	0.523
216.12	0.294
216.59	0.922
217.06	0.493
217.53	0.568
218.00	0.692
218.47	0.568
218.94	0.533
219.41	0.744
219.89	0.761
220.36	0.769
220.83	0.504
221.30	0.757
221.77	0.921
222.24	0.580
222.71	0.702
223.18	0.978
223.65	0.656
224.12	0.801
224.59	0.774
225.06	0.849
225.54	0.914
226.01	1.419
226.48	1.133
226.95	-0.000
227.42	1.169
227.89	1.017
228.36	-0.000
228.83	1.369
229.30	1.186
229.77	1.386
230.24	1.455
230.71	2.043
231.18	1.501
231.65	1.605
232.12	1.993
232.59	1.894
233.06	1.449
233.53	1.775
234.00	1.736
234.47	1.703
234.94	2.058
235.41	1.628
235.88	1.944
236.35	1.930
236.82	1.915
237.29	-0.000
237.76	2.236
238.23	1.961
238.70	2.700
239.17	2.188
239.64	2.226
240.11	2.259
240.58	2.275
241.05	2.489
241.52	2.626
241.99	2.161
242.46	2.800
242.93	2.818
243.40	2.287
243.87	-0.000
244.34	2.436
244.81	2.345
245.28	3.139
245.75	2.206
246.22	2.547
246.69	2.788
247.16	2.428
247.63	2.865
248.10	2.687
248.57	2.479
249.04	3.417
249.51	2.804
249.98	2.428
250.45	2.953
250.92	2.530
251.39	2.561
251.85	2.582
252.32	2.448
252.79	2.661
253.26	2.559
253.73	2.457
254.20	2.686
254.67	2.520
255.14	2.508
255.61	2.808
256.08	2.621
256.55	2.660
257.02	2.859
257.49	2.627
257.95	2.796
258.42	2.567
258.89	2.523
259.36	3.688
259.83	2.841
260.30	2.899
260.77	2.916
261.24	2.786
261.71	2.871
262.17	2.800
262.64	2.694
263.11	2.744
263.58	2.871
264.05	2.715
264.52	3.353
264.99	2.829
265.46	2.658
265.92	2.872
266.39	2.722
266.86	2.765
267.33	2.945
267.80	2.693
268.27	3.141
268.74	2.855
269.20	2.634
269.67	2.847
270.14	2.746
270.61	2.487
271.08	-0.000
271.55	2.751
272.01	2.752
272.48	2.787
272.95	2.511
273.42	2.717
273.89	2.835
274.36	2.785
274.82	2.730
275.29	2.814
275.76	2.558
276.23	3.012
276.70	2.622
277.16	2.565
277.63	2.723
278.10	2.766
278.57	2.771
279.04	2.919
279.50	2.384
279.97	2.538
280.44	2.633
280.91	2.712
281.38	2.962
281.84	2.630
282.31	2.581
282.78	2.827
283.25	2.559
283.72	2.705
284.18	2.780
284.65	2.725
285.12	2.569
285.59	2.796
286.05	2.597
286.52	2.862
286.99	2.547
287.46	2.549
287.92	2.834
288.39	2.640
288.86	2.582
289.33	2.928
289.79	2.622
290.26	2.616
290.73	2.557
291.20	2.594
291.66	2.778
292.13	2.525
292.60	2.544
293.07	2.713
293.53	2.552
294.00	2.424
294.47	2.556
294.93	2.489
295.40	2.566
295.87	2.514
296.34	2.503
296.80	2.727
297.27	2.734
297.74	2.497
298.20	2.773
298.67	2.511
299.14	2.448
299.60	2.497
300.07	2.414
300.54	2.467
301.01	2.485
301.47	2.555
301.94	2.673
302.41	2.508
302.87	2.321
303.34	2.526
303.81	2.253
304.27	2.333
304.74	2.536
305.21	2.280
305.67	2.338
306.14	2.381
306.61	2.267
307.07	2.611
307.54	2.321
308.01	2.280
308.47	2.521
308.94	2.313
309.40	2.393
309.87	2.379
310.34	2.274
310.80	2.347
311.27	2.423
311.74	2.281
312.20	2.285
312.67	2.382
313.13	2.319
313.60	2.454
314.07	2.313
314.53	2.279
315.00	2.423
315.47	2.292
315.93	2.362
316.40	2.391
316.86	2.275
317.33	2.324
317.80	2.361
318.26	2.268
318.73	2.403
319.19	2.270
319.66	2.218
320.13	2.513
320.59	2.228
321.06	2.255
321.52	2.302
321.99	2.230
322.45	2.344
322.92	2.360
323.39	2.206
323.85	2.340
324.32	2.317
324.78	2.143
325.25	2.261
325.71	2.136
326.18	2.136
326.64	2.192
327.11	2.074
327.58	2.160
328.04	2.119
328.51	2.005
328.97	2.053
329.44	2.025
329.90	1.959
330.37	2.092
330.83	1.937
331.30	1.972
331.76	2.007
332.23	1.890
332.69	1.881
333.16	1.868
333.62	1.828
334.09	1.796
334.56	1.743
335.02	1.677
335.49	1.664
335.95	1.615
336.42	1.557
336.88	1.529
337.35	1.454
337.81	1.436
338.28	1.387
338.74	1.341
339.20	1.314
339.67	1.282
340.13	1.198
340.60	1.169
341.06	1.115
341.53	1.070
341.99	1.031
342.46	0.978
342.92	0.948
343.39	0.910
343.85	0.873
344.32	0.842
344.78	0.810
345.25	0.776
345.71	0.747
346.17	0.714
346.64	0.679
347.10	0.647
347.57	0.608
348.03	0.586
348.50	0.556
348.96	0.529
349.43	0.509
349.89	0.485
350.35	0.466
350.82	0.446
351.28	0.423
351.75	0.406
352.21	0.397
352.67	0.374
353.14	0.364
353.60	0.347
354.07	0.332
354.53	0.323
355.00	0.316
355.46	0.303
355.92	0.300
356.39	0.292
356.85	0.283
357.31	0.281
357.78	0.268
358.24	0.264
358.71	0.256
359.17	0.251
359.63	0.251
360.10	0.244
360.56	0.239
361.03	0.240
361.49	0.238
361.95	0.231
362.42	0.234
362.88	0.228
363.34	0.231
363.81	0.229
364.27	0.228
364.73	0.224
365.20	0.221
365.66	0.219
366.12	0.217
366.59	0.218
367.05	0.216
367.51	0.217
367.98	0.214
368.44	0.211
368.90	0.213
369.37	0.208
369.83	0.207
370.29	0.208
370.76	0.205
371.22	0.208
371.68	0.205
372.15	0.203
372.61	0.203
373.07	0.201
373.54	0.197
374.00	0.198
374.46	0.198
374.92	0.198
375.39	0.197
375.85	0.196
376.31	0.195
376.78	0.193
377.24	0.193
377.70	0.193
378.16	0.194
378.63	0.190
379.09	0.195
379.55	0.194
380.01	0.189
380.48	0.189
380.94	0.190
381.40	0.187
381.87	0.186
382.33	0.190
382.79	0.188
383.25	0.184
383.72	0.187
384.18	0.183
384.64	0.186
385.10	0.185
385.56	0.182
386.03	0.180
386.49	0.183
386.95	0.178
387.41	0.178
387.88	0.178
388.34	0.178
388.80	0.178
389.26	0.178
389.72	0.177
390.19	0.178
390.65	0.174
391.11	0.177
391.57	0.175
392.04	0.177
392.50	0.174
392.96	0.174
393.42	0.174
393.88	0.173
394.34	0.175
394.81	0.171
395.27	0.170
395.73	0.168
396.19	0.169
396.65	0.169
397.12	0.167
397.58	0.168
398.04	0.169
398.50	0.170
398.96	0.167
399.42	0.168
399.89	0.166
400.35	0.164
400.81	0.164
401.27	0.163
401.73	0.166
402.19	0.162
402.65	0.161
403.12	0.160
403.58	0.158
404.04	0.159
404.50	0.160
404.96	0.157
405.42	0.157
405.88	0.157
406.34	0.156
406.81	0.155
407.27	0.154
407.73	0.154
408.19	0.154
408.65	0.151
409.11	0.152
409.57	0.150
410.03	0.149
410.49	0.150
410.96	0.150
411.42	0.150
411.88	0.147
412.34	0.149
412.80	0.151
413.26	0.149
413.72	0.147
414.18	0.145
414.64	0.145
415.10	0.146
415.56	0.144
416.02	0.145
416.48	0.146
416.95	0.142
417.41	0.142
417.87	0.144
418.33	0.142
418.79	0.142
419.25	0.140
419.71	0.144
420.17	0.144
420.63	0.140
421.09	0.142
421.55	0.139
422.01	0.141
422.47	0.139
422.93	0.139
423.39	0.141
423.85	0.138
424.31	0.141
424.77	0.139
425.23	0.140
425.69	0.137
426.15	0.138
426.61	0.134
427.07	0.136
427.53	0.137
427.99	0.137
428.45	0.134
428.91	0.131
429.37	0.134
429.83	0.136
430.29	0.135
430.75	0.134
431.21	0.139
431.67	0.133
432.13	0.129
432.59	0.130
433.05	0.132
433.51	0.130
433.97	0.129
434.43	0.130
434.89	0.130
435.35	0.126
435.81	0.125
436.27	0.128
436.73	0.126
437.19	0.129
437.65	0.131
438.11	0.128
438.57	0.129
439.03	0.127
439.48	0.130
439.94	0.132
440.40	0.125
440.86	0.124
441.32	0.125
441.78	0.124
442.24	0.127
442.70	0.122
443.16	0.124
443.62	0.125
444.08	0.123
444.54	0.123
444.99	0.123
445.45	0.125
445.91	0.121
446.37	0.123
446.83	0.120
447.29	0.121
447.75	0.122
448.21	0.120
448.67	0.118
449.12	0.118
449.58	0.121
450.04	0.122
450.50	0.121
450.96	0.118
451.42	0.121
451.88	0.120
452.34	0.118
452.79	0.120
453.25	0.119
453.71	0.119
454.17	0.118
454.63	0.116
455.09	0.121
455.55	0.117
456.00	0.116
456.46	0.115
456.92	0.115
457.38	0.113
457.84	0.120
458.30	0.118
458.75	0.118
459.21	0.117
459.67	0.119
460.13	0.115
460.59	0.115
461.04	0.117
461.50	0.118
461.96	0.117
462.42	0.115
462.88	0.116
463.33	0.113
463.79	0.114
464.25	0.114
464.71	0.114
465.17	0.115
465.62	0.112
466.08	0.116
466.54	0.116
467.00	0.114
467.46	0.116
467.91	0.116
468.37	0.112
468.83	0.115
469.29	0.116
469.74	0.116
470.20	0.114
470.66	0.114
471.12	0.114
471.57	0.115
472.03	0.114
472.49	0.115
472.95	0.114
473.40	0.115
473.86	0.112
474.32	0.116
474.78	0.112
475.23	0.113
475.69	0.114
476.15	0.114
476.60	0.113
477.06	0.112
477.52	0.112
477.98	0.113
478.43	0.113
478.89	0.112
479.35	0.113
479.80	0.114
480.26	0.114
480.72	0.115
481.18	0.110
481.63	0.112
482.09	0.109
482.55	0.114
483.00	0.111
483.46	0.113
483.92	0.112
484.37	0.115
484.83	0.108
485.29	0.113
485.74	0.111
486.20	0.113
486.66	0.111
487.11	0.111
487.57	0.110
488.03	0.112
488.48	0.112
488.94	0.111
489.40	0.112
489.85	0.112
490.31	0.111
490.77	0.112
491.22	0.110
491.68	0.111
492.13	0.109
492.59	0.109
493.05	0.109
493.50	0.110
493.96	0.111
494.42	0.110
494.87	0.109
495.33	0.111
495.78	0.112
496.24	0.108
496.70	0.110
497.15	0.109
497.61	0.109
498.06	0.110
498.52	0.109
498.98	0.109
499.43	0.112
499.89	0.108
500.34	0.107
500.80	0.109
501.25	0.108
501.71	0.107
502.17	0.108
502.62	0.108
503.08	0.107
503.53	0.107
503.99	0.107
504.44	0.108
504.90	0.107
505.36	0.106
505.81	0.106
506.27	0.107
506.72	0.106
507.18	0.108
507.63	0.105
508.09	0.105
508.54	0.104
509.00	0.106
509.45	0.107
509.91	0.105
510.36	0.105
510.82	0.106
511.27	0.105
511.73	0.105
512.19	0.102
512.64	0.106
513.10	0.105
513.55	0.103
514.01	0.104
514.46	0.105
514.92	0.101
515.37	0.101
515.83	0.104
516.28	0.102
516.73	0.102
517.19	0.100
517.64	0.104
518.10	0.104
518.55	0.102
519.01	0.102
519.46	0.101
519.92	0.102
520.37	0.102
520.83	0.104
521.28	0.104
521.74	0.101
522.19	0.101
522.65	0.102
523.10	0.101
523.55	0.102
524.01	0.101
524.46	0.102
524.92	0.104
525.37	0.101
525.83	0.102
526.28	0.103
526.73	0.102
527.19	0.103
527.64	0.103
528.10	0.101
528.55	0.102
529.01	0.102
529.46	0.102
529.91	0.101
530.37	0.104
530.82	0.101
531.28	0.102
531.73	0.104
532.18	0.102
532.64	0.103
533.09	0.103
533.54	0.103
534.00	0.100
534.45	0.105
534.91	0.104
535.36	0.102
535.81	0.105
536.27	0.104
536.72	0.104
537.17	0.102
537.63	0.107
538.08	0.105
538.54	0.105
538.99	0.106
539.44	0.105
539.90	0.106
540.35	0.105
540.80	0.107
541.26	0.106
541.71	0.104
542.16	0.109
542.62	0.107
543.07	0.105
543.52	0.107
543.98	0.109
544.43	0.108
544.88	0.110
545.34	0.110
545.79	0.109
546.24	0.112
546.69	0.109
547.15	0.112
547.60	0.111
548.05	0.114
548.51	0.112
548.96	0.113
549.41	0.113
549.86	0.114
550.32	0.115
550.77	0.116
551.22	0.117
551.68	0.116
552.13	0.117
552.58	0.117
553.03	0.118
553.49	0.118
553.94	0.120
554.39	0.120
554.84	0.118
555.30	0.119
555.75	0.120
556.20	0.121
556.65	0.122
557.11	0.123
557.56	0.124
558.01	0.124
558.46	0.125
558.92	0.128
559.37	0.127
559.82	0.126
560.27	0.129
560.72	0.128
561.18	0.130
561.63	0.131
562.08	0.133
562.53	0.131
562.99	0.131
563.44	0.133
563.89	0.133
564.34	0.135
564.79	0.135
565.25	0.135
565.70	0.138
566.15	0.139
566.60	0.135
567.05	0.141
567.50	0.141
567.96	0.140
568.41	0.143
568.86	0.143
569.31	0.144
569.76	0.145
570.21	0.144
570.67	0.147
571.12	0.147
571.57	0.147
572.02	0.150
572.47	0.149
572.92	0.150
573.37	0.153
573.83	0.151
574.28	0.152
574.73	0.154
575.18	0.156
575.63	0.157
576.08	0.158
576.53	0.158
576.98	0.162
577.44	0.162
577.89	0.162
578.34	0.166
578.79	0.165
579.24	0.167
579.69	0.170
580.14	0.171
580.59	0.172
581.04	0.173
581.49	0.175
581.95	0.175
582.40	0.177
582.85	0.178
583.30	0.181
583.75	0.184
584.20	0.185
584.65	0.187
585.10	0.188
585.55	0.191
586.00	0.194
586.45	0.194
586.90	0.196
587.35	0.199
587.80	0.200
588.25	0.203
588.71	0.203
589.16	0.208
589.61	0.210
590.06	0.211
590.51	0.216
590.96	0.214
591.41	0.218
591.86	0.222
592.31	0.223
592.76	0.224
593.21	0.225
593.66	0.231
594.11	0.233
594.56	0.235
595.01	0.238
595.46	0.240
595.91	0.244
596.36	0.247
596.81	0.249
597.26	0.252
597.71	0.254
598.16	0.255
598.61	0.259
599.06	0.263
599.51	0.265
599.96	0.267
600.41	0.269
600.86	0.271
601.31	0.275
601.76	0.277
602.21	0.281
602.65	0.281
603.10	0.285
603.55	0.289
604.00	0.289
604.45	0.294
604.90	0.295
605.35	0.298
605.80	0.300
606.25	0.305
606.70	0.303
607.15	0.306
607.60	0.308
608.05	0.314
608.50	0.312
608.95	0.314
609.39	0.318
609.84	0.318
610.29	0.320
610.74	0.324
611.19	0.321
611.64	0.325
612.09	0.322
612.54	0.327
612.99	0.329
613.44	0.329
613.88	0.331
614.33	0.330
614.78	0.334
615.23	0.333
615.68	0.335
616.13	0.334
616.58	0.337
617.03	0.335
617.47	0.338
617.92	0.337
618.37	0.341
618.82	0.339
619.27	0.341
619.72	0.340
620.17	0.341
620.61	0.343
621.06	0.340
621.51	0.343
621.96	0.343
622.41	0.345
622.86	0.343
623.30	0.345
623.75	0.346
624.20	0.348
624.65	0.349
625.10	0.348
625.54	0.351
625.99	0.351
626.44	0.355
626.89	0.352
627.34	0.354
627.78	0.356
628.23	0.355
628.68	0.359
629.13	0.361
629.58	0.361
630.02	0.365
630.47	0.367
630.92	0.368
631.37	0.371
631.81	0.369
632.26	0.374
632.71	0.375
633.16	0.379
633.61	0.379
634.05	0.381
634.50	0.386
634.95	0.387
635.40	0.393
635.84	0.396
636.29	0.398
636.74	0.401
637.18	0.402
637.63	0.407
638.08	0.409
638.53	0.413
638.97	0.417
639.42	0.423
639.87	0.424
640.32	0.426
640.76	0.431
641.21	0.435
641.66	0.437
642.10	0.444
642.55	0.447
643.00	0.451
643.44	0.453
643.89	0.460
644.34	0.465
644.79	0.470
645.23	0.472
645.68	0.479
646.13	0.483
646.57	0.487
647.02	0.490
647.47	0.496
647.91	0.503
648.36	0.506
648.81	0.511
649.25	0.514
649.70	0.518
650.15	0.524
650.59	0.527
651.04	0.530
651.48	0.539
651.93	0.542
652.38	0.545
652.82	0.550
653.27	0.550
653.72	0.557
654.16	0.563
654.61	0.564
655.06	0.567
655.50	0.570
655.95	0.574
656.39	0.582
656.84	0.582
657.29	0.586
657.73	0.591
658.18	0.593
658.62	0.599
659.07	0.603
659.52	0.598
659.96	0.606
660.41	0.607
660.85	0.608
661.30	0.613
661.74	0.614
662.19	0.618
662.64	0.615
663.08	0.621
663.53	0.621
663.97	0.621
664.42	0.625
664.86	0.624
665.31	0.626
665.75	0.624
666.20	0.627
666.65	0.626
667.09	0.618
667.54	0.617
667.98	0.618
668.43	0.613
668.87	0.611
669.32	0.609
669.76	0.606
670.21	0.600
670.65	0.596
671.10	0.597
671.54	0.585
671.99	0.581
672.43	0.574
672.88	0.567
673.32	0.560
673.77	0.551
674.21	0.544
674.66	0.535
675.10	0.525
675.55	0.513
675.99	0.505
676.44	0.495
676.88	0.484
677.33	0.473
677.77	0.460
678.22	0.452
678.66	0.439
679.11	0.426
679.55	0.419
679.99	0.407
680.44	0.396
680.88	0.386
681.33	0.371
681.77	0.361
682.22	0.351
682.66	0.341
683.11	0.328
683.55	0.320
683.99	0.308
684.44	0.301
684.88	0.288
685.33	0.278
685.77	0.272
686.21	0.261
686.66	0.252
687.10	0.241
687.55	0.234
687.99	0.226
688.44	0.220
688.88	0.209
689.32	0.203
689.77	0.198
690.21	0.188
690.65	0.181
691.10	0.176
691.54	0.171
691.99	0.164
692.43	0.158
692.87	0.155
693.32	0.150
693.76	0.143
694.20	0.140
694.65	0.133
695.09	0.131
695.53	0.129
695.98	0.124
696.42	0.118
696.86	0.115
697.31	0.113
697.75	0.110
698.19	0.105
698.64	0.103
699.08	0.099
699.52	0.100
699.97	0.095
700.41	0.093
700.85	0.090
701.30	0.086
701.74	0.086
702.18	0.082
702.63	0.081
703.07	0.081
703.51	0.081
703.96	0.077
704.40	0.077
704.84	0.074
705.28	0.074
705.73	0.074
706.17	0.070
706.61	0.070
707.06	0.067
707.50	0.068
707.94	0.066
708.38	0.063
708.83	0.063
709.27	0.062
709.71	0.061
710.15	0.062
710.60	0.062
711.04	0.059
711.48	0.059
711.92	0.058
712.37	0.060
712.81	0.057
713.25	0.060
713.69	0.058
714.13	0.057
714.58	0.057
715.02	0.056
715.46	0.055
715.90	0.055
716.35	0.056
716.79	0.054
717.23	0.053
717.67	0.056
718.11	0.055
718.56	0.053
719.00	0.053
719.44	0.053
719.88	0.056
720.32	0.052
720.76	0.053
721.21	0.054
721.65	0.052
722.09	0.054
722.53	0.053
722.97	0.053
723.41	0.052
723.86	0.056
724.30	0.053
724.74	0.051
725.18	0.052
725.62	0.052
726.06	0.052
726.50	0.055
726.95	0.050
727.39	0.053
727.83	0.053
728.27	0.051
728.71	0.050
729.15	0.053
729.59	0.054
730.03	0.052
730.48	0.052
730.92	0.053
731.36	0.055
731.80	0.051
732.24	0.053
732.68	0.052
733.12	0.054
733.56	0.053
734.00	0.056
734.44	0.054
734.89	0.053
735.33	0.056
735.77	0.054
736.21	0.055
736.65	0.052
737.09	0.054
737.53	0.053
737.97	0.053
738.41	0.052
738.85	0.053
739.29	0.055
739.73	0.056
740.17	0.054
740.61	0.053
741.05	0.054
741.49	0.052
741.93	0.053
742.37	0.053
742.81	0.051
743.26	0.054
743.70	0.053
744.14	0.052
744.58	0.055
745.02	0.053
745.46	0.053
745.90	0.054
746.34	0.053
746.78	0.054
747.22	0.054
747.66	0.053
748.10	0.054
748.54	0.053
748.98	0.052
749.42	0.056
749.86	0.054
750.29	0.052
750.73	0.051
751.17	0.052
751.61	0.054
752.05	0.053
752.49	0.054
752.93	0.049
753.37	0.051
753.81	0.051
754.25	0.051
754.69	0.052
755.13	0.051
755.57	0.052
756.01	0.050
756.45	0.052
756.89	0.051
757.33	0.053
757.77	0.052
758.21	0.051
758.64	0.053
759.08	0.051
759.52	0.049
759.96	0.050
760.40	0.052
760.84	0.051
761.28	0.051
761.72	0.052
762.16	0.052
762.60	0.052
763.03	0.047
763.47	0.051
763.91	0.051
764.35	0.046
764.79	0.049
765.23	0.051
765.67	0.049
766.11	0.050
766.54	0.053
766.98	0.050
767.42	0.049
767.86	0.053
768.30	0.052
768.74	0.051
769.17	0.049
769.61	0.049
770.05	0.053
770.49	0.050
770.93	0.052
771.37	0.048
771.80	0.048
772.24	0.048
772.68	0.052
773.12	0.052
773.56	0.050
774.00	0.051
774.43	0.048
774.87	0.048
775.31	0.049
775.75	0.048
776.19	0.050
776.62	0.052
777.06	0.051
777.50	0.050
777.94	0.049
778.37	0.052
778.81	0.048
779.25	0.050
779.69	0.049
780.13	0.052
780.56	0.052
781.00	0.052
781.44	0.049
781.88	0.053
782.31	0.051
782.75	0.050
783.19	0.051
783.63	0.046
784.06	0.047
784.50	0.050
784.94	0.051
785.37	0.044
785.81	0.050
786.25	0.048
786.69	0.049
787.12	0.048
787.56	0.044
788.00	0.052
788.43	0.049
788.87	0.047
789.31	0.048
789.75	0.050
790.18	0.048
790.62	0.051
791.06	0.049
791.49	0.049
791.93	0.052
792.37	0.047
792.80	0.048
793.24	0.045
793.68	0.049
794.11	0.050
794.55	0.047
794.99	0.046
795.42	0.045
795.86	0.045
796.30	0.047
796.73	0.048
797.17	0.050
797.61	0.047
798.04	0.045
798.48	0.045
798.91	0.047
799.35	0.049
799.79	0.048
800.22	0.050
800.66	0.047
801.10	0.047
801.53	0.049
801.97	0.048
802.40	0.047
802.84	0.049
803.28	0.044
803.71	0.049
804.15	0.046
804.58	0.048
805.02	0.045
805.46	0.048
805.89	0.047
806.33	0.048
806.76	0.047
807.20	0.049
807.63	0.049
808.07	0.048
808.51	0.048
808.94	0.048
809.38	0.047
809.81	0.050
810.25	0.050
810.68	0.046
811.12	0.048
811.55	0.045
811.99	0.048
812.42	0.049
812.86	0.046
813.29	0.049
813.73	0.045
814.17	0.049
814.60	0.047
815.04	0.047
815.47	0.048
815.91	0.050
816.34	0.047
816.78	0.045
817.21	0.047
817.65	0.045
