SpectraSuite Data File
++++++++++++++++++++++++++++++++++++
Date: Mon Jul 10 14:02:17 CEST 2017
User: IPCE
Dark Spectrum Present: Yes
Reference Spectrum Present: Yes
Number of Sampled Component Spectra: 1
Spectrometers: HR+C0708
Integration Time (usec): 1000 (HR+C0708)
Spectra Averaged: 10 (HR+C0708)
Boxcar Smoothing: 0 (HR+C0708)
Correct for Electrical Dark: No (HR+C0708)
Strobe/Lamp Enabled: No (HR+C0708)
Correct for Detector Non-linearity: No (HR+C0708)
Correct for Stray Light: No (HR+C0708)
Number of Pixels in Processed Spectrum: 2048
>>>>>Begin Processed Spectral Data<<<<<
188.76	0.731
189.23	-0.000
189.70	-0.000
190.17	0.859
190.64	-0.000
191.12	-0.000
191.59	-0.000
192.06	-0.000
192.53	0.160
193.01	-0.000
193.48	1.422
193.95	-0.000
194.42	0.226
194.90	0.391
195.37	-0.000
195.84	-0.000
196.31	-0.000
196.78	-0.000
197.26	0.244
197.73	0.471
198.20	-0.000
198.67	-0.000
199.14	-0.000
199.62	-0.000
200.09	1.087
200.56	1.115
201.03	1.104
201.50	0.969
201.97	0.656
202.45	0.741
202.92	0.579
203.39	1.308
203.86	0.704
204.33	0.701
204.80	0.716
205.28	0.927
205.75	1.166
206.22	0.795
206.69	0.565
207.16	0.673
207.63	0.667
208.11	0.526
208.58	0.728
209.05	0.558
209.52	0.587
209.99	0.543
210.46	0.627
210.93	1.043
211.41	0.516
211.88	0.609
212.35	0.835
212.82	0.533
213.29	0.405
213.76	1.285
214.23	0.938
214.70	0.568
215.18	1.521
215.65	0.946
216.12	0.627
216.59	0.548
217.06	0.635
217.53	0.689
218.00	0.483
218.47	0.675
218.94	-0.000
219.41	0.724
219.89	0.618
220.36	0.891
220.83	0.584
221.30	1.018
221.77	0.562
222.24	0.778
222.71	1.015
223.18	0.833
223.65	1.013
224.12	0.866
224.59	0.760
225.06	0.755
225.54	-0.000
226.01	1.077
226.48	1.333
226.95	1.516
227.42	1.602
227.89	1.108
228.36	1.601
228.83	1.020
229.30	1.381
229.77	1.210
230.24	1.460
230.71	1.914
231.18	1.732
231.65	1.413
232.12	1.622
232.59	3.077
233.06	1.827
233.53	1.560
234.00	1.587
234.47	1.743
234.94	1.920
235.41	1.782
235.88	2.013
236.35	1.824
236.82	1.952
237.29	2.372
237.76	2.328
238.23	2.779
238.70	2.138
239.17	2.281
239.64	3.118
240.11	2.362
240.58	2.247
241.05	2.919
241.52	2.294
241.99	2.271
242.46	2.643
242.93	2.748
243.40	3.119
243.87	2.577
244.34	3.353
244.81	2.518
245.28	2.689
245.75	2.378
246.22	2.764
246.69	2.558
247.16	2.837
247.63	2.931
248.10	2.927
248.57	2.768
249.04	2.647
249.51	2.925
249.98	2.850
250.45	2.763
250.92	2.675
251.39	3.386
251.85	2.474
252.32	2.520
252.79	3.008
253.26	2.556
253.73	2.697
254.20	2.469
254.67	2.520
255.14	2.760
255.61	2.611
256.08	2.677
256.55	2.877
257.02	2.804
257.49	2.734
257.95	3.018
258.42	2.588
258.89	2.708
259.36	2.882
259.83	2.685
260.30	2.738
260.77	2.809
261.24	2.848
261.71	2.871
262.17	2.814
262.64	2.634
263.11	2.753
263.58	2.951
264.05	2.827
264.52	2.706
264.99	2.792
265.46	2.886
265.92	2.792
266.39	2.904
266.86	3.133
267.33	2.848
267.80	2.688
268.27	2.837
268.74	2.941
269.20	2.944
269.67	2.756
270.14	2.767
270.61	2.619
271.08	2.928
271.55	2.844
272.01	3.087
272.48	2.773
272.95	2.699
273.42	2.909
273.89	2.688
274.36	2.910
274.82	2.714
275.29	2.696
275.76	2.892
276.23	2.676
276.70	2.586
277.16	2.780
277.63	2.669
278.10	2.642
278.57	3.230
279.04	2.736
279.50	2.525
279.97	2.664
280.44	2.480
280.91	2.753
281.38	2.852
281.84	2.717
282.31	2.840
282.78	2.657
283.25	2.574
283.72	2.829
284.18	2.724
284.65	2.837
285.12	2.567
285.59	2.711
286.05	2.616
286.52	2.585
286.99	2.598
287.46	2.648
287.92	2.622
288.39	2.583
288.86	2.762
289.33	2.549
289.79	2.600
290.26	2.534
290.73	2.500
291.20	2.476
291.66	2.524
292.13	2.497
292.60	2.527
293.07	2.740
293.53	2.514
294.00	2.397
294.47	2.505
294.93	2.480
295.40	2.586
295.87	2.429
296.34	2.530
296.80	2.668
297.27	2.452
297.74	2.536
298.20	2.397
298.67	2.409
299.14	2.517
299.60	2.373
300.07	2.342
300.54	2.427
301.01	2.338
301.47	2.441
301.94	2.464
302.41	2.344
302.87	2.326
303.34	2.416
303.81	2.251
304.27	2.338
304.74	2.300
305.21	2.223
305.67	2.364
306.14	2.278
306.61	2.328
307.07	2.340
307.54	2.212
308.01	2.291
308.47	2.242
308.94	2.236
309.40	2.279
309.87	2.181
310.34	2.171
310.80	2.235
311.27	2.169
311.74	2.229
312.20	2.144
312.67	2.238
313.13	2.283
313.60	2.201
314.07	2.180
314.53	2.290
315.00	2.199
315.47	2.169
315.93	2.227
316.40	2.155
316.86	2.168
317.33	2.252
317.80	2.143
318.26	2.175
318.73	2.244
319.19	2.227
319.66	2.215
320.13	2.241
320.59	2.124
321.06	2.139
321.52	2.168
321.99	2.187
322.45	2.162
322.92	2.127
323.39	2.129
323.85	2.155
324.32	2.145
324.78	2.193
325.25	2.146
325.71	2.114
326.18	2.113
326.64	2.136
327.11	2.020
327.58	2.114
328.04	2.035
328.51	2.026
328.97	2.041
329.44	2.022
329.90	1.975
330.37	2.041
330.83	1.984
331.30	2.037
331.76	1.960
332.23	1.965
332.69	1.943
333.16	1.864
333.62	1.912
334.09	1.896
334.56	1.802
335.02	1.809
335.49	1.763
335.95	1.725
336.42	1.676
336.88	1.659
337.35	1.619
337.81	1.603
338.28	1.544
338.74	1.488
339.20	1.493
339.67	1.436
340.13	1.395
340.60	1.377
341.06	1.322
341.53	1.292
341.99	1.243
342.46	1.204
342.92	1.179
343.39	1.129
343.85	1.094
344.32	1.056
344.78	1.028
345.25	0.999
345.71	0.963
346.17	0.931
346.64	0.894
347.10	0.856
347.57	0.816
348.03	0.792
348.50	0.751
348.96	0.730
349.43	0.704
349.89	0.667
350.35	0.655
350.82	0.637
351.28	0.604
351.75	0.580
352.21	0.564
352.67	0.547
353.14	0.525
353.60	0.505
354.07	0.488
354.53	0.476
355.00	0.464
355.46	0.447
355.92	0.440
356.39	0.427
356.85	0.419
357.31	0.406
357.78	0.400
358.24	0.390
358.71	0.383
359.17	0.372
359.63	0.371
360.10	0.366
360.56	0.362
361.03	0.356
361.49	0.352
361.95	0.349
362.42	0.349
362.88	0.343
363.34	0.343
363.81	0.340
364.27	0.339
364.73	0.334
365.20	0.331
365.66	0.329
366.12	0.324
366.59	0.324
367.05	0.324
367.51	0.321
367.98	0.318
368.44	0.316
368.90	0.316
369.37	0.316
369.83	0.310
370.29	0.310
370.76	0.309
371.22	0.309
371.68	0.307
372.15	0.305
372.61	0.307
373.07	0.302
373.54	0.300
374.00	0.298
374.46	0.302
374.92	0.297
375.39	0.296
375.85	0.295
376.31	0.296
376.78	0.292
377.24	0.292
377.70	0.289
378.16	0.290
378.63	0.287
379.09	0.290
379.55	0.290
380.01	0.285
380.48	0.286
380.94	0.285
381.40	0.283
381.87	0.283
382.33	0.282
382.79	0.285
383.25	0.277
383.72	0.281
384.18	0.275
384.64	0.280
385.10	0.279
385.56	0.272
386.03	0.272
386.49	0.274
386.95	0.271
387.41	0.271
387.88	0.268
388.34	0.271
388.80	0.272
389.26	0.266
389.72	0.267
390.19	0.269
390.65	0.266
391.11	0.267
391.57	0.263
392.04	0.264
392.50	0.264
392.96	0.262
393.42	0.259
393.88	0.262
394.34	0.261
394.81	0.258
395.27	0.261
395.73	0.255
396.19	0.258
396.65	0.259
397.12	0.253
397.58	0.253
398.04	0.254
398.50	0.252
398.96	0.253
399.42	0.253
399.89	0.251
400.35	0.250
400.81	0.251
401.27	0.248
401.73	0.249
402.19	0.246
402.65	0.243
403.12	0.245
403.58	0.245
404.04	0.240
404.50	0.241
404.96	0.240
405.42	0.243
405.88	0.240
406.34	0.242
406.81	0.241
407.27	0.236
407.73	0.236
408.19	0.236
408.65	0.235
409.11	0.234
409.57	0.232
410.03	0.231
410.49	0.232
410.96	0.233
411.42	0.230
411.88	0.229
412.34	0.227
412.80	0.229
413.26	0.228
413.72	0.227
414.18	0.227
414.64	0.226
415.10	0.224
415.56	0.224
416.02	0.222
416.48	0.229
416.95	0.222
417.41	0.219
417.87	0.221
418.33	0.219
418.79	0.221
419.25	0.219
419.71	0.220
420.17	0.218
420.63	0.218
421.09	0.217
421.55	0.220
422.01	0.216
422.47	0.215
422.93	0.214
423.39	0.216
423.85	0.212
424.31	0.213
424.77	0.214
425.23	0.213
425.69	0.215
426.15	0.214
426.61	0.212
427.07	0.211
427.53	0.211
427.99	0.209
428.45	0.210
428.91	0.209
429.37	0.208
429.83	0.206
430.29	0.211
430.75	0.209
431.21	0.207
431.67	0.204
432.13	0.203
432.59	0.201
433.05	0.203
433.51	0.202
433.97	0.202
434.43	0.202
434.89	0.200
435.35	0.198
435.81	0.199
436.27	0.198
436.73	0.200
437.19	0.198
437.65	0.200
438.11	0.202
438.57	0.199
439.03	0.196
439.48	0.198
439.94	0.200
440.40	0.194
440.86	0.194
441.32	0.194
441.78	0.191
442.24	0.192
442.70	0.191
443.16	0.192
443.62	0.192
444.08	0.191
444.54	0.193
444.99	0.193
445.45	0.191
445.91	0.188
446.37	0.190
446.83	0.185
447.29	0.188
447.75	0.187
448.21	0.188
448.67	0.188
449.12	0.185
449.58	0.187
450.04	0.185
450.50	0.182
450.96	0.184
451.42	0.183
451.88	0.186
452.34	0.184
452.79	0.180
453.25	0.183
453.71	0.184
454.17	0.180
454.63	0.183
455.09	0.182
455.55	0.179
456.00	0.178
456.46	0.176
456.92	0.176
457.38	0.177
457.84	0.180
458.30	0.176
458.75	0.177
459.21	0.175
459.67	0.179
460.13	0.172
460.59	0.176
461.04	0.178
461.50	0.178
461.96	0.177
462.42	0.176
462.88	0.177
463.33	0.174
463.79	0.174
464.25	0.173
464.71	0.174
465.17	0.175
465.62	0.172
466.08	0.175
466.54	0.174
467.00	0.174
467.46	0.175
467.91	0.173
468.37	0.170
468.83	0.174
469.29	0.172
469.74	0.173
470.20	0.172
470.66	0.170
471.12	0.171
471.57	0.170
472.03	0.167
472.49	0.169
472.95	0.167
473.40	0.168
473.86	0.168
474.32	0.170
474.78	0.169
475.23	0.164
475.69	0.167
476.15	0.168
476.60	0.168
477.06	0.165
477.52	0.167
477.98	0.166
478.43	0.166
478.89	0.164
479.35	0.163
479.80	0.167
480.26	0.163
480.72	0.166
481.18	0.164
481.63	0.163
482.09	0.163
482.55	0.165
483.00	0.166
483.46	0.162
483.92	0.164
484.37	0.164
484.83	0.162
485.29	0.163
485.74	0.162
486.20	0.163
486.66	0.161
487.11	0.162
487.57	0.161
488.03	0.161
488.48	0.159
488.94	0.161
489.40	0.161
489.85	0.161
490.31	0.160
490.77	0.160
491.22	0.158
491.68	0.160
492.13	0.157
492.59	0.158
493.05	0.159
493.50	0.156
493.96	0.158
494.42	0.156
494.87	0.158
495.33	0.160
495.78	0.158
496.24	0.157
496.70	0.158
497.15	0.156
497.61	0.157
498.06	0.157
498.52	0.154
498.98	0.155
499.43	0.154
499.89	0.155
500.34	0.156
500.80	0.155
501.25	0.155
501.71	0.155
502.17	0.154
502.62	0.154
503.08	0.154
503.53	0.151
503.99	0.150
504.44	0.152
504.90	0.151
505.36	0.153
505.81	0.152
506.27	0.152
506.72	0.149
507.18	0.149
507.63	0.150
508.09	0.150
508.54	0.149
509.00	0.148
509.45	0.149
509.91	0.150
510.36	0.148
510.82	0.151
511.27	0.152
511.73	0.149
512.19	0.146
512.64	0.150
513.10	0.148
513.55	0.145
514.01	0.147
514.46	0.150
514.92	0.147
515.37	0.145
515.83	0.148
516.28	0.147
516.73	0.145
517.19	0.143
517.64	0.147
518.10	0.145
518.55	0.144
519.01	0.144
519.46	0.144
519.92	0.146
520.37	0.144
520.83	0.146
521.28	0.145
521.74	0.144
522.19	0.142
522.65	0.143
523.10	0.143
523.55	0.143
524.01	0.142
524.46	0.142
524.92	0.142
525.37	0.144
525.83	0.141
526.28	0.141
526.73	0.140
527.19	0.142
527.64	0.143
528.10	0.141
528.55	0.140
529.01	0.141
529.46	0.141
529.91	0.141
530.37	0.142
530.82	0.141
531.28	0.139
531.73	0.142
532.18	0.139
532.64	0.139
533.09	0.139
533.54	0.141
534.00	0.138
534.45	0.142
534.91	0.141
535.36	0.139
535.81	0.139
536.27	0.141
536.72	0.139
537.17	0.137
537.63	0.142
538.08	0.141
538.54	0.140
538.99	0.140
539.44	0.143
539.90	0.141
540.35	0.139
540.80	0.141
541.26	0.141
541.71	0.139
542.16	0.142
542.62	0.142
543.07	0.141
543.52	0.139
543.98	0.140
544.43	0.141
544.88	0.142
545.34	0.141
545.79	0.141
546.24	0.143
546.69	0.141
547.15	0.143
547.60	0.143
548.05	0.145
548.51	0.141
548.96	0.143
549.41	0.145
549.86	0.142
550.32	0.144
550.77	0.144
551.22	0.143
551.68	0.145
552.13	0.144
552.58	0.145
553.03	0.146
553.49	0.144
553.94	0.149
554.39	0.147
554.84	0.145
555.30	0.147
555.75	0.145
556.20	0.148
556.65	0.148
557.11	0.147
557.56	0.148
558.01	0.147
558.46	0.150
558.92	0.152
559.37	0.150
559.82	0.147
560.27	0.149
560.72	0.151
561.18	0.152
561.63	0.151
562.08	0.151
562.53	0.152
562.99	0.153
563.44	0.151
563.89	0.152
564.34	0.153
564.79	0.153
565.25	0.155
565.70	0.155
566.15	0.155
566.60	0.153
567.05	0.156
567.50	0.156
567.96	0.156
568.41	0.158
568.86	0.158
569.31	0.159
569.76	0.159
570.21	0.159
570.67	0.161
571.12	0.159
571.57	0.160
572.02	0.161
572.47	0.161
572.92	0.164
573.37	0.162
573.83	0.163
574.28	0.163
574.73	0.162
575.18	0.166
575.63	0.166
576.08	0.165
576.53	0.165
576.98	0.169
577.44	0.168
577.89	0.169
578.34	0.171
578.79	0.170
579.24	0.169
579.69	0.172
580.14	0.175
580.59	0.173
581.04	0.174
581.49	0.177
581.95	0.175
582.40	0.177
582.85	0.178
583.30	0.178
583.75	0.180
584.20	0.183
584.65	0.182
585.10	0.183
585.55	0.185
586.00	0.187
586.45	0.188
586.90	0.189
587.35	0.190
587.80	0.190
588.25	0.190
588.71	0.193
589.16	0.196
589.61	0.197
590.06	0.198
590.51	0.201
590.96	0.199
591.41	0.201
591.86	0.204
592.31	0.204
592.76	0.204
593.21	0.205
593.66	0.210
594.11	0.212
594.56	0.213
595.01	0.215
595.46	0.214
595.91	0.218
596.36	0.218
596.81	0.222
597.26	0.220
597.71	0.223
598.16	0.226
598.61	0.226
599.06	0.227
599.51	0.228
599.96	0.230
600.41	0.233
600.86	0.235
601.31	0.236
601.76	0.238
602.21	0.240
602.65	0.238
603.10	0.242
603.55	0.245
604.00	0.245
604.45	0.248
604.90	0.248
605.35	0.250
605.80	0.251
606.25	0.254
606.70	0.254
607.15	0.255
607.60	0.256
608.05	0.258
608.50	0.258
608.95	0.259
609.39	0.260
609.84	0.261
610.29	0.265
610.74	0.263
611.19	0.267
611.64	0.265
612.09	0.264
612.54	0.267
612.99	0.268
613.44	0.270
613.88	0.268
614.33	0.268
614.78	0.270
615.23	0.271
615.68	0.271
616.13	0.273
616.58	0.276
617.03	0.273
617.47	0.274
617.92	0.272
618.37	0.275
618.82	0.273
619.27	0.276
619.72	0.276
620.17	0.273
620.61	0.276
621.06	0.275
621.51	0.276
621.96	0.276
622.41	0.277
622.86	0.279
623.30	0.278
623.75	0.277
624.20	0.280
624.65	0.280
625.10	0.280
625.54	0.278
625.99	0.281
626.44	0.284
626.89	0.283
627.34	0.283
627.78	0.284
628.23	0.287
628.68	0.289
629.13	0.287
629.58	0.286
630.02	0.291
630.47	0.291
630.92	0.292
631.37	0.295
631.81	0.295
632.26	0.298
632.71	0.296
633.16	0.299
633.61	0.300
634.05	0.302
634.50	0.303
634.95	0.305
635.40	0.306
635.84	0.308
636.29	0.312
636.74	0.315
637.18	0.314
637.63	0.316
638.08	0.319
638.53	0.322
638.97	0.321
639.42	0.328
639.87	0.327
640.32	0.330
640.76	0.332
641.21	0.336
641.66	0.335
642.10	0.340
642.55	0.344
643.00	0.346
643.44	0.345
643.89	0.351
644.34	0.351
644.79	0.358
645.23	0.358
645.68	0.362
646.13	0.365
646.57	0.367
647.02	0.373
647.47	0.375
647.91	0.375
648.36	0.379
648.81	0.382
649.25	0.383
649.70	0.385
650.15	0.390
650.59	0.393
651.04	0.392
651.48	0.396
651.93	0.399
652.38	0.401
652.82	0.401
653.27	0.402
653.72	0.409
654.16	0.412
654.61	0.414
655.06	0.416
655.50	0.414
655.95	0.420
656.39	0.420
656.84	0.423
657.29	0.425
657.73	0.427
658.18	0.430
658.62	0.430
659.07	0.432
659.52	0.433
659.96	0.438
660.41	0.438
660.85	0.436
661.30	0.439
661.74	0.441
662.19	0.442
662.64	0.443
663.08	0.445
663.53	0.445
663.97	0.443
664.42	0.442
664.86	0.444
665.31	0.447
665.75	0.443
666.20	0.445
666.65	0.444
667.09	0.443
667.54	0.439
667.98	0.440
668.43	0.439
668.87	0.437
669.32	0.432
669.76	0.431
670.21	0.425
670.65	0.428
671.10	0.422
671.54	0.420
671.99	0.414
672.43	0.410
672.88	0.404
673.32	0.398
673.77	0.395
674.21	0.392
674.66	0.383
675.10	0.376
675.55	0.370
675.99	0.366
676.44	0.357
676.88	0.353
677.33	0.346
677.77	0.337
678.22	0.330
678.66	0.323
679.11	0.315
679.55	0.309
679.99	0.303
680.44	0.297
680.88	0.290
681.33	0.280
681.77	0.276
682.22	0.267
682.66	0.260
683.11	0.253
683.55	0.246
683.99	0.240
684.44	0.237
684.88	0.226
685.33	0.221
685.77	0.216
686.21	0.209
686.66	0.205
687.10	0.195
687.55	0.193
687.99	0.190
688.44	0.184
688.88	0.178
689.32	0.172
689.77	0.170
690.21	0.166
690.65	0.157
691.10	0.156
691.54	0.153
691.99	0.149
692.43	0.145
692.87	0.142
693.32	0.139
693.76	0.133
694.20	0.133
694.65	0.130
695.09	0.127
695.53	0.126
695.98	0.121
696.42	0.118
696.86	0.114
697.31	0.117
697.75	0.113
698.19	0.111
698.64	0.109
699.08	0.106
699.52	0.107
699.97	0.103
700.41	0.105
700.85	0.100
701.30	0.099
701.74	0.098
702.18	0.098
702.63	0.097
703.07	0.093
703.51	0.096
703.96	0.093
704.40	0.092
704.84	0.093
705.28	0.091
705.73	0.091
706.17	0.089
706.61	0.088
707.06	0.087
707.50	0.086
707.94	0.084
708.38	0.083
708.83	0.083
709.27	0.084
709.71	0.082
710.15	0.083
710.60	0.081
711.04	0.081
711.48	0.078
711.92	0.078
712.37	0.082
712.81	0.078
713.25	0.081
713.69	0.083
714.13	0.079
714.58	0.080
715.02	0.081
715.46	0.076
715.90	0.079
716.35	0.078
716.79	0.078
717.23	0.078
717.67	0.077
718.11	0.078
718.56	0.078
719.00	0.076
719.44	0.077
719.88	0.078
720.32	0.076
720.76	0.078
721.21	0.077
721.65	0.074
722.09	0.077
722.53	0.076
722.97	0.075
723.41	0.074
723.86	0.077
724.30	0.075
724.74	0.077
725.18	0.075
725.62	0.077
726.06	0.076
726.50	0.075
726.95	0.076
727.39	0.076
727.83	0.077
728.27	0.076
728.71	0.075
729.15	0.075
729.59	0.079
730.03	0.077
730.48	0.076
730.92	0.076
731.36	0.076
731.80	0.077
732.24	0.073
732.68	0.077
733.12	0.079
733.56	0.076
734.00	0.080
734.44	0.078
734.89	0.076
735.33	0.076
735.77	0.078
736.21	0.078
736.65	0.076
737.09	0.077
737.53	0.078
737.97	0.076
738.41	0.075
738.85	0.078
739.29	0.076
739.73	0.077
740.17	0.079
740.61	0.078
741.05	0.077
741.49	0.078
741.93	0.076
742.37	0.076
742.81	0.076
743.26	0.077
743.70	0.074
744.14	0.075
744.58	0.076
745.02	0.074
745.46	0.074
745.90	0.076
746.34	0.078
746.78	0.075
747.22	0.076
747.66	0.077
748.10	0.076
748.54	0.079
748.98	0.077
749.42	0.076
749.86	0.077
750.29	0.074
750.73	0.074
751.17	0.076
751.61	0.077
752.05	0.076
752.49	0.076
752.93	0.073
753.37	0.075
753.81	0.075
754.25	0.074
754.69	0.079
755.13	0.074
755.57	0.075
756.01	0.074
756.45	0.073
756.89	0.074
757.33	0.077
757.77	0.072
758.21	0.074
758.64	0.076
759.08	0.071
759.52	0.072
759.96	0.074
760.40	0.072
760.84	0.073
761.28	0.073
761.72	0.073
762.16	0.073
762.60	0.073
763.03	0.073
763.47	0.074
763.91	0.073
764.35	0.072
764.79	0.071
765.23	0.074
765.67	0.071
766.11	0.072
766.54	0.074
766.98	0.073
767.42	0.072
767.86	0.073
768.30	0.074
768.74	0.071
769.17	0.073
769.61	0.070
770.05	0.074
770.49	0.073
770.93	0.069
771.37	0.070
771.80	0.072
772.24	0.070
772.68	0.073
773.12	0.075
773.56	0.072
774.00	0.071
774.43	0.071
774.87	0.070
775.31	0.074
775.75	0.071
776.19	0.071
776.62	0.071
777.06	0.072
777.50	0.070
777.94	0.070
778.37	0.073
778.81	0.071
779.25	0.073
779.69	0.070
780.13	0.074
780.56	0.072
781.00	0.072
781.44	0.074
781.88	0.074
782.31	0.073
782.75	0.069
783.19	0.072
783.63	0.070
784.06	0.073
784.50	0.071
784.94	0.072
785.37	0.070
785.81	0.073
786.25	0.067
786.69	0.070
787.12	0.068
787.56	0.068
788.00	0.071
788.43	0.070
788.87	0.072
789.31	0.068
789.75	0.071
790.18	0.068
790.62	0.069
791.06	0.072
791.49	0.068
791.93	0.072
792.37	0.069
792.80	0.069
793.24	0.065
793.68	0.068
794.11	0.069
794.55	0.070
794.99	0.066
795.42	0.067
795.86	0.068
796.30	0.069
796.73	0.066
797.17	0.072
797.61	0.066
798.04	0.068
798.48	0.066
798.91	0.064
799.35	0.069
799.79	0.068
800.22	0.068
800.66	0.067
801.10	0.070
801.53	0.069
801.97	0.068
802.40	0.065
802.84	0.071
803.28	0.068
803.71	0.069
804.15	0.070
804.58	0.067
805.02	0.065
805.46	0.068
805.89	0.071
806.33	0.069
806.76	0.067
807.20	0.067
807.63	0.069
808.07	0.068
808.51	0.063
808.94	0.067
809.38	0.068
809.81	0.068
810.25	0.069
810.68	0.068
811.12	0.068
811.55	0.067
811.99	0.067
812.42	0.067
812.86	0.069
813.29	0.069
813.73	0.065
814.17	0.068
814.60	0.066
815.04	0.069
815.47	0.066
815.91	0.067
816.34	0.064
816.78	0.064
817.21	0.067
817.65	0.065
