SpectraSuite Data File
++++++++++++++++++++++++++++++++++++
Date: Mon Jul 10 14:06:47 CEST 2017
User: IPCE
Dark Spectrum Present: Yes
Reference Spectrum Present: Yes
Number of Sampled Component Spectra: 1
Spectrometers: HR+C0708
Integration Time (usec): 1000 (HR+C0708)
Spectra Averaged: 10 (HR+C0708)
Boxcar Smoothing: 0 (HR+C0708)
Correct for Electrical Dark: No (HR+C0708)
Strobe/Lamp Enabled: No (HR+C0708)
Correct for Detector Non-linearity: No (HR+C0708)
Correct for Stray Light: No (HR+C0708)
Number of Pixels in Processed Spectrum: 2048
>>>>>Begin Processed Spectral Data<<<<<
188.76	0.474
189.23	0.682
189.70	-0.000
190.17	-0.000
190.64	-0.000
191.12	-0.377
191.59	-0.000
192.06	0.940
192.53	0.168
193.01	-0.000
193.48	-0.000
193.95	-0.000
194.42	0.076
194.90	0.205
195.37	-0.000
195.84	0.196
196.31	-0.000
196.78	-0.000
197.26	-0.000
197.73	0.151
198.20	-0.000
198.67	1.342
199.14	0.867
199.62	-0.000
200.09	1.112
200.56	-0.000
201.03	0.773
201.50	0.456
201.97	0.898
202.45	-0.000
202.92	0.372
203.39	1.484
203.86	1.477
204.33	1.034
204.80	0.669
205.28	1.265
205.75	-0.000
206.22	0.635
206.69	0.523
207.16	-0.000
207.63	0.876
208.11	0.209
208.58	0.938
209.05	0.628
209.52	0.602
209.99	0.949
210.46	0.729
210.93	-0.000
211.41	0.532
211.88	0.401
212.35	0.650
212.82	0.798
213.29	0.325
213.76	-0.000
214.23	1.284
214.70	0.554
215.18	-0.000
215.65	0.821
216.12	0.784
216.59	0.639
217.06	0.512
217.53	1.020
218.00	0.758
218.47	0.313
218.94	1.388
219.41	0.719
219.89	0.566
220.36	0.701
220.83	0.725
221.30	1.082
221.77	0.587
222.24	0.744
222.71	1.242
223.18	0.633
223.65	0.562
224.12	1.383
224.59	0.864
225.06	0.755
225.54	2.206
226.01	1.223
226.48	1.401
226.95	1.620
227.42	1.036
227.89	1.544
228.36	1.538
228.83	0.927
229.30	1.494
229.77	1.669
230.24	1.423
230.71	-0.000
231.18	1.532
231.65	1.491
232.12	1.794
232.59	1.853
233.06	1.867
233.53	1.668
234.00	1.686
234.47	2.423
234.94	1.920
235.41	1.662
235.88	2.894
236.35	2.125
236.82	2.136
237.29	4.121
237.76	2.461
238.23	3.416
238.70	2.334
239.17	2.281
239.64	2.554
240.11	2.560
240.58	1.978
241.05	3.020
241.52	2.281
241.99	2.325
242.46	2.957
242.93	2.781
243.40	3.596
243.87	2.832
244.34	2.949
244.81	3.551
245.28	2.513
245.75	2.190
246.22	-0.000
246.69	2.775
247.16	2.651
247.63	2.617
248.10	2.993
248.57	2.724
249.04	2.377
249.51	2.735
249.98	2.949
250.45	2.854
250.92	2.356
251.39	-0.000
251.85	2.832
252.32	2.642
252.79	-0.000
253.26	2.415
253.73	2.811
254.20	2.466
254.67	2.785
255.14	3.519
255.61	2.560
256.08	2.545
256.55	2.927
257.02	2.922
257.49	2.610
257.95	3.293
258.42	2.664
258.89	2.727
259.36	2.823
259.83	2.789
260.30	3.141
260.77	2.711
261.24	2.594
261.71	3.055
262.17	2.790
262.64	2.524
263.11	3.125
263.58	3.073
264.05	2.834
264.52	2.807
264.99	3.159
265.46	2.964
265.92	2.698
266.39	2.843
266.86	-0.000
267.33	3.314
267.80	2.664
268.27	3.069
268.74	3.025
269.20	2.579
269.67	2.942
270.14	2.672
270.61	2.779
271.08	2.713
271.55	2.675
272.01	-0.000
272.48	2.924
272.95	2.527
273.42	3.307
273.89	2.771
274.36	2.699
274.82	2.733
275.29	2.784
275.76	2.998
276.23	2.681
276.70	2.464
277.16	2.847
277.63	2.926
278.10	2.504
278.57	3.500
279.04	2.684
279.50	2.326
279.97	2.703
280.44	2.766
280.91	2.875
281.38	2.625
281.84	2.526
282.31	3.118
282.78	2.650
283.25	2.437
283.72	2.844
284.18	2.619
284.65	2.535
285.12	2.575
285.59	2.870
286.05	2.490
286.52	2.549
286.99	2.552
287.46	2.862
287.92	2.600
288.39	2.480
288.86	2.680
289.33	2.655
289.79	2.415
290.26	2.602
290.73	2.573
291.20	2.601
291.66	2.442
292.13	2.595
292.60	2.578
293.07	2.540
293.53	2.414
294.00	2.514
294.47	2.649
294.93	2.338
295.40	2.510
295.87	2.492
296.34	2.454
296.80	2.363
297.27	2.451
297.74	2.503
298.20	2.495
298.67	2.349
299.14	2.615
299.60	2.330
300.07	2.221
300.54	2.501
301.01	2.420
301.47	2.317
301.94	2.425
302.41	2.368
302.87	2.323
303.34	2.255
303.81	2.112
304.27	2.330
304.74	2.340
305.21	2.125
305.67	2.367
306.14	2.287
306.61	2.139
307.07	2.263
307.54	2.222
308.01	2.276
308.47	2.242
308.94	2.183
309.40	2.282
309.87	2.168
310.34	2.068
310.80	2.196
311.27	2.189
311.74	2.092
312.20	2.189
312.67	2.190
313.13	2.232
313.60	2.122
314.07	2.079
314.53	2.192
315.00	2.099
315.47	2.058
315.93	2.175
316.40	2.157
316.86	2.086
317.33	2.178
317.80	2.158
318.26	2.166
318.73	2.103
319.19	2.093
319.66	2.175
320.13	2.137
320.59	2.034
321.06	2.143
321.52	2.134
321.99	1.988
322.45	2.120
322.92	2.124
323.39	2.038
323.85	2.097
324.32	2.090
324.78	2.103
325.25	2.090
325.71	1.983
326.18	2.099
326.64	2.046
327.11	1.985
327.58	2.132
328.04	2.018
328.51	1.998
328.97	2.015
329.44	2.004
329.90	2.017
330.37	2.025
330.83	1.905
331.30	2.030
331.76	1.984
332.23	1.879
332.69	1.948
333.16	1.907
333.62	1.877
334.09	1.885
334.56	1.798
335.02	1.826
335.49	1.781
335.95	1.709
336.42	1.731
336.88	1.672
337.35	1.622
337.81	1.610
338.28	1.566
338.74	1.506
339.20	1.545
339.67	1.505
340.13	1.454
340.60	1.413
341.06	1.352
341.53	1.346
341.99	1.298
342.46	1.256
342.92	1.235
343.39	1.188
343.85	1.140
344.32	1.127
344.78	1.095
345.25	1.063
345.71	1.021
346.17	0.987
346.64	0.961
347.10	0.919
347.57	0.874
348.03	0.854
348.50	0.817
348.96	0.783
349.43	0.769
349.89	0.731
350.35	0.712
350.82	0.683
351.28	0.658
351.75	0.646
352.21	0.624
352.67	0.598
353.14	0.589
353.60	0.567
354.07	0.537
354.53	0.532
355.00	0.520
355.46	0.498
355.92	0.497
356.39	0.477
356.85	0.466
357.31	0.454
357.78	0.445
358.24	0.442
358.71	0.428
359.17	0.423
359.63	0.420
360.10	0.409
360.56	0.410
361.03	0.404
361.49	0.396
361.95	0.392
362.42	0.390
362.88	0.385
363.34	0.384
363.81	0.382
364.27	0.375
364.73	0.375
365.20	0.372
365.66	0.369
366.12	0.370
366.59	0.368
367.05	0.366
367.51	0.364
367.98	0.361
368.44	0.362
368.90	0.356
369.37	0.351
369.83	0.351
370.29	0.351
370.76	0.347
371.22	0.350
371.68	0.347
372.15	0.346
372.61	0.345
373.07	0.343
373.54	0.341
374.00	0.338
374.46	0.338
374.92	0.338
375.39	0.337
375.85	0.336
376.31	0.335
376.78	0.333
377.24	0.330
377.70	0.329
378.16	0.330
378.63	0.330
379.09	0.328
379.55	0.326
380.01	0.325
380.48	0.321
380.94	0.321
381.40	0.321
381.87	0.321
382.33	0.322
382.79	0.323
383.25	0.314
383.72	0.320
384.18	0.314
384.64	0.313
385.10	0.315
385.56	0.314
386.03	0.309
386.49	0.314
386.95	0.310
387.41	0.309
387.88	0.307
388.34	0.305
388.80	0.311
389.26	0.304
389.72	0.303
390.19	0.305
390.65	0.302
391.11	0.299
391.57	0.302
392.04	0.300
392.50	0.298
392.96	0.302
393.42	0.298
393.88	0.296
394.34	0.297
394.81	0.293
395.27	0.297
395.73	0.292
396.19	0.290
396.65	0.297
397.12	0.290
397.58	0.292
398.04	0.290
398.50	0.286
398.96	0.291
399.42	0.287
399.89	0.287
400.35	0.288
400.81	0.284
401.27	0.281
401.73	0.283
402.19	0.281
402.65	0.276
403.12	0.278
403.58	0.280
404.04	0.279
404.50	0.276
404.96	0.273
405.42	0.276
405.88	0.269
406.34	0.271
406.81	0.273
407.27	0.269
407.73	0.272
408.19	0.269
408.65	0.265
409.11	0.268
409.57	0.267
410.03	0.266
410.49	0.264
410.96	0.266
411.42	0.263
411.88	0.260
412.34	0.261
412.80	0.258
413.26	0.262
413.72	0.260
414.18	0.257
414.64	0.256
415.10	0.254
415.56	0.258
416.02	0.257
416.48	0.255
416.95	0.254
417.41	0.254
417.87	0.252
418.33	0.252
418.79	0.251
419.25	0.246
419.71	0.253
420.17	0.248
420.63	0.248
421.09	0.248
421.55	0.249
422.01	0.252
422.47	0.248
422.93	0.245
423.39	0.245
423.85	0.245
424.31	0.245
424.77	0.246
425.23	0.244
425.69	0.245
426.15	0.244
426.61	0.240
427.07	0.242
427.53	0.241
427.99	0.239
428.45	0.241
428.91	0.239
429.37	0.235
429.83	0.238
430.29	0.240
430.75	0.240
431.21	0.239
431.67	0.234
432.13	0.236
432.59	0.228
433.05	0.233
433.51	0.235
433.97	0.230
434.43	0.232
434.89	0.230
435.35	0.230
435.81	0.226
436.27	0.228
436.73	0.224
437.19	0.228
437.65	0.228
438.11	0.227
438.57	0.227
439.03	0.226
439.48	0.223
439.94	0.225
440.40	0.223
440.86	0.224
441.32	0.222
441.78	0.224
442.24	0.222
442.70	0.218
443.16	0.218
443.62	0.222
444.08	0.220
444.54	0.218
444.99	0.221
445.45	0.219
445.91	0.214
446.37	0.217
446.83	0.213
447.29	0.216
447.75	0.213
448.21	0.212
448.67	0.216
449.12	0.213
449.58	0.211
450.04	0.212
450.50	0.209
450.96	0.209
451.42	0.211
451.88	0.213
452.34	0.211
452.79	0.209
453.25	0.210
453.71	0.208
454.17	0.210
454.63	0.207
455.09	0.212
455.55	0.206
456.00	0.208
456.46	0.205
456.92	0.206
457.38	0.204
457.84	0.204
458.30	0.202
458.75	0.205
459.21	0.200
459.67	0.203
460.13	0.200
460.59	0.201
461.04	0.202
461.50	0.205
461.96	0.201
462.42	0.201
462.88	0.203
463.33	0.198
463.79	0.201
464.25	0.200
464.71	0.197
465.17	0.198
465.62	0.198
466.08	0.198
466.54	0.198
467.00	0.201
467.46	0.197
467.91	0.197
468.37	0.196
468.83	0.200
469.29	0.197
469.74	0.195
470.20	0.197
470.66	0.194
471.12	0.197
471.57	0.197
472.03	0.194
472.49	0.195
472.95	0.195
473.40	0.191
473.86	0.192
474.32	0.191
474.78	0.193
475.23	0.191
475.69	0.193
476.15	0.188
476.60	0.190
477.06	0.190
477.52	0.187
477.98	0.190
478.43	0.189
478.89	0.189
479.35	0.186
479.80	0.189
480.26	0.188
480.72	0.189
481.18	0.187
481.63	0.187
482.09	0.186
482.55	0.188
483.00	0.189
483.46	0.186
483.92	0.185
484.37	0.187
484.83	0.183
485.29	0.189
485.74	0.185
486.20	0.187
486.66	0.185
487.11	0.185
487.57	0.181
488.03	0.184
488.48	0.184
488.94	0.182
489.40	0.182
489.85	0.183
490.31	0.181
490.77	0.181
491.22	0.179
491.68	0.181
492.13	0.179
492.59	0.180
493.05	0.182
493.50	0.180
493.96	0.180
494.42	0.179
494.87	0.179
495.33	0.181
495.78	0.181
496.24	0.180
496.70	0.179
497.15	0.177
497.61	0.177
498.06	0.180
498.52	0.176
498.98	0.176
499.43	0.178
499.89	0.176
500.34	0.177
500.80	0.175
501.25	0.175
501.71	0.174
502.17	0.173
502.62	0.175
503.08	0.173
503.53	0.174
503.99	0.172
504.44	0.172
504.90	0.173
505.36	0.172
505.81	0.171
506.27	0.171
506.72	0.172
507.18	0.170
507.63	0.170
508.09	0.172
508.54	0.169
509.00	0.169
509.45	0.171
509.91	0.170
510.36	0.168
510.82	0.169
511.27	0.169
511.73	0.171
512.19	0.166
512.64	0.169
513.10	0.168
513.55	0.168
514.01	0.167
514.46	0.167
514.92	0.165
515.37	0.165
515.83	0.167
516.28	0.164
516.73	0.165
517.19	0.163
517.64	0.164
518.10	0.164
518.55	0.162
519.01	0.162
519.46	0.164
519.92	0.163
520.37	0.165
520.83	0.164
521.28	0.163
521.74	0.163
522.19	0.158
522.65	0.161
523.10	0.162
523.55	0.162
524.01	0.160
524.46	0.162
524.92	0.159
525.37	0.160
525.83	0.160
526.28	0.159
526.73	0.164
527.19	0.161
527.64	0.160
528.10	0.159
528.55	0.160
529.01	0.161
529.46	0.161
529.91	0.160
530.37	0.160
530.82	0.158
531.28	0.159
531.73	0.159
532.18	0.159
532.64	0.155
533.09	0.160
533.54	0.158
534.00	0.158
534.45	0.162
534.91	0.159
535.36	0.157
535.81	0.158
536.27	0.158
536.72	0.158
537.17	0.156
537.63	0.159
538.08	0.158
538.54	0.157
538.99	0.157
539.44	0.158
539.90	0.158
540.35	0.157
540.80	0.159
541.26	0.156
541.71	0.157
542.16	0.159
542.62	0.160
543.07	0.158
543.52	0.155
543.98	0.158
544.43	0.158
544.88	0.159
545.34	0.159
545.79	0.160
546.24	0.158
546.69	0.159
547.15	0.158
547.60	0.160
548.05	0.160
548.51	0.157
548.96	0.158
549.41	0.161
549.86	0.159
550.32	0.159
550.77	0.160
551.22	0.162
551.68	0.161
552.13	0.160
552.58	0.161
553.03	0.163
553.49	0.162
553.94	0.161
554.39	0.164
554.84	0.160
555.30	0.161
555.75	0.163
556.20	0.162
556.65	0.164
557.11	0.165
557.56	0.166
558.01	0.164
558.46	0.164
558.92	0.167
559.37	0.165
559.82	0.164
560.27	0.163
560.72	0.166
561.18	0.168
561.63	0.165
562.08	0.169
562.53	0.166
562.99	0.169
563.44	0.168
563.89	0.165
564.34	0.168
564.79	0.169
565.25	0.168
565.70	0.169
566.15	0.169
566.60	0.167
567.05	0.170
567.50	0.170
567.96	0.170
568.41	0.172
568.86	0.175
569.31	0.176
569.76	0.172
570.21	0.174
570.67	0.174
571.12	0.174
571.57	0.174
572.02	0.177
572.47	0.176
572.92	0.176
573.37	0.176
573.83	0.176
574.28	0.175
574.73	0.176
575.18	0.179
575.63	0.179
576.08	0.179
576.53	0.177
576.98	0.183
577.44	0.180
577.89	0.184
578.34	0.185
578.79	0.184
579.24	0.183
579.69	0.185
580.14	0.185
580.59	0.186
581.04	0.188
581.49	0.187
581.95	0.189
582.40	0.189
582.85	0.190
583.30	0.190
583.75	0.192
584.20	0.196
584.65	0.193
585.10	0.196
585.55	0.197
586.00	0.197
586.45	0.198
586.90	0.200
587.35	0.202
587.80	0.203
588.25	0.202
588.71	0.202
589.16	0.209
589.61	0.208
590.06	0.207
590.51	0.212
590.96	0.209
591.41	0.211
591.86	0.214
592.31	0.216
592.76	0.216
593.21	0.217
593.66	0.220
594.11	0.221
594.56	0.223
595.01	0.224
595.46	0.223
595.91	0.227
596.36	0.227
596.81	0.230
597.26	0.232
597.71	0.232
598.16	0.234
598.61	0.236
599.06	0.237
599.51	0.236
599.96	0.239
600.41	0.242
600.86	0.243
601.31	0.243
601.76	0.244
602.21	0.247
602.65	0.246
603.10	0.250
603.55	0.252
604.00	0.251
604.45	0.253
604.90	0.254
605.35	0.259
605.80	0.257
606.25	0.258
606.70	0.260
607.15	0.260
607.60	0.260
608.05	0.264
608.50	0.264
608.95	0.266
609.39	0.266
609.84	0.267
610.29	0.271
610.74	0.270
611.19	0.268
611.64	0.272
612.09	0.268
612.54	0.270
612.99	0.273
613.44	0.272
613.88	0.273
614.33	0.275
614.78	0.274
615.23	0.274
615.68	0.274
616.13	0.276
616.58	0.277
617.03	0.277
617.47	0.278
617.92	0.277
618.37	0.276
618.82	0.277
619.27	0.279
619.72	0.281
620.17	0.278
620.61	0.280
621.06	0.279
621.51	0.283
621.96	0.279
622.41	0.280
622.86	0.281
623.30	0.283
623.75	0.281
624.20	0.284
624.65	0.285
625.10	0.285
625.54	0.284
625.99	0.285
626.44	0.287
626.89	0.286
627.34	0.286
627.78	0.288
628.23	0.290
628.68	0.289
629.13	0.289
629.58	0.289
630.02	0.293
630.47	0.293
630.92	0.295
631.37	0.297
631.81	0.297
632.26	0.297
632.71	0.299
633.16	0.303
633.61	0.302
634.05	0.304
634.50	0.306
634.95	0.307
635.40	0.311
635.84	0.312
636.29	0.314
636.74	0.314
637.18	0.314
637.63	0.316
638.08	0.319
638.53	0.323
638.97	0.324
639.42	0.327
639.87	0.328
640.32	0.331
640.76	0.330
641.21	0.335
641.66	0.334
642.10	0.339
642.55	0.342
643.00	0.344
643.44	0.345
643.89	0.349
644.34	0.352
644.79	0.353
645.23	0.355
645.68	0.359
646.13	0.364
646.57	0.363
647.02	0.367
647.47	0.370
647.91	0.372
648.36	0.374
648.81	0.377
649.25	0.378
649.70	0.378
650.15	0.383
650.59	0.386
651.04	0.388
651.48	0.392
651.93	0.393
652.38	0.396
652.82	0.395
653.27	0.398
653.72	0.402
654.16	0.404
654.61	0.407
655.06	0.408
655.50	0.407
655.95	0.407
656.39	0.412
656.84	0.416
657.29	0.418
657.73	0.419
658.18	0.418
658.62	0.425
659.07	0.423
659.52	0.420
659.96	0.429
660.41	0.426
660.85	0.425
661.30	0.430
661.74	0.428
662.19	0.431
662.64	0.431
663.08	0.430
663.53	0.436
663.97	0.435
664.42	0.431
664.86	0.434
665.31	0.435
665.75	0.431
666.20	0.431
666.65	0.433
667.09	0.431
667.54	0.428
667.98	0.424
668.43	0.428
668.87	0.425
669.32	0.420
669.76	0.419
670.21	0.415
670.65	0.415
671.10	0.412
671.54	0.408
671.99	0.405
672.43	0.399
672.88	0.391
673.32	0.389
673.77	0.382
674.21	0.379
674.66	0.377
675.10	0.369
675.55	0.361
675.99	0.359
676.44	0.349
676.88	0.344
677.33	0.339
677.77	0.329
678.22	0.325
678.66	0.318
679.11	0.311
679.55	0.307
679.99	0.300
680.44	0.292
680.88	0.289
681.33	0.277
681.77	0.273
682.22	0.265
682.66	0.260
683.11	0.253
683.55	0.245
683.99	0.242
684.44	0.240
684.88	0.227
685.33	0.224
685.77	0.218
686.21	0.211
686.66	0.205
687.10	0.199
687.55	0.196
687.99	0.193
688.44	0.187
688.88	0.181
689.32	0.178
689.77	0.173
690.21	0.170
690.65	0.163
691.10	0.162
691.54	0.157
691.99	0.155
692.43	0.150
692.87	0.148
693.32	0.145
693.76	0.143
694.20	0.143
694.65	0.134
695.09	0.134
695.53	0.132
695.98	0.130
696.42	0.127
696.86	0.124
697.31	0.123
697.75	0.122
698.19	0.118
698.64	0.118
699.08	0.117
699.52	0.115
699.97	0.111
700.41	0.112
700.85	0.108
701.30	0.110
701.74	0.109
702.18	0.104
702.63	0.105
703.07	0.105
703.51	0.105
703.96	0.103
704.40	0.101
704.84	0.101
705.28	0.099
705.73	0.100
706.17	0.098
706.61	0.098
707.06	0.098
707.50	0.098
707.94	0.094
708.38	0.092
708.83	0.095
709.27	0.093
709.71	0.093
710.15	0.093
710.60	0.090
711.04	0.090
711.48	0.093
711.92	0.088
712.37	0.090
712.81	0.092
713.25	0.089
713.69	0.090
714.13	0.091
714.58	0.090
715.02	0.091
715.46	0.086
715.90	0.087
716.35	0.088
716.79	0.088
717.23	0.089
717.67	0.088
718.11	0.087
718.56	0.089
719.00	0.086
719.44	0.086
719.88	0.089
720.32	0.087
720.76	0.085
721.21	0.087
721.65	0.084
722.09	0.088
722.53	0.087
722.97	0.088
723.41	0.087
723.86	0.088
724.30	0.088
724.74	0.088
725.18	0.086
725.62	0.085
726.06	0.087
726.50	0.087
726.95	0.086
727.39	0.086
727.83	0.087
728.27	0.083
728.71	0.085
729.15	0.088
729.59	0.088
730.03	0.085
730.48	0.088
730.92	0.087
731.36	0.086
731.80	0.087
732.24	0.085
732.68	0.086
733.12	0.089
733.56	0.087
734.00	0.087
734.44	0.088
734.89	0.083
735.33	0.085
735.77	0.087
736.21	0.087
736.65	0.085
737.09	0.086
737.53	0.086
737.97	0.086
738.41	0.087
738.85	0.091
739.29	0.088
739.73	0.088
740.17	0.089
740.61	0.088
741.05	0.088
741.49	0.087
741.93	0.086
742.37	0.087
742.81	0.086
743.26	0.087
743.70	0.085
744.14	0.085
744.58	0.085
745.02	0.083
745.46	0.084
745.90	0.084
746.34	0.089
746.78	0.087
747.22	0.085
747.66	0.084
748.10	0.085
748.54	0.087
748.98	0.084
749.42	0.087
749.86	0.086
750.29	0.086
750.73	0.083
751.17	0.083
751.61	0.086
752.05	0.085
752.49	0.085
752.93	0.080
753.37	0.085
753.81	0.084
754.25	0.082
754.69	0.086
755.13	0.086
755.57	0.084
756.01	0.082
756.45	0.082
756.89	0.080
757.33	0.085
757.77	0.083
758.21	0.081
758.64	0.084
759.08	0.080
759.52	0.080
759.96	0.082
760.40	0.081
760.84	0.081
761.28	0.082
761.72	0.083
762.16	0.084
762.60	0.085
763.03	0.081
763.47	0.081
763.91	0.081
764.35	0.080
764.79	0.082
765.23	0.083
765.67	0.080
766.11	0.080
766.54	0.084
766.98	0.084
767.42	0.081
767.86	0.085
768.30	0.082
768.74	0.080
769.17	0.079
769.61	0.082
770.05	0.084
770.49	0.083
770.93	0.083
771.37	0.077
771.80	0.079
772.24	0.080
772.68	0.083
773.12	0.083
773.56	0.080
774.00	0.081
774.43	0.082
774.87	0.079
775.31	0.080
775.75	0.080
776.19	0.081
776.62	0.082
777.06	0.080
777.50	0.080
777.94	0.077
778.37	0.081
778.81	0.080
779.25	0.082
779.69	0.076
780.13	0.082
780.56	0.082
781.00	0.081
781.44	0.080
781.88	0.084
782.31	0.081
782.75	0.079
783.19	0.080
783.63	0.079
784.06	0.080
784.50	0.076
784.94	0.082
785.37	0.078
785.81	0.081
786.25	0.074
786.69	0.078
787.12	0.075
787.56	0.073
788.00	0.080
788.43	0.079
788.87	0.080
789.31	0.075
789.75	0.078
790.18	0.079
790.62	0.079
791.06	0.077
791.49	0.079
791.93	0.078
792.37	0.073
792.80	0.077
793.24	0.074
793.68	0.078
794.11	0.075
794.55	0.077
794.99	0.078
795.42	0.076
795.86	0.074
796.30	0.075
796.73	0.076
797.17	0.080
797.61	0.077
798.04	0.076
798.48	0.076
798.91	0.076
799.35	0.080
799.79	0.076
800.22	0.078
800.66	0.075
801.10	0.076
801.53	0.074
801.97	0.076
802.40	0.078
802.84	0.078
803.28	0.077
803.71	0.074
804.15	0.076
804.58	0.078
805.02	0.072
805.46	0.073
805.89	0.080
806.33	0.075
806.76	0.074
807.20	0.077
807.63	0.079
808.07	0.071
808.51	0.073
808.94	0.078
809.38	0.075
809.81	0.073
810.25	0.078
810.68	0.077
811.12	0.072
811.55	0.073
811.99	0.075
812.42	0.074
812.86	0.074
813.29	0.076
813.73	0.074
814.17	0.081
814.60	0.070
815.04	0.076
815.47	0.075
815.91	0.075
816.34	0.069
816.78	0.075
817.21	0.072
